year    month   day   hour  minute  B_enl V_enl   n_enl       T_enl
[year] [month] [day] [hour][minute] [nT]  [km/s]  [cm-3]      [kK]
2015   11       27     0   3    3.5168   518.1    4.665      45.170
2015   11       27     0  10    3.5126   518.0    4.660      45.125
2015   11       27     0  16    3.5085   518.0    4.656      45.081
2015   11       27     0  23    3.5044   518.0    4.651      45.036
2015   11       27     0  30    3.5003   517.9    4.647      44.992
2015   11       27     0  36    3.4963   517.9    4.642      44.949
2015   11       27     0  43    3.4923   517.8    4.638      44.905
2015   11       27     0  49    3.4883   517.8    4.634      44.862
2015   11       27     0  56    3.4844   517.8    4.630      44.820
2015   11       27     1   3    3.4805   517.7    4.626      44.778
2015   11       27     1   9    3.4766   517.7    4.622      44.736
2015   11       27     1  16    3.4727   517.6    4.618      44.695
2015   11       27     1  22    3.4689   517.6    4.614      44.654
2015   11       27     1  29    3.4651   517.5    4.610      44.614
2015   11       27     1  36    3.4614   517.5    4.607      44.574
2015   11       27     1  42    3.4576   517.4    4.603      44.535
2015   11       27     1  49    3.4539   517.4    4.599      44.496
2015   11       27     1  55    3.4502   517.3    4.596      44.457
2015   11       27     2   2    3.4466   517.3    4.592      44.419
2015   11       27     2   9    3.4429   517.2    4.589      44.380
2015   11       27     2  15    3.4393   517.2    4.586      44.343
2015   11       27     2  22    3.4358   517.1    4.582      44.305
2015   11       27     2  28    3.4322   517.0    4.579      44.268
2015   11       27     2  35    3.4287   517.0    4.576      44.231
2015   11       27     2  42    3.4252   516.9    4.572      44.194
2015   11       27     2  48    3.4217   516.9    4.569      44.157
2015   11       27     2  55    3.4182   516.8    4.566      44.120
2015   11       27     3   1    3.4148   516.8    4.562      44.084
2015   11       27     3   8    3.4114   516.7    4.559      44.047
2015   11       27     3  15    3.4080   516.6    4.556      44.011
2015   11       27     3  21    3.4046   516.6    4.553      43.974
2015   11       27     3  28    3.4013   516.5    4.550      43.938
2015   11       27     3  34    3.3980   516.5    4.547      43.901
2015   11       27     3  41    3.3947   516.4    4.543      43.865
2015   11       27     3  48    3.3914   516.3    4.540      43.828
2015   11       27     3  54    3.3882   516.3    4.537      43.792
2015   11       27     4   1    3.3850   516.2    4.534      43.755
2015   11       27     4   7    3.3818   516.1    4.531      43.719
2015   11       27     4  14    3.3786   516.1    4.528      43.683
2015   11       27     4  21    3.3755   516.0    4.525      43.647
2015   11       27     4  27    3.3724   515.9    4.522      43.611
2015   11       27     4  34    3.3693   515.9    4.519      43.575
2015   11       27     4  41    3.3662   515.8    4.517      43.539
2015   11       27     4  47    3.3631   515.7    4.514      43.503
2015   11       27     4  54    3.3601   515.7    4.511      43.468
2015   11       27     5   0    3.3570   515.6    4.509      43.433
2015   11       27     5   7    3.3540   515.5    4.506      43.398
2015   11       27     5  14    3.3510   515.5    4.504      43.363
2015   11       27     5  20    3.3481   515.4    4.501      43.329
2015   11       27     5  27    3.3451   515.3    4.499      43.294
2015   11       27     5  33    3.3421   515.2    4.497      43.260
2015   11       27     5  40    3.3391   515.2    4.494      43.226
2015   11       27     5  47    3.3362   515.1    4.492      43.192
2015   11       27     5  53    3.3333   515.0    4.490      43.158
2015   11       27     6   0    3.3303   515.0    4.488      43.125
2015   11       27     6   6    3.3274   514.9    4.486      43.091
2015   11       27     6  13    3.3244   514.8    4.483      43.058
2015   11       27     6  20    3.3215   514.7    4.481      43.024
2015   11       27     6  26    3.3186   514.6    4.479      42.991
2015   11       27     6  33    3.3157   514.6    4.477      42.958
2015   11       27     6  39    3.3128   514.5    4.475      42.924
2015   11       27     6  46    3.3099   514.4    4.473      42.891
2015   11       27     6  53    3.3070   514.3    4.471      42.857
2015   11       27     6  59    3.3041   514.2    4.469      42.823
2015   11       27     7   6    3.3012   514.1    4.467      42.790
2015   11       27     7  12    3.2984   514.1    4.465      42.756
2015   11       27     7  19    3.2955   514.0    4.463      42.722
2015   11       27     7  26    3.2927   513.9    4.461      42.688
2015   11       27     7  32    3.2898   513.8    4.459      42.654
2015   11       27     7  39    3.2870   513.7    4.457      42.620
2015   11       27     7  45    3.2842   513.6    4.455      42.586
2015   11       27     7  52    3.2814   513.5    4.453      42.552
2015   11       27     7  59    3.2786   513.4    4.451      42.518
2015   11       27     8   5    3.2758   513.3    4.450      42.484
2015   11       27     8  12    3.2731   513.2    4.448      42.451
2015   11       27     8  18    3.2704   513.1    4.446      42.417
2015   11       27     8  25    3.2676   513.0    4.444      42.384
2015   11       27     8  32    3.2649   513.0    4.442      42.350
2015   11       27     8  38    3.2622   512.9    4.440      42.317
2015   11       27     8  45    3.2596   512.8    4.439      42.285
2015   11       27     8  51    3.2569   512.7    4.437      42.252
2015   11       27     8  58    3.2543   512.6    4.435      42.220
2015   11       27     9   5    3.2517   512.5    4.434      42.188
2015   11       27     9  11    3.2491   512.4    4.432      42.157
2015   11       27     9  18    3.2465   512.3    4.431      42.125
2015   11       27     9  24    3.2440   512.1    4.429      42.094
2015   11       27     9  31    3.2414   512.0    4.428      42.063
2015   11       27     9  38    3.2389   511.9    4.426      42.033
2015   11       27     9  44    3.2364   511.8    4.425      42.003
2015   11       27     9  51    3.2339   511.7    4.423      41.973
2015   11       27     9  57    3.2315   511.6    4.422      41.943
2015   11       27    10   4    3.2290   511.5    4.421      41.913
2015   11       27    10  11    3.2266   511.4    4.419      41.884
2015   11       27    10  17    3.2241   511.3    4.418      41.854
2015   11       27    10  24    3.2217   511.2    4.417      41.825
2015   11       27    10  30    3.2193   511.1    4.416      41.796
2015   11       27    10  37    3.2169   511.0    4.414      41.767
2015   11       27    10  44    3.2144   510.9    4.413      41.737
2015   11       27    10  50    3.2121   510.8    4.412      41.708
2015   11       27    10  57    3.2097   510.7    4.410      41.679
2015   11       27    11   3    3.2073   510.5    4.409      41.650
2015   11       27    11  10    3.2049   510.4    4.408      41.620
2015   11       27    11  17    3.2026   510.3    4.406      41.591
2015   11       27    11  23    3.2002   510.2    4.405      41.562
2015   11       27    11  30    3.1979   510.1    4.403      41.533
2015   11       27    11  36    3.1955   510.0    4.402      41.504
2015   11       27    11  43    3.1932   509.9    4.400      41.474
2015   11       27    11  50    3.1909   509.7    4.399      41.445
2015   11       27    11  56    3.1886   509.6    4.398      41.416
2015   11       27    12   3    3.1863   509.5    4.396      41.386
2015   11       27    12   9    3.1840   509.4    4.395      41.357
2015   11       27    12  16    3.1817   509.3    4.393      41.327
2015   11       27    12  23    3.1795   509.2    4.392      41.297
2015   11       27    12  29    3.1772   509.0    4.390      41.268
2015   11       27    12  36    3.1749   508.9    4.389      41.238
2015   11       27    12  42    3.1727   508.8    4.387      41.208
2015   11       27    12  49    3.1704   508.7    4.386      41.177
2015   11       27    12  56    3.1681   508.6    4.384      41.147
2015   11       27    13   2    3.1659   508.5    4.383      41.116
2015   11       27    13   9    3.1636   508.3    4.381      41.085
2015   11       27    13  15    3.1614   508.2    4.380      41.054
2015   11       27    13  22    3.1591   508.1    4.378      41.022
2015   11       27    13  29    3.1568   508.0    4.377      40.991
2015   11       27    13  35    3.1546   507.9    4.375      40.959
2015   11       27    13  42    3.1523   507.7    4.374      40.926
2015   11       27    13  48    3.1500   507.6    4.372      40.894
2015   11       27    13  55    3.1478   507.5    4.371      40.861
2015   11       27    14   2    3.1455   507.4    4.369      40.828
2015   11       27    14   8    3.1432   507.2    4.367      40.795
2015   11       27    14  15    3.1410   507.1    4.366      40.761
2015   11       27    14  21    3.1387   507.0    4.364      40.727
2015   11       27    14  28    3.1364   506.9    4.363      40.693
2015   11       27    14  35    3.1342   506.7    4.361      40.659
2015   11       27    14  41    3.1319   506.6    4.360      40.624
2015   11       27    14  48    3.1296   506.5    4.358      40.590
2015   11       27    14  55    3.1274   506.4    4.356      40.555
2015   11       27    15   1    3.1251   506.2    4.355      40.520
2015   11       27    15   8    3.1228   506.1    4.353      40.485
2015   11       27    15  14    3.1206   506.0    4.352      40.450
2015   11       27    15  21    3.1183   505.8    4.350      40.415
2015   11       27    15  28    3.1161   505.7    4.349      40.380
2015   11       27    15  34    3.1138   505.6    4.347      40.345
2015   11       27    15  41    3.1116   505.4    4.346      40.310
2015   11       27    15  47    3.1094   505.3    4.345      40.275
2015   11       27    15  54    3.1071   505.2    4.343      40.241
2015   11       27    16   1    3.1049   505.0    4.342      40.206
2015   11       27    16   7    3.1027   504.9    4.341      40.172
2015   11       27    16  14    3.1005   504.8    4.340      40.139
2015   11       27    16  20    3.0983   504.6    4.339      40.105
2015   11       27    16  27    3.0961   504.5    4.338      40.072
2015   11       27    16  34    3.0940   504.3    4.337      40.039
2015   11       27    16  40    3.0918   504.2    4.336      40.007
2015   11       27    16  47    3.0896   504.1    4.335      39.974
2015   11       27    16  53    3.0875   503.9    4.335      39.943
2015   11       27    17   0    3.0854   503.8    4.334      39.911
2015   11       27    17   7    3.0833   503.6    4.334      39.880
2015   11       27    17  13    3.0812   503.5    4.333      39.849
2015   11       27    17  20    3.0791   503.4    4.333      39.819
2015   11       27    17  26    3.0770   503.2    4.332      39.789
2015   11       27    17  33    3.0749   503.1    4.332      39.759
2015   11       27    17  40    3.0728   502.9    4.332      39.729
2015   11       27    17  46    3.0707   502.8    4.332      39.700
2015   11       27    17  53    3.0687   502.6    4.332      39.671
2015   11       27    17  59    3.0666   502.5    4.332      39.643
2015   11       27    18   6    3.0646   502.3    4.332      39.614
2015   11       27    18  13    3.0625   502.2    4.332      39.586
2015   11       27    18  19    3.0605   502.0    4.332      39.558
2015   11       27    18  26    3.0585   501.9    4.332      39.530
2015   11       27    18  32    3.0565   501.7    4.332      39.503
2015   11       27    18  39    3.0545   501.6    4.332      39.476
2015   11       27    18  46    3.0525   501.4    4.333      39.449
2015   11       27    18  52    3.0505   501.3    4.333      39.423
2015   11       27    18  59    3.0486   501.1    4.333      39.396
2015   11       27    19   5    3.0466   501.0    4.333      39.370
2015   11       27    19  12    3.0446   500.8    4.333      39.344
2015   11       27    19  19    3.0427   500.7    4.334      39.319
2015   11       27    19  25    3.0407   500.5    4.334      39.293
2015   11       27    19  32    3.0388   500.4    4.334      39.267
2015   11       27    19  38    3.0369   500.2    4.334      39.242
2015   11       27    19  45    3.0349   500.1    4.334      39.216
2015   11       27    19  52    3.0330   499.9    4.335      39.190
2015   11       27    19  58    3.0311   499.8    4.335      39.164
2015   11       27    20   5    3.0291   499.6    4.335      39.138
2015   11       27    20  11    3.0272   499.5    4.335      39.112
2015   11       27    20  18    3.0253   499.3    4.335      39.085
2015   11       27    20  25    3.0233   499.2    4.335      39.058
2015   11       27    20  31    3.0214   499.0    4.335      39.031
2015   11       27    20  38    3.0194   498.8    4.335      39.004
2015   11       27    20  44    3.0175   498.7    4.335      38.977
2015   11       27    20  51    3.0155   498.5    4.335      38.949
2015   11       27    20  58    3.0136   498.4    4.334      38.922
2015   11       27    21   4    3.0116   498.2    4.334      38.894
2015   11       27    21  11    3.0096   498.1    4.334      38.866
2015   11       27    21  17    3.0076   497.9    4.333      38.837
2015   11       27    21  24    3.0056   497.8    4.333      38.809
2015   11       27    21  31    3.0036   497.6    4.333      38.780
2015   11       27    21  37    3.0016   497.5    4.332      38.750
2015   11       27    21  44    2.9996   497.3    4.331      38.721
2015   11       27    21  50    2.9976   497.2    4.331      38.691
2015   11       27    21  57    2.9956   497.0    4.330      38.660
2015   11       27    22   4    2.9936   496.8    4.329      38.630
2015   11       27    22  10    2.9916   496.7    4.329      38.598
2015   11       27    22  17    2.9896   496.5    4.328      38.567
2015   11       27    22  23    2.9875   496.4    4.327      38.535
2015   11       27    22  30    2.9855   496.2    4.326      38.502
2015   11       27    22  37    2.9835   496.1    4.325      38.470
2015   11       27    22  43    2.9815   495.9    4.324      38.436
2015   11       27    22  50    2.9794   495.8    4.323      38.403
2015   11       27    22  56    2.9774   495.6    4.322      38.369
2015   11       27    23   3    2.9754   495.4    4.321      38.335
2015   11       27    23  10    2.9733   495.3    4.320      38.300
2015   11       27    23  16    2.9713   495.1    4.319      38.266
2015   11       27    23  23    2.9693   495.0    4.318      38.231
2015   11       27    23  29    2.9672   494.8    4.317      38.196
2015   11       27    23  36    2.9652   494.6    4.316      38.160
2015   11       27    23  43    2.9632   494.5    4.315      38.124
2015   11       27    23  49    2.9612   494.3    4.314      38.089
2015   11       27    23  56    2.9592   494.1    4.313      38.053
2015   11       28     0   2    2.9572   494.0    4.312      38.017
2015   11       28     0   9    2.9552   493.8    4.311      37.981
2015   11       28     0  16    2.9532   493.6    4.310      37.945
2015   11       28     0  22    2.9512   493.5    4.309      37.909
2015   11       28     0  29    2.9492   493.3    4.308      37.874
2015   11       28     0  35    2.9472   493.1    4.307      37.838
2015   11       28     0  42    2.9453   493.0    4.306      37.802
2015   11       28     0  49    2.9434   492.8    4.306      37.767
2015   11       28     0  55    2.9414   492.6    4.305      37.731
2015   11       28     1   2    2.9395   492.5    4.304      37.696
2015   11       28     1   8    2.9376   492.3    4.304      37.661
2015   11       28     1  15    2.9357   492.1    4.303      37.626
2015   11       28     1  22    2.9338   491.9    4.303      37.592
2015   11       28     1  28    2.9319   491.8    4.302      37.558
2015   11       28     1  35    2.9301   491.6    4.302      37.524
2015   11       28     1  41    2.9282   491.4    4.302      37.490
2015   11       28     1  48    2.9264   491.3    4.302      37.457
2015   11       28     1  55    2.9246   491.1    4.302      37.424
2015   11       28     2   1    2.9228   490.9    4.302      37.391
2015   11       28     2   8    2.9210   490.7    4.302      37.359
2015   11       28     2  15    2.9192   490.5    4.302      37.327
2015   11       28     2  21    2.9174   490.4    4.302      37.296
2015   11       28     2  28    2.9156   490.2    4.302      37.265
2015   11       28     2  34    2.9139   490.0    4.303      37.234
2015   11       28     2  41    2.9122   489.8    4.303      37.204
2015   11       28     2  48    2.9104   489.7    4.304      37.175
2015   11       28     2  54    2.9087   489.5    4.304      37.145
2015   11       28     3   1    2.9070   489.3    4.305      37.116
2015   11       28     3   7    2.9053   489.1    4.305      37.087
2015   11       28     3  14    2.9036   488.9    4.306      37.059
2015   11       28     3  21    2.9020   488.8    4.307      37.031
2015   11       28     3  27    2.9003   488.6    4.308      37.003
2015   11       28     3  34    2.8986   488.4    4.309      36.975
2015   11       28     3  40    2.8970   488.2    4.310      36.948
2015   11       28     3  47    2.8953   488.0    4.311      36.922
2015   11       28     3  54    2.8937   487.9    4.312      36.895
2015   11       28     4   0    2.8920   487.7    4.314      36.869
2015   11       28     4   7    2.8904   487.5    4.315      36.843
2015   11       28     4  13    2.8888   487.3    4.316      36.818
2015   11       28     4  20    2.8871   487.1    4.318      36.793
2015   11       28     4  27    2.8855   487.0    4.319      36.768
2015   11       28     4  33    2.8839   486.8    4.320      36.743
2015   11       28     4  40    2.8822   486.6    4.322      36.719
2015   11       28     4  46    2.8806   486.4    4.323      36.694
2015   11       28     4  53    2.8790   486.2    4.325      36.670
2015   11       28     5   0    2.8774   486.0    4.326      36.645
2015   11       28     5   6    2.8758   485.9    4.328      36.621
2015   11       28     5  13    2.8742   485.7    4.329      36.596
2015   11       28     5  19    2.8726   485.5    4.330      36.571
2015   11       28     5  26    2.8709   485.3    4.332      36.547
2015   11       28     5  33    2.8693   485.1    4.333      36.522
2015   11       28     5  39    2.8677   485.0    4.335      36.496
2015   11       28     5  46    2.8661   484.8    4.336      36.471
2015   11       28     5  52    2.8645   484.6    4.337      36.445
2015   11       28     5  59    2.8629   484.4    4.338      36.420
2015   11       28     6   6    2.8612   484.2    4.340      36.394
2015   11       28     6  12    2.8596   484.0    4.341      36.367
2015   11       28     6  19    2.8580   483.9    4.342      36.341
2015   11       28     6  25    2.8564   483.7    4.343      36.314
2015   11       28     6  32    2.8548   483.5    4.344      36.287
2015   11       28     6  39    2.8531   483.3    4.345      36.260
2015   11       28     6  45    2.8515   483.1    4.346      36.232
2015   11       28     6  52    2.8499   482.9    4.346      36.205
2015   11       28     6  58    2.8483   482.7    4.347      36.177
2015   11       28     7   5    2.8467   482.6    4.348      36.149
2015   11       28     7  12    2.8451   482.4    4.349      36.120
2015   11       28     7  18    2.8435   482.2    4.349      36.092
2015   11       28     7  25    2.8419   482.0    4.350      36.063
2015   11       28     7  31    2.8403   481.8    4.351      36.035
2015   11       28     7  38    2.8387   481.6    4.351      36.006
2015   11       28     7  45    2.8372   481.4    4.352      35.977
2015   11       28     7  51    2.8356   481.3    4.352      35.948
2015   11       28     7  58    2.8341   481.1    4.353      35.918
2015   11       28     8   4    2.8325   480.9    4.353      35.889
2015   11       28     8  11    2.8310   480.7    4.354      35.859
2015   11       28     8  18    2.8295   480.5    4.354      35.830
2015   11       28     8  24    2.8280   480.3    4.355      35.800
2015   11       28     8  31    2.8265   480.1    4.355      35.770
2015   11       28     8  37    2.8250   479.9    4.355      35.740
2015   11       28     8  44    2.8235   479.8    4.356      35.710
2015   11       28     8  51    2.8220   479.6    4.356      35.680
2015   11       28     8  57    2.8205   479.4    4.357      35.649
2015   11       28     9   4    2.8190   479.2    4.357      35.619
2015   11       28     9  10    2.8175   479.0    4.357      35.588
2015   11       28     9  17    2.8160   478.8    4.358      35.557
2015   11       28     9  24    2.8145   478.6    4.358      35.526
2015   11       28     9  30    2.8131   478.4    4.359      35.495
2015   11       28     9  37    2.8116   478.2    4.359      35.464
2015   11       28     9  43    2.8101   478.0    4.360      35.433
2015   11       28     9  50    2.8087   477.8    4.360      35.402
2015   11       28     9  57    2.8072   477.6    4.361      35.370
2015   11       28    10   3    2.8058   477.4    4.361      35.339
2015   11       28    10  10    2.8043   477.2    4.362      35.308
2015   11       28    10  16    2.8029   477.0    4.363      35.277
2015   11       28    10  23    2.8015   476.8    4.363      35.245
2015   11       28    10  30    2.8001   476.6    4.364      35.214
2015   11       28    10  36    2.7987   476.4    4.365      35.183
2015   11       28    10  43    2.7974   476.2    4.366      35.152
2015   11       28    10  49    2.7960   476.0    4.367      35.121
2015   11       28    10  56    2.7947   475.8    4.368      35.091
2015   11       28    11   3    2.7934   475.6    4.369      35.060
2015   11       28    11   9    2.7921   475.4    4.370      35.030
2015   11       28    11  16    2.7908   475.2    4.372      35.001
2015   11       28    11  22    2.7895   475.0    4.373      34.971
2015   11       28    11  29    2.7883   474.8    4.375      34.941
2015   11       28    11  36    2.7870   474.6    4.376      34.913
2015   11       28    11  42    2.7858   474.4    4.378      34.884
2015   11       28    11  49    2.7846   474.2    4.380      34.855
2015   11       28    11  55    2.7834   474.0    4.382      34.827
2015   11       28    12   2    2.7823   473.8    4.384      34.799
2015   11       28    12   9    2.7811   473.6    4.386      34.772
2015   11       28    12  15    2.7800   473.4    4.388      34.744
2015   11       28    12  22    2.7788   473.2    4.390      34.717
2015   11       28    12  28    2.7778   472.9    4.393      34.690
2015   11       28    12  35    2.7767   472.7    4.395      34.664
2015   11       28    12  42    2.7756   472.5    4.397      34.638
2015   11       28    12  48    2.7745   472.3    4.400      34.611
2015   11       28    12  55    2.7734   472.1    4.403      34.586
2015   11       28    13   1    2.7723   471.9    4.405      34.560
2015   11       28    13   8    2.7713   471.7    4.408      34.534
2015   11       28    13  15    2.7702   471.5    4.411      34.509
2015   11       28    13  21    2.7692   471.3    4.414      34.484
2015   11       28    13  28    2.7682   471.1    4.416      34.459
2015   11       28    13  34    2.7671   470.8    4.419      34.434
2015   11       28    13  41    2.7661   470.6    4.422      34.409
2015   11       28    13  48    2.7651   470.4    4.425      34.384
2015   11       28    13  54    2.7641   470.2    4.428      34.359
2015   11       28    14   1    2.7631   470.0    4.431      34.335
2015   11       28    14   8    2.7621   469.8    4.434      34.310
2015   11       28    14  14    2.7611   469.6    4.437      34.286
2015   11       28    14  21    2.7601   469.4    4.440      34.262
2015   11       28    14  27    2.7592   469.1    4.443      34.238
2015   11       28    14  34    2.7582   468.9    4.446      34.214
2015   11       28    14  41    2.7572   468.7    4.449      34.190
2015   11       28    14  47    2.7563   468.5    4.452      34.166
2015   11       28    14  54    2.7553   468.3    4.455      34.142
2015   11       28    15   0    2.7544   468.1    4.458      34.118
2015   11       28    15   7    2.7535   467.9    4.461      34.095
2015   11       28    15  14    2.7526   467.7    4.464      34.071
2015   11       28    15  20    2.7516   467.4    4.467      34.048
2015   11       28    15  27    2.7507   467.2    4.470      34.024
2015   11       28    15  33    2.7498   467.0    4.473      34.001
2015   11       28    15  40    2.7489   466.8    4.476      33.977
2015   11       28    15  47    2.7481   466.6    4.478      33.954
2015   11       28    15  53    2.7472   466.4    4.481      33.931
2015   11       28    16   0    2.7463   466.2    4.484      33.907
2015   11       28    16   6    2.7454   466.0    4.487      33.883
2015   11       28    16  13    2.7445   465.8    4.490      33.860
2015   11       28    16  20    2.7436   465.5    4.493      33.836
2015   11       28    16  26    2.7428   465.3    4.496      33.813
2015   11       28    16  33    2.7419   465.1    4.499      33.789
2015   11       28    16  39    2.7410   464.9    4.502      33.765
2015   11       28    16  46    2.7402   464.7    4.505      33.740
2015   11       28    16  53    2.7393   464.5    4.507      33.716
2015   11       28    16  59    2.7384   464.3    4.510      33.692
2015   11       28    17   6    2.7376   464.1    4.513      33.667
2015   11       28    17  12    2.7367   463.9    4.515      33.642
2015   11       28    17  19    2.7359   463.6    4.518      33.617
2015   11       28    17  26    2.7351   463.4    4.521      33.592
2015   11       28    17  32    2.7342   463.2    4.523      33.566
2015   11       28    17  39    2.7334   463.0    4.526      33.540
2015   11       28    17  45    2.7326   462.8    4.528      33.514
2015   11       28    17  52    2.7318   462.6    4.531      33.488
2015   11       28    17  59    2.7310   462.4    4.533      33.462
2015   11       28    18   5    2.7302   462.2    4.536      33.435
2015   11       28    18  12    2.7294   461.9    4.538      33.408
2015   11       28    18  18    2.7286   461.7    4.541      33.382
2015   11       28    18  25    2.7278   461.5    4.543      33.355
2015   11       28    18  32    2.7271   461.3    4.546      33.327
2015   11       28    18  38    2.7263   461.1    4.548      33.300
2015   11       28    18  45    2.7256   460.9    4.551      33.272
2015   11       28    18  51    2.7248   460.6    4.553      33.245
2015   11       28    18  58    2.7241   460.4    4.556      33.217
2015   11       28    19   5    2.7234   460.2    4.559      33.189
2015   11       28    19  11    2.7227   460.0    4.561      33.161
2015   11       28    19  18    2.7220   459.8    4.564      33.134
2015   11       28    19  24    2.7213   459.6    4.566      33.106
2015   11       28    19  31    2.7207   459.3    4.569      33.078
2015   11       28    19  38    2.7200   459.1    4.572      33.050
2015   11       28    19  44    2.7194   458.9    4.574      33.022
2015   11       28    19  51    2.7188   458.7    4.577      32.995
2015   11       28    19  57    2.7181   458.5    4.580      32.967
2015   11       28    20   4    2.7176   458.3    4.583      32.939
2015   11       28    20  11    2.7170   458.0    4.586      32.912
2015   11       28    20  17    2.7164   457.8    4.589      32.884
2015   11       28    20  24    2.7158   457.6    4.592      32.857
2015   11       28    20  30    2.7153   457.4    4.595      32.830
2015   11       28    20  37    2.7147   457.2    4.598      32.803
2015   11       28    20  44    2.7142   456.9    4.602      32.776
2015   11       28    20  50    2.7137   456.7    4.605      32.749
2015   11       28    20  57    2.7132   456.5    4.608      32.722
2015   11       28    21   3    2.7128   456.3    4.612      32.695
2015   11       28    21  10    2.7123   456.1    4.615      32.669
2015   11       28    21  17    2.7119   455.8    4.619      32.643
2015   11       28    21  23    2.7114   455.6    4.623      32.617
2015   11       28    21  30    2.7110   455.4    4.626      32.590
2015   11       28    21  36    2.7106   455.2    4.630      32.565
2015   11       28    21  43    2.7102   455.0    4.634      32.539
2015   11       28    21  50    2.7098   454.7    4.638      32.513
2015   11       28    21  56    2.7094   454.5    4.642      32.488
2015   11       28    22   3    2.7090   454.3    4.646      32.462
2015   11       28    22   9    2.7087   454.1    4.650      32.437
2015   11       28    22  16    2.7083   453.9    4.654      32.412
2015   11       28    22  23    2.7080   453.7    4.658      32.386
2015   11       28    22  29    2.7077   453.4    4.662      32.361
2015   11       28    22  36    2.7073   453.2    4.666      32.336
2015   11       28    22  42    2.7070   453.0    4.670      32.311
2015   11       28    22  49    2.7067   452.8    4.675      32.286
2015   11       28    22  56    2.7065   452.6    4.679      32.262
2015   11       28    23   2    2.7062   452.3    4.683      32.237
2015   11       28    23   9    2.7059   452.1    4.688      32.212
2015   11       28    23  15    2.7056   451.9    4.692      32.187
2015   11       28    23  22    2.7054   451.7    4.696      32.163
2015   11       28    23  29    2.7052   451.5    4.701      32.138
2015   11       28    23  35    2.7049   451.2    4.705      32.114
2015   11       28    23  42    2.7047   451.0    4.710      32.089
2015   11       28    23  48    2.7045   450.8    4.714      32.065
2015   11       28    23  55    2.7043   450.6    4.718      32.040
2015   11       29     0   2    2.7041   450.4    4.723      32.016
2015   11       29     0   8    2.7039   450.1    4.727      31.991
2015   11       29     0  15    2.7038   449.9    4.732      31.967
2015   11       29     0  21    2.7036   449.7    4.736      31.943
2015   11       29     0  28    2.7035   449.5    4.741      31.918
2015   11       29     0  35    2.7034   449.3    4.745      31.894
2015   11       29     0  41    2.7032   449.0    4.750      31.870
2015   11       29     0  48    2.7031   448.8    4.754      31.846
2015   11       29     0  54    2.7031   448.6    4.759      31.822
2015   11       29     1   1    2.7030   448.4    4.763      31.798
2015   11       29     1   8    2.7029   448.2    4.768      31.774
2015   11       29     1  14    2.7029   448.0    4.772      31.750
2015   11       29     1  21    2.7028   447.7    4.777      31.726
2015   11       29     1  27    2.7028   447.5    4.781      31.702
2015   11       29     1  34    2.7028   447.3    4.786      31.679
2015   11       29     1  41    2.7028   447.1    4.790      31.655
2015   11       29     1  47    2.7028   446.9    4.795      31.631
2015   11       29     1  54    2.7028   446.7    4.799      31.608
2015   11       29     2   1    2.7028   446.4    4.804      31.584
2015   11       29     2   7    2.7029   446.2    4.808      31.560
2015   11       29     2  14    2.7029   446.0    4.813      31.537
2015   11       29     2  20    2.7030   445.8    4.817      31.513
2015   11       29     2  27    2.7031   445.6    4.822      31.489
2015   11       29     2  34    2.7032   445.4    4.826      31.466
2015   11       29     2  40    2.7033   445.1    4.831      31.442
2015   11       29     2  47    2.7035   444.9    4.835      31.419
2015   11       29     2  53    2.7036   444.7    4.840      31.395
2015   11       29     3   0    2.7037   444.5    4.844      31.371
2015   11       29     3   7    2.7039   444.3    4.849      31.348
2015   11       29     3  13    2.7041   444.1    4.853      31.324
2015   11       29     3  20    2.7043   443.9    4.858      31.301
2015   11       29     3  26    2.7045   443.6    4.863      31.277
2015   11       29     3  33    2.7047   443.4    4.867      31.254
2015   11       29     3  40    2.7050   443.2    4.872      31.230
2015   11       29     3  46    2.7052   443.0    4.876      31.207
2015   11       29     3  53    2.7055   442.8    4.881      31.183
2015   11       29     3  59    2.7058   442.6    4.886      31.160
2015   11       29     4   6    2.7060   442.4    4.890      31.137
2015   11       29     4  13    2.7064   442.1    4.895      31.113
2015   11       29     4  19    2.7067   441.9    4.900      31.090
2015   11       29     4  26    2.7070   441.7    4.905      31.067
2015   11       29     4  32    2.7074   441.5    4.909      31.044
2015   11       29     4  39    2.7078   441.3    4.914      31.021
2015   11       29     4  46    2.7082   441.1    4.919      30.998
2015   11       29     4  52    2.7086   440.9    4.924      30.975
2015   11       29     4  59    2.7090   440.7    4.929      30.952
2015   11       29     5   5    2.7094   440.4    4.934      30.930
2015   11       29     5  12    2.7099   440.2    4.940      30.907
2015   11       29     5  19    2.7104   440.0    4.945      30.884
2015   11       29     5  25    2.7109   439.8    4.950      30.862
2015   11       29     5  32    2.7114   439.6    4.955      30.840
2015   11       29     5  38    2.7119   439.4    4.961      30.817
2015   11       29     5  45    2.7125   439.2    4.966      30.795
2015   11       29     5  52    2.7130   439.0    4.972      30.773
2015   11       29     5  58    2.7136   438.8    4.977      30.751
2015   11       29     6   5    2.7142   438.5    4.983      30.729
2015   11       29     6  11    2.7148   438.3    4.988      30.708
2015   11       29     6  18    2.7154   438.1    4.994      30.686
2015   11       29     6  25    2.7161   437.9    5.000      30.664
2015   11       29     6  31    2.7167   437.7    5.005      30.643
2015   11       29     6  38    2.7174   437.5    5.011      30.621
2015   11       29     6  44    2.7181   437.3    5.017      30.600
2015   11       29     6  51    2.7188   437.1    5.023      30.578
2015   11       29     6  58    2.7195   436.9    5.029      30.557
2015   11       29     7   4    2.7203   436.7    5.035      30.536
2015   11       29     7  11    2.7210   436.5    5.041      30.515
2015   11       29     7  17    2.7218   436.2    5.047      30.494
2015   11       29     7  24    2.7226   436.0    5.053      30.473
2015   11       29     7  31    2.7234   435.8    5.059      30.452
2015   11       29     7  37    2.7243   435.6    5.065      30.431
2015   11       29     7  44    2.7251   435.4    5.071      30.411
2015   11       29     7  50    2.7260   435.2    5.078      30.390
2015   11       29     7  57    2.7269   435.0    5.084      30.370
2015   11       29     8   4    2.7278   434.8    5.090      30.349
2015   11       29     8  10    2.7287   434.6    5.096      30.329
2015   11       29     8  17    2.7297   434.4    5.103      30.309
2015   11       29     8  23    2.7307   434.2    5.109      30.289
2015   11       29     8  30    2.7317   434.0    5.116      30.269
2015   11       29     8  37    2.7327   433.8    5.122      30.249
2015   11       29     8  43    2.7337   433.6    5.129      30.230
2015   11       29     8  50    2.7348   433.3    5.135      30.210
2015   11       29     8  56    2.7359   433.1    5.142      30.191
2015   11       29     9   3    2.7370   432.9    5.148      30.172
2015   11       29     9  10    2.7381   432.7    5.155      30.153
2015   11       29     9  16    2.7393   432.5    5.162      30.134
2015   11       29     9  23    2.7405   432.3    5.168      30.115
2015   11       29     9  29    2.7417   432.1    5.175      30.097
2015   11       29     9  36    2.7429   431.9    5.182      30.078
2015   11       29     9  43    2.7441   431.7    5.189      30.060
2015   11       29     9  49    2.7454   431.5    5.195      30.042
2015   11       29     9  56    2.7467   431.3    5.202      30.024
2015   11       29    10   2    2.7480   431.1    5.209      30.007
2015   11       29    10   9    2.7494   430.9    5.216      29.990
2015   11       29    10  16    2.7507   430.7    5.223      29.972
2015   11       29    10  22    2.7521   430.5    5.230      29.955
2015   11       29    10  29    2.7535   430.3    5.237      29.939
2015   11       29    10  35    2.7550   430.1    5.245      29.922
2015   11       29    10  42    2.7564   429.9    5.252      29.905
2015   11       29    10  49    2.7579   429.7    5.259      29.889
2015   11       29    10  55    2.7594   429.5    5.266      29.873
2015   11       29    11   2    2.7609   429.3    5.273      29.857
2015   11       29    11   8    2.7624   429.1    5.281      29.841
2015   11       29    11  15    2.7639   428.9    5.288      29.826
2015   11       29    11  22    2.7655   428.7    5.295      29.810
2015   11       29    11  28    2.7671   428.6    5.303      29.795
2015   11       29    11  35    2.7687   428.4    5.310      29.780
2015   11       29    11  41    2.7703   428.2    5.318      29.765
2015   11       29    11  48    2.7719   428.0    5.325      29.750
2015   11       29    11  55    2.7735   427.8    5.333      29.735
2015   11       29    12   1    2.7752   427.6    5.340      29.721
2015   11       29    12   8    2.7769   427.4    5.348      29.707
2015   11       29    12  14    2.7786   427.2    5.355      29.692
2015   11       29    12  21    2.7803   427.0    5.363      29.678
2015   11       29    12  28    2.7820   426.8    5.370      29.665
2015   11       29    12  34    2.7837   426.7    5.378      29.651
2015   11       29    12  41    2.7855   426.5    5.386      29.637
2015   11       29    12  47    2.7873   426.3    5.394      29.624
2015   11       29    12  54    2.7891   426.1    5.401      29.611
2015   11       29    13   1    2.7909   425.9    5.409      29.598
2015   11       29    13   7    2.7927   425.7    5.417      29.585
2015   11       29    13  14    2.7946   425.5    5.425      29.572
2015   11       29    13  20    2.7964   425.4    5.433      29.559
2015   11       29    13  27    2.7983   425.2    5.440      29.547
2015   11       29    13  34    2.8002   425.0    5.448      29.535
2015   11       29    13  40    2.8022   424.8    5.456      29.523
2015   11       29    13  47    2.8041   424.6    5.464      29.512
2015   11       29    13  53    2.8061   424.4    5.472      29.500
2015   11       29    14   0    2.8081   424.3    5.480      29.489
2015   11       29    14   7    2.8101   424.1    5.489      29.478
2015   11       29    14  13    2.8121   423.9    5.497      29.467
2015   11       29    14  20    2.8142   423.7    5.505      29.456
2015   11       29    14  26    2.8163   423.5    5.513      29.446
2015   11       29    14  33    2.8184   423.4    5.521      29.436
2015   11       29    14  40    2.8205   423.2    5.530      29.426
2015   11       29    14  46    2.8227   423.0    5.538      29.416
2015   11       29    14  53    2.8248   422.8    5.547      29.407
2015   11       29    14  59    2.8270   422.7    5.555      29.398
2015   11       29    15   6    2.8293   422.5    5.563      29.389
2015   11       29    15  13    2.8315   422.3    5.572      29.381
2015   11       29    15  19    2.8338   422.1    5.580      29.373
2015   11       29    15  26    2.8361   422.0    5.589      29.365
2015   11       29    15  33    2.8384   421.8    5.598      29.357
2015   11       29    15  39    2.8407   421.6    5.606      29.349
2015   11       29    15  46    2.8430   421.4    5.615      29.342
2015   11       29    15  52    2.8454   421.3    5.624      29.335
2015   11       29    15  59    2.8478   421.1    5.632      29.329
2015   11       29    16   6    2.8502   420.9    5.641      29.322
2015   11       29    16  12    2.8527   420.8    5.650      29.316
2015   11       29    16  19    2.8552   420.6    5.659      29.310
2015   11       29    16  25    2.8576   420.4    5.668      29.304
2015   11       29    16  32    2.8601   420.3    5.677      29.299
2015   11       29    16  39    2.8626   420.1    5.685      29.293
2015   11       29    16  45    2.8652   420.0    5.694      29.288
2015   11       29    16  52    2.8677   419.8    5.703      29.283
2015   11       29    16  58    2.8703   419.6    5.712      29.278
2015   11       29    17   5    2.8729   419.5    5.721      29.273
2015   11       29    17  12    2.8754   419.3    5.730      29.269
2015   11       29    17  18    2.8780   419.2    5.739      29.265
2015   11       29    17  25    2.8807   419.0    5.748      29.260
2015   11       29    17  31    2.8833   418.8    5.757      29.256
2015   11       29    17  38    2.8859   418.7    5.766      29.252
2015   11       29    17  45    2.8886   418.5    5.774      29.248
2015   11       29    17  51    2.8913   418.4    5.783      29.244
2015   11       29    17  58    2.8939   418.2    5.792      29.240
2015   11       29    18   4    2.8966   418.1    5.801      29.237
2015   11       29    18  11    2.8993   417.9    5.810      29.233
2015   11       29    18  18    2.9020   417.8    5.819      29.229
2015   11       29    18  24    2.9047   417.6    5.828      29.226
2015   11       29    18  31    2.9074   417.5    5.837      29.223
2015   11       29    18  37    2.9102   417.3    5.846      29.219
2015   11       29    18  44    2.9129   417.2    5.854      29.216
2015   11       29    18  51    2.9156   417.0    5.863      29.213
2015   11       29    18  57    2.9184   416.9    5.872      29.210
2015   11       29    19   4    2.9212   416.7    5.881      29.207
2015   11       29    19  10    2.9239   416.6    5.890      29.204
2015   11       29    19  17    2.9267   416.4    5.899      29.201
2015   11       29    19  24    2.9295   416.3    5.908      29.198
2015   11       29    19  30    2.9323   416.1    5.917      29.195
2015   11       29    19  37    2.9350   416.0    5.926      29.193
2015   11       29    19  43    2.9378   415.9    5.934      29.190
2015   11       29    19  50    2.9407   415.7    5.943      29.188
2015   11       29    19  57    2.9435   415.6    5.952      29.186
2015   11       29    20   3    2.9463   415.4    5.961      29.183
2015   11       29    20  10    2.9491   415.3    5.970      29.181
2015   11       29    20  16    2.9519   415.2    5.979      29.180
2015   11       29    20  23    2.9548   415.0    5.988      29.178
2015   11       29    20  30    2.9576   414.9    5.997      29.176
2015   11       29    20  36    2.9605   414.8    6.007      29.175
2015   11       29    20  43    2.9634   414.6    6.016      29.173
2015   11       29    20  49    2.9662   414.5    6.025      29.172
2015   11       29    20  56    2.9691   414.3    6.034      29.171
2015   11       29    21   3    2.9720   414.2    6.043      29.171
2015   11       29    21   9    2.9749   414.1    6.052      29.170
2015   11       29    21  16    2.9778   413.9    6.062      29.170
2015   11       29    21  22    2.9808   413.8    6.071      29.170
2015   11       29    21  29    2.9837   413.7    6.080      29.170
2015   11       29    21  36    2.9867   413.5    6.090      29.171
2015   11       29    21  42    2.9896   413.4    6.099      29.172
2015   11       29    21  49    2.9926   413.3    6.108      29.173
2015   11       29    21  55    2.9956   413.2    6.118      29.175
2015   11       29    22   2    2.9986   413.0    6.127      29.176
2015   11       29    22   9    3.0016   412.9    6.136      29.178
2015   11       29    22  15    3.0046   412.8    6.146      29.181
2015   11       29    22  22    3.0076   412.7    6.155      29.184
2015   11       29    22  28    3.0107   412.5    6.164      29.187
2015   11       29    22  35    3.0137   412.4    6.173      29.190
2015   11       29    22  42    3.0168   412.3    6.183      29.193
2015   11       29    22  48    3.0198   412.2    6.192      29.197
2015   11       29    22  55    3.0229   412.0    6.201      29.201
2015   11       29    23   1    3.0259   411.9    6.210      29.205
2015   11       29    23   8    3.0290   411.8    6.219      29.210
2015   11       29    23  15    3.0321   411.7    6.228      29.214
2015   11       29    23  21    3.0352   411.6    6.237      29.219
2015   11       29    23  28    3.0382   411.4    6.246      29.224
2015   11       29    23  34    3.0413   411.3    6.255      29.229
2015   11       29    23  41    3.0444   411.2    6.264      29.234
2015   11       29    23  48    3.0475   411.1    6.273      29.239
2015   11       29    23  54    3.0506   411.0    6.282      29.244
2015   11       30     0   1    3.0537   410.9    6.290      29.249
2015   11       30     0   7    3.0568   410.8    6.299      29.255
2015   11       30     0  14    3.0598   410.6    6.308      29.260
2015   11       30     0  21    3.0629   410.5    6.316      29.265
2015   11       30     0  27    3.0660   410.4    6.325      29.271
2015   11       30     0  34    3.0691   410.3    6.333      29.276
2015   11       30     0  40    3.0721   410.2    6.341      29.282
2015   11       30     0  47    3.0752   410.1    6.349      29.287
2015   11       30     0  54    3.0782   410.0    6.358      29.292
2015   11       30     1   0    3.0813   409.9    6.366      29.298
2015   11       30     1   7    3.0843   409.8    6.374      29.303
2015   11       30     1  13    3.0873   409.7    6.382      29.308
2015   11       30     1  20    3.0904   409.6    6.390      29.313
2015   11       30     1  27    3.0934   409.4    6.397      29.318
2015   11       30     1  33    3.0964   409.3    6.405      29.323
2015   11       30     1  40    3.0994   409.2    6.413      29.328
2015   11       30     1  46    3.1024   409.1    6.421      29.333
2015   11       30     1  53    3.1053   409.0    6.428      29.338
2015   11       30     2   0    3.1083   408.9    6.436      29.342
2015   11       30     2   6    3.1113   408.8    6.443      29.347
2015   11       30     2  13    3.1142   408.7    6.451      29.351
2015   11       30     2  19    3.1171   408.6    6.458      29.356
2015   11       30     2  26    3.1201   408.5    6.465      29.360
2015   11       30     2  33    3.1230   408.4    6.473      29.364
2015   11       30     2  39    3.1259   408.3    6.480      29.369
2015   11       30     2  46    3.1288   408.2    6.487      29.373
2015   11       30     2  52    3.1317   408.1    6.494      29.377
2015   11       30     2  59    3.1346   408.0    6.502      29.381
2015   11       30     3   6    3.1374   407.9    6.509      29.385
2015   11       30     3  12    3.1403   407.8    6.516      29.389
2015   11       30     3  19    3.1431   407.7    6.523      29.393
2015   11       30     3  25    3.1460   407.6    6.530      29.396
2015   11       30     3  32    3.1488   407.6    6.537      29.400
2015   11       30     3  39    3.1517   407.5    6.544      29.404
2015   11       30     3  45    3.1545   407.4    6.551      29.408
2015   11       30     3  52    3.1574   407.3    6.559      29.412
2015   11       30     3  58    3.1602   407.2    6.566      29.416
2015   11       30     4   5    3.1630   407.1    6.573      29.420
2015   11       30     4  12    3.1658   407.0    6.580      29.424
2015   11       30     4  18    3.1686   406.9    6.587      29.427
2015   11       30     4  25    3.1714   406.8    6.594      29.432
2015   11       30     4  31    3.1742   406.7    6.601      29.436
2015   11       30     4  38    3.1770   406.6    6.609      29.440
2015   11       30     4  45    3.1797   406.5    6.616      29.444
2015   11       30     4  51    3.1825   406.5    6.623      29.449
2015   11       30     4  58    3.1853   406.4    6.630      29.453
2015   11       30     5   4    3.1881   406.3    6.637      29.458
2015   11       30     5  11    3.1908   406.2    6.644      29.463
2015   11       30     5  18    3.1936   406.1    6.651      29.468
2015   11       30     5  24    3.1963   406.0    6.659      29.473
2015   11       30     5  31    3.1991   405.9    6.666      29.478
2015   11       30     5  37    3.2018   405.8    6.673      29.483
2015   11       30     5  44    3.2045   405.8    6.680      29.488
2015   11       30     5  51    3.2072   405.7    6.687      29.494
2015   11       30     5  57    3.2099   405.6    6.694      29.500
2015   11       30     6   4    3.2126   405.5    6.701      29.505
2015   11       30     6  11    3.2153   405.4    6.708      29.511
2015   11       30     6  17    3.2180   405.3    6.715      29.516
2015   11       30     6  24    3.2207   405.3    6.721      29.522
2015   11       30     6  30    3.2233   405.2    6.728      29.528
2015   11       30     6  37    3.2260   405.1    6.735      29.534
2015   11       30     6  44    3.2286   405.0    6.742      29.540
2015   11       30     6  50    3.2312   404.9    6.749      29.545
2015   11       30     6  57    3.2338   404.9    6.755      29.551
2015   11       30     7   3    3.2364   404.8    6.762      29.557
2015   11       30     7  10    3.2390   404.7    6.768      29.563
2015   11       30     7  17    3.2416   404.6    6.775      29.568
2015   11       30     7  23    3.2441   404.5    6.781      29.574
2015   11       30     7  30    3.2466   404.5    6.788      29.580
2015   11       30     7  36    3.2492   404.4    6.794      29.585
2015   11       30     7  43    3.2517   404.3    6.800      29.591
2015   11       30     7  50    3.2542   404.2    6.807      29.596
2015   11       30     7  56    3.2567   404.1    6.813      29.602
2015   11       30     8   3    3.2591   404.1    6.819      29.607
2015   11       30     8   9    3.2616   404.0    6.825      29.612
2015   11       30     8  16    3.2640   403.9    6.831      29.617
2015   11       30     8  23    3.2665   403.8    6.837      29.623
2015   11       30     8  29    3.2689   403.8    6.843      29.628
2015   11       30     8  36    3.2713   403.7    6.848      29.633
2015   11       30     8  42    3.2737   403.6    6.854      29.637
2015   11       30     8  49    3.2760   403.5    6.860      29.642
2015   11       30     8  56    3.2784   403.5    6.865      29.647
2015   11       30     9   2    3.2807   403.4    6.871      29.651
2015   11       30     9   9    3.2831   403.3    6.876      29.656
2015   11       30     9  15    3.2854   403.2    6.882      29.660
2015   11       30     9  22    3.2877   403.2    6.887      29.664
2015   11       30     9  29    3.2900   403.1    6.892      29.669
2015   11       30     9  35    3.2922   403.0    6.897      29.672
2015   11       30     9  42    3.2945   403.0    6.903      29.677
2015   11       30     9  48    3.2967   402.9    6.908      29.680
2015   11       30     9  55    3.2990   402.8    6.913      29.684
2015   11       30    10   2    3.3012   402.7    6.917      29.688
2015   11       30    10   8    3.3034   402.7    6.922      29.692
2015   11       30    10  15    3.3056   402.6    6.927      29.695
2015   11       30    10  21    3.3078   402.5    6.932      29.699
2015   11       30    10  28    3.3100   402.4    6.937      29.703
2015   11       30    10  35    3.3121   402.4    6.941      29.706
2015   11       30    10  41    3.3143   402.3    6.946      29.709
2015   11       30    10  48    3.3164   402.2    6.950      29.713
2015   11       30    10  54    3.3186   402.2    6.955      29.716
2015   11       30    11   1    3.3207   402.1    6.959      29.720
2015   11       30    11   8    3.3228   402.0    6.964      29.723
2015   11       30    11  14    3.3249   402.0    6.968      29.726
2015   11       30    11  21    3.3270   401.9    6.973      29.729
2015   11       30    11  27    3.3291   401.8    6.977      29.733
2015   11       30    11  34    3.3312   401.8    6.981      29.736
2015   11       30    11  41    3.3332   401.7    6.986      29.739
2015   11       30    11  47    3.3353   401.6    6.990      29.742
2015   11       30    11  54    3.3373   401.5    6.994      29.746
2015   11       30    12   0    3.3394   401.5    6.998      29.749
2015   11       30    12   7    3.3414   401.4    7.003      29.752
2015   11       30    12  14    3.3434   401.3    7.007      29.755
2015   11       30    12  20    3.3455   401.3    7.011      29.759
2015   11       30    12  27    3.3475   401.2    7.015      29.762
2015   11       30    12  33    3.3495   401.1    7.019      29.765
2015   11       30    12  40    3.3514   401.1    7.024      29.768
2015   11       30    12  47    3.3534   401.0    7.028      29.772
2015   11       30    12  53    3.3554   401.0    7.032      29.775
2015   11       30    13   0    3.3574   400.9    7.036      29.779
2015   11       30    13   6    3.3593   400.8    7.041      29.782
2015   11       30    13  13    3.3613   400.8    7.045      29.785
2015   11       30    13  20    3.3632   400.7    7.049      29.789
2015   11       30    13  26    3.3651   400.6    7.054      29.792
2015   11       30    13  33    3.3671   400.6    7.058      29.796
2015   11       30    13  39    3.3690   400.5    7.062      29.799
2015   11       30    13  46    3.3709   400.4    7.067      29.803
2015   11       30    13  53    3.3728   400.4    7.071      29.806
2015   11       30    13  59    3.3747   400.3    7.075      29.810
2015   11       30    14   6    3.3765   400.2    7.080      29.814
2015   11       30    14  12    3.3784   400.2    7.084      29.817
2015   11       30    14  19    3.3802   400.1    7.088      29.821
2015   11       30    14  26    3.3821   400.1    7.093      29.824
2015   11       30    14  32    3.3839   400.0    7.097      29.828
2015   11       30    14  39    3.3857   399.9    7.102      29.831
2015   11       30    14  45    3.3875   399.9    7.106      29.835
2015   11       30    14  52    3.3893   399.8    7.111      29.838
2015   11       30    14  59    3.3910   399.7    7.115      29.841
2015   11       30    15   5    3.3928   399.7    7.119      29.845
2015   11       30    15  12    3.3945   399.6    7.124      29.848
2015   11       30    15  18    3.3963   399.6    7.128      29.851
2015   11       30    15  25    3.3980   399.5    7.133      29.854
2015   11       30    15  32    3.3997   399.4    7.137      29.857
2015   11       30    15  38    3.4014   399.4    7.141      29.860
2015   11       30    15  45    3.4030   399.3    7.146      29.863
2015   11       30    15  51    3.4047   399.3    7.150      29.866
2015   11       30    15  58    3.4064   399.2    7.154      29.869
2015   11       30    16   5    3.4080   399.1    7.158      29.871
2015   11       30    16  11    3.4097   399.1    7.162      29.874
2015   11       30    16  18    3.4113   399.0    7.166      29.876
2015   11       30    16  24    3.4129   398.9    7.171      29.879
2015   11       30    16  31    3.4145   398.9    7.175      29.881
2015   11       30    16  38    3.4161   398.8    7.179      29.883
2015   11       30    16  44    3.4177   398.8    7.182      29.885
2015   11       30    16  51    3.4192   398.7    7.186      29.887
2015   11       30    16  57    3.4208   398.6    7.190      29.889
2015   11       30    17   4    3.4224   398.6    7.194      29.891
2015   11       30    17  11    3.4239   398.5    7.198      29.892
2015   11       30    17  17    3.4255   398.4    7.201      29.894
2015   11       30    17  24    3.4270   398.4    7.205      29.896
2015   11       30    17  30    3.4285   398.3    7.209      29.897
2015   11       30    17  37    3.4300   398.2    7.212      29.898
2015   11       30    17  44    3.4315   398.2    7.216      29.900
2015   11       30    17  50    3.4330   398.1    7.219      29.901
2015   11       30    17  57    3.4345   398.1    7.222      29.902
2015   11       30    18   3    3.4360   398.0    7.226      29.904
2015   11       30    18  10    3.4375   397.9    7.229      29.905
2015   11       30    18  17    3.4389   397.9    7.232      29.906
2015   11       30    18  23    3.4404   397.8    7.236      29.907
2015   11       30    18  30    3.4418   397.7    7.239      29.908
2015   11       30    18  36    3.4433   397.7    7.242      29.909
2015   11       30    18  43    3.4447   397.6    7.245      29.910
2015   11       30    18  50    3.4462   397.6    7.248      29.910
2015   11       30    18  56    3.4476   397.5    7.251      29.911
2015   11       30    19   3    3.4490   397.4    7.254      29.912
2015   11       30    19   9    3.4505   397.4    7.257      29.913
2015   11       30    19  16    3.4519   397.3    7.260      29.914
2015   11       30    19  23    3.4533   397.2    7.263      29.915
2015   11       30    19  29    3.4547   397.2    7.266      29.915
2015   11       30    19  36    3.4561   397.1    7.268      29.916
2015   11       30    19  42    3.4575   397.1    7.271      29.917
2015   11       30    19  49    3.4590   397.0    7.274      29.918
2015   11       30    19  56    3.4604   396.9    7.277      29.919
2015   11       30    20   2    3.4617   396.9    7.280      29.919
2015   11       30    20   9    3.4632   396.8    7.283      29.920
2015   11       30    20  15    3.4645   396.7    7.285      29.921
2015   11       30    20  22    3.4659   396.7    7.288      29.922
2015   11       30    20  29    3.4673   396.6    7.291      29.923
2015   11       30    20  35    3.4687   396.6    7.294      29.924
2015   11       30    20  42    3.4701   396.5    7.297      29.925
2015   11       30    20  48    3.4715   396.4    7.299      29.926
2015   11       30    20  55    3.4729   396.4    7.302      29.927
2015   11       30    21   2    3.4742   396.3    7.305      29.928
2015   11       30    21   8    3.4756   396.2    7.308      29.929
2015   11       30    21  15    3.4770   396.2    7.311      29.930
2015   11       30    21  22    3.4783   396.1    7.314      29.931
2015   11       30    21  28    3.4797   396.1    7.317      29.932
2015   11       30    21  35    3.4810   396.0    7.319      29.933
2015   11       30    21  41    3.4824   395.9    7.322      29.934
2015   11       30    21  48    3.4837   395.9    7.325      29.935
2015   11       30    21  55    3.4850   395.8    7.328      29.936
2015   11       30    22   1    3.4864   395.7    7.331      29.938
2015   11       30    22   8    3.4877   395.7    7.334      29.939
2015   11       30    22  14    3.4890   395.6    7.337      29.940
2015   11       30    22  21    3.4903   395.6    7.340      29.941
2015   11       30    22  28    3.4916   395.5    7.343      29.942
2015   11       30    22  34    3.4929   395.4    7.346      29.943
2015   11       30    22  41    3.4942   395.4    7.349      29.944
2015   11       30    22  47    3.4955   395.3    7.353      29.945
2015   11       30    22  54    3.4968   395.2    7.356      29.947
2015   11       30    23   1    3.4981   395.2    7.359      29.948
2015   11       30    23   7    3.4993   395.1    7.362      29.949
2015   11       30    23  14    3.5006   395.0    7.365      29.950
2015   11       30    23  20    3.5018   395.0    7.368      29.951
2015   11       30    23  27    3.5031   394.9    7.371      29.951
2015   11       30    23  34    3.5043   394.9    7.374      29.952
2015   11       30    23  40    3.5056   394.8    7.377      29.953
2015   11       30    23  47    3.5068   394.7    7.380      29.953
2015   11       30    23  53    3.5080   394.7    7.383      29.954
2015   12        1     0   0    3.5092   394.6    7.386      29.954
2015   12        1     0   7    3.5104   394.5    7.389      29.955
2015   12        1     0  13    3.5116   394.5    7.392      29.955
2015   12        1     0  20    3.5128   394.4    7.395      29.955
2015   12        1     0  26    3.5140   394.3    7.398      29.955
2015   12        1     0  33    3.5152   394.3    7.401      29.955
2015   12        1     0  40    3.5164   394.2    7.404      29.955
2015   12        1     0  46    3.5176   394.1    7.407      29.954
2015   12        1     0  53    3.5187   394.1    7.410      29.954
2015   12        1     0  59    3.5199   394.0    7.412      29.953
2015   12        1     1   6    3.5211   393.9    7.415      29.953
2015   12        1     1  13    3.5222   393.9    7.418      29.952
2015   12        1     1  19    3.5234   393.8    7.421      29.951
2015   12        1     1  26    3.5245   393.7    7.423      29.950
2015   12        1     1  32    3.5256   393.7    7.426      29.949
2015   12        1     1  39    3.5268   393.6    7.428      29.948
2015   12        1     1  46    3.5279   393.5    7.431      29.946
2015   12        1     1  52    3.5290   393.5    7.433      29.945
2015   12        1     1  59    3.5302   393.4    7.436      29.943
2015   12        1     2   5    3.5313   393.3    7.438      29.942
2015   12        1     2  12    3.5324   393.3    7.441      29.940
2015   12        1     2  19    3.5335   393.2    7.443      29.938
2015   12        1     2  25    3.5347   393.1    7.446      29.936
2015   12        1     2  32    3.5358   393.1    7.448      29.934
2015   12        1     2  38    3.5369   393.0    7.450      29.932
2015   12        1     2  45    3.5380   392.9    7.453      29.930
2015   12        1     2  52    3.5392   392.9    7.455      29.928
2015   12        1     2  58    3.5403   392.8    7.457      29.926
2015   12        1     3   5    3.5414   392.7    7.460      29.923
2015   12        1     3  11    3.5425   392.7    7.462      29.921
2015   12        1     3  18    3.5436   392.6    7.464      29.919
2015   12        1     3  25    3.5447   392.5    7.466      29.916
2015   12        1     3  31    3.5459   392.5    7.468      29.914
2015   12        1     3  38    3.5470   392.4    7.471      29.912
2015   12        1     3  44    3.5481   392.3    7.473      29.909
2015   12        1     3  51    3.5492   392.3    7.475      29.907
2015   12        1     3  58    3.5503   392.2    7.477      29.904
2015   12        1     4   4    3.5514   392.1    7.479      29.902
2015   12        1     4  11    3.5525   392.0    7.481      29.899
2015   12        1     4  17    3.5536   392.0    7.483      29.897
2015   12        1     4  24    3.5547   391.9    7.485      29.894
2015   12        1     4  31    3.5558   391.8    7.488      29.892
2015   12        1     4  37    3.5570   391.8    7.490      29.889
2015   12        1     4  44    3.5581   391.7    7.492      29.887
2015   12        1     4  50    3.5591   391.6    7.494      29.884
2015   12        1     4  57    3.5602   391.6    7.496      29.882
2015   12        1     5   4    3.5613   391.5    7.498      29.879
2015   12        1     5  10    3.5624   391.4    7.500      29.877
2015   12        1     5  17    3.5635   391.3    7.502      29.874
2015   12        1     5  23    3.5646   391.3    7.504      29.872
2015   12        1     5  30    3.5657   391.2    7.506      29.869
2015   12        1     5  37    3.5668   391.1    7.508      29.867
2015   12        1     5  43    3.5679   391.1    7.510      29.864
2015   12        1     5  50    3.5689   391.0    7.512      29.862
2015   12        1     5  56    3.5700   390.9    7.514      29.860
2015   12        1     6   3    3.5711   390.9    7.516      29.857
2015   12        1     6  10    3.5722   390.8    7.518      29.855
2015   12        1     6  16    3.5732   390.7    7.520      29.852
2015   12        1     6  23    3.5743   390.6    7.522      29.849
2015   12        1     6  29    3.5754   390.6    7.524      29.847
2015   12        1     6  36    3.5764   390.5    7.526      29.844
2015   12        1     6  43    3.5775   390.4    7.528      29.842
2015   12        1     6  49    3.5786   390.4    7.530      29.839
2015   12        1     6  56    3.5797   390.3    7.532      29.836
2015   12        1     7   2    3.5807   390.2    7.534      29.834
2015   12        1     7   9    3.5818   390.1    7.536      29.831
2015   12        1     7  16    3.5829   390.1    7.538      29.828
2015   12        1     7  22    3.5840   390.0    7.540      29.825
2015   12        1     7  29    3.5850   389.9    7.542      29.822
2015   12        1     7  35    3.5861   389.8    7.544      29.819
2015   12        1     7  42    3.5872   389.8    7.546      29.816
2015   12        1     7  49    3.5883   389.7    7.547      29.813
2015   12        1     7  55    3.5894   389.6    7.549      29.810
2015   12        1     8   2    3.5904   389.6    7.551      29.807
2015   12        1     8   8    3.5915   389.5    7.553      29.803
2015   12        1     8  15    3.5926   389.4    7.555      29.800
2015   12        1     8  22    3.5937   389.3    7.557      29.797
2015   12        1     8  28    3.5948   389.3    7.559      29.793
2015   12        1     8  35    3.5960   389.2    7.561      29.790
2015   12        1     8  41    3.5971   389.1    7.563      29.786
2015   12        1     8  48    3.5982   389.0    7.565      29.782
2015   12        1     8  55    3.5993   389.0    7.567      29.778
2015   12        1     9   1    3.6004   388.9    7.569      29.774
2015   12        1     9   8    3.6015   388.8    7.570      29.771
2015   12        1     9  14    3.6027   388.7    7.572      29.767
2015   12        1     9  21    3.6038   388.7    7.574      29.762
2015   12        1     9  28    3.6049   388.6    7.576      29.758
2015   12        1     9  34    3.6061   388.5    7.578      29.754
2015   12        1     9  41    3.6072   388.5    7.580      29.750
2015   12        1     9  47    3.6083   388.4    7.582      29.745
2015   12        1     9  54    3.6094   388.3    7.584      29.741
2015   12        1    10   1    3.6105   388.2    7.586      29.736
2015   12        1    10   7    3.6117   388.2    7.588      29.732
2015   12        1    10  14    3.6128   388.1    7.590      29.727
2015   12        1    10  20    3.6139   388.0    7.592      29.722
2015   12        1    10  27    3.6150   387.9    7.594      29.717
2015   12        1    10  34    3.6161   387.9    7.595      29.712
2015   12        1    10  40    3.6172   387.8    7.597      29.707
2015   12        1    10  47    3.6184   387.7    7.599      29.702
2015   12        1    10  53    3.6195   387.6    7.601      29.697
2015   12        1    11   0    3.6206   387.6    7.603      29.691
2015   12        1    11   7    3.6217   387.5    7.605      29.686
2015   12        1    11  13    3.6228   387.4    7.607      29.680
2015   12        1    11  20    3.6239   387.3    7.609      29.675
2015   12        1    11  26    3.6250   387.3    7.610      29.669
2015   12        1    11  33    3.6261   387.2    7.612      29.663
2015   12        1    11  40    3.6272   387.1    7.614      29.657
2015   12        1    11  46    3.6283   387.0    7.616      29.651
2015   12        1    11  53    3.6294   387.0    7.618      29.645
2015   12        1    11  59    3.6304   386.9    7.619      29.639
2015   12        1    12   6    3.6315   386.8    7.621      29.633
2015   12        1    12  13    3.6326   386.7    7.623      29.627
2015   12        1    12  19    3.6337   386.6    7.625      29.620
2015   12        1    12  26    3.6348   386.6    7.626      29.614
2015   12        1    12  32    3.6359   386.5    7.628      29.608
2015   12        1    12  39    3.6370   386.4    7.630      29.601
2015   12        1    12  46    3.6381   386.3    7.631      29.595
2015   12        1    12  52    3.6392   386.3    7.633      29.588
2015   12        1    12  59    3.6403   386.2    7.635      29.582
2015   12        1    13   5    3.6414   386.1    7.637      29.575
2015   12        1    13  12    3.6425   386.0    7.638      29.569
2015   12        1    13  19    3.6436   385.9    7.640      29.562
2015   12        1    13  25    3.6447   385.9    7.642      29.556
2015   12        1    13  32    3.6459   385.8    7.644      29.549
2015   12        1    13  38    3.6470   385.7    7.646      29.543
2015   12        1    13  45    3.6482   385.6    7.648      29.537
2015   12        1    13  52    3.6494   385.5    7.650      29.530
2015   12        1    13  58    3.6506   385.5    7.652      29.524
2015   12        1    14   5    3.6518   385.4    7.654      29.518
2015   12        1    14  12    3.6530   385.3    7.656      29.513
2015   12        1    14  18    3.6543   385.2    7.658      29.507
2015   12        1    14  25    3.6555   385.2    7.660      29.502
2015   12        1    14  31    3.6568   385.1    7.662      29.496
2015   12        1    14  38    3.6581   385.0    7.665      29.491
2015   12        1    14  45    3.6594   384.9    7.667      29.486
2015   12        1    14  51    3.6608   384.8    7.669      29.481
2015   12        1    14  58    3.6621   384.8    7.672      29.476
2015   12        1    15   4    3.6635   384.7    7.674      29.472
2015   12        1    15  11    3.6649   384.6    7.677      29.468
2015   12        1    15  18    3.6663   384.5    7.680      29.463
2015   12        1    15  24    3.6677   384.5    7.682      29.459
2015   12        1    15  31    3.6691   384.4    7.685      29.456
2015   12        1    15  37    3.6706   384.3    7.688      29.452
2015   12        1    15  44    3.6720   384.2    7.691      29.448
2015   12        1    15  51    3.6735   384.1    7.693      29.445
2015   12        1    15  57    3.6750   384.1    7.696      29.442
2015   12        1    16   4    3.6764   384.0    7.699      29.438
2015   12        1    16  10    3.6779   383.9    7.702      29.435
2015   12        1    16  17    3.6794   383.8    7.705      29.432
2015   12        1    16  24    3.6809   383.8    7.708      29.429
2015   12        1    16  30    3.6823   383.7    7.711      29.426
2015   12        1    16  37    3.6838   383.6    7.714      29.424
2015   12        1    16  43    3.6853   383.5    7.717      29.421
2015   12        1    16  50    3.6867   383.5    7.720      29.418
2015   12        1    16  57    3.6882   383.4    7.723      29.415
2015   12        1    17   3    3.6896   383.3    7.726      29.413
2015   12        1    17  10    3.6911   383.2    7.729      29.410
2015   12        1    17  16    3.6925   383.2    7.732      29.407
2015   12        1    17  23    3.6940   383.1    7.735      29.404
2015   12        1    17  30    3.6954   383.0    7.738      29.401
2015   12        1    17  36    3.6969   382.9    7.741      29.398
2015   12        1    17  43    3.6983   382.9    7.744      29.395
2015   12        1    17  49    3.6997   382.8    7.747      29.392
2015   12        1    17  56    3.7012   382.7    7.750      29.389
2015   12        1    18   3    3.7026   382.6    7.753      29.385
2015   12        1    18   9    3.7041   382.6    7.756      29.382
2015   12        1    18  16    3.7055   382.5    7.758      29.378
2015   12        1    18  22    3.7069   382.4    7.761      29.375
2015   12        1    18  29    3.7084   382.3    7.764      29.371
2015   12        1    18  36    3.7098   382.3    7.766      29.367
2015   12        1    18  42    3.7113   382.2    7.769      29.362
2015   12        1    18  49    3.7128   382.1    7.772      29.358
2015   12        1    18  55    3.7142   382.0    7.774      29.354
2015   12        1    19   2    3.7157   382.0    7.777      29.349
2015   12        1    19   9    3.7172   381.9    7.780      29.344
2015   12        1    19  15    3.7186   381.8    7.782      29.339
2015   12        1    19  22    3.7201   381.7    7.785      29.334
2015   12        1    19  28    3.7216   381.6    7.787      29.329
2015   12        1    19  35    3.7231   381.6    7.790      29.323
2015   12        1    19  42    3.7246   381.5    7.792      29.318
2015   12        1    19  48    3.7261   381.4    7.795      29.312
2015   12        1    19  55    3.7276   381.3    7.797      29.307
2015   12        1    20   1    3.7292   381.3    7.800      29.301
2015   12        1    20   8    3.7307   381.2    7.802      29.295
2015   12        1    20  15    3.7323   381.1    7.805      29.289
2015   12        1    20  21    3.7339   381.0    7.807      29.284
2015   12        1    20  28    3.7355   380.9    7.810      29.278
2015   12        1    20  34    3.7371   380.9    7.812      29.272
2015   12        1    20  41    3.7387   380.8    7.815      29.266
2015   12        1    20  48    3.7404   380.7    7.818      29.261
2015   12        1    20  54    3.7421   380.6    7.821      29.255
2015   12        1    21   1    3.7438   380.5    7.823      29.249
2015   12        1    21   7    3.7455   380.5    7.826      29.244
2015   12        1    21  14    3.7472   380.4    7.829      29.239
2015   12        1    21  21    3.7490   380.3    7.832      29.233
2015   12        1    21  27    3.7508   380.2    7.835      29.229
2015   12        1    21  34    3.7527   380.2    7.838      29.224
2015   12        1    21  40    3.7545   380.1    7.842      29.219
2015   12        1    21  47    3.7564   380.0    7.845      29.215
2015   12        1    21  54    3.7584   379.9    7.848      29.210
2015   12        1    22   0    3.7603   379.8    7.852      29.206
2015   12        1    22   7    3.7623   379.8    7.856      29.203
2015   12        1    22  13    3.7643   379.7    7.859      29.199
2015   12        1    22  20    3.7664   379.6    7.863      29.196
2015   12        1    22  27    3.7685   379.5    7.867      29.193
2015   12        1    22  33    3.7706   379.5    7.871      29.190
2015   12        1    22  40    3.7728   379.4    7.875      29.188
2015   12        1    22  46    3.7750   379.3    7.879      29.185
2015   12        1    22  53    3.7772   379.2    7.883      29.183
2015   12        1    23   0    3.7795   379.2    7.888      29.182
2015   12        1    23   6    3.7818   379.1    7.892      29.180
2015   12        1    23  13    3.7841   379.0    7.897      29.179
2015   12        1    23  19    3.7865   378.9    7.901      29.178
2015   12        1    23  26    3.7889   378.9    7.906      29.177
2015   12        1    23  33    3.7913   378.8    7.911      29.177
2015   12        1    23  39    3.7938   378.7    7.915      29.177
2015   12        1    23  46    3.7963   378.7    7.920      29.177
2015   12        1    23  52    3.7988   378.6    7.925      29.177
2015   12        1    23  59    3.8013   378.5    7.930      29.177
2015   12        2     0   6    3.8038   378.4    7.935      29.178
2015   12        2     0  12    3.8064   378.4    7.940      29.179
2015   12        2     0  19    3.8090   378.3    7.945      29.180
2015   12        2     0  25    3.8116   378.2    7.950      29.181
2015   12        2     0  32    3.8142   378.2    7.955      29.182
2015   12        2     0  39    3.8169   378.1    7.960      29.183
2015   12        2     0  45    3.8195   378.0    7.966      29.185
2015   12        2     0  52    3.8222   377.9    7.971      29.187
2015   12        2     0  58    3.8249   377.9    7.976      29.188
2015   12        2     1   5    3.8276   377.8    7.981      29.190
2015   12        2     1  12    3.8303   377.7    7.986      29.192
2015   12        2     1  18    3.8330   377.7    7.992      29.194
2015   12        2     1  25    3.8357   377.6    7.997      29.196
2015   12        2     1  31    3.8385   377.5    8.002      29.198
2015   12        2     1  38    3.8413   377.5    8.007      29.200
2015   12        2     1  45    3.8441   377.4    8.012      29.203
2015   12        2     1  51    3.8468   377.3    8.017      29.205
2015   12        2     1  58    3.8497   377.2    8.023      29.207
2015   12        2     2   4    3.8525   377.2    8.028      29.209
2015   12        2     2  11    3.8554   377.1    8.033      29.212
2015   12        2     2  18    3.8582   377.0    8.038      29.214
2015   12        2     2  24    3.8611   377.0    8.043      29.216
2015   12        2     2  31    3.8641   376.9    8.048      29.218
2015   12        2     2  37    3.8670   376.8    8.053      29.221
2015   12        2     2  44    3.8700   376.8    8.058      29.223
2015   12        2     2  51    3.8730   376.7    8.063      29.225
2015   12        2     2  57    3.8760   376.6    8.068      29.227
2015   12        2     3   4    3.8790   376.5    8.073      29.229
2015   12        2     3  10    3.8821   376.5    8.078      29.232
2015   12        2     3  17    3.8852   376.4    8.084      29.234
2015   12        2     3  24    3.8884   376.3    8.089      29.236
2015   12        2     3  30    3.8915   376.3    8.094      29.238
2015   12        2     3  37    3.8948   376.2    8.099      29.240
2015   12        2     3  43    3.8980   376.1    8.104      29.242
2015   12        2     3  50    3.9013   376.1    8.109      29.244
2015   12        2     3  57    3.9046   376.0    8.115      29.246
2015   12        2     4   3    3.9080   375.9    8.120      29.248
2015   12        2     4  10    3.9114   375.8    8.125      29.250
2015   12        2     4  16    3.9149   375.8    8.131      29.253
2015   12        2     4  23    3.9184   375.7    8.137      29.255
2015   12        2     4  30    3.9220   375.6    8.142      29.257
2015   12        2     4  36    3.9256   375.6    8.148      29.260
2015   12        2     4  43    3.9293   375.5    8.154      29.263
2015   12        2     4  49    3.9331   375.4    8.161      29.266
2015   12        2     4  56    3.9369   375.4    8.167      29.269
2015   12        2     5   3    3.9408   375.3    8.174      29.273
2015   12        2     5   9    3.9448   375.2    8.180      29.277
2015   12        2     5  16    3.9489   375.2    8.187      29.281
2015   12        2     5  22    3.9530   375.1    8.195      29.286
2015   12        2     5  29    3.9572   375.0    8.202      29.292
2015   12        2     5  36    3.9615   375.0    8.210      29.297
2015   12        2     5  42    3.9659   374.9    8.218      29.304
2015   12        2     5  49    3.9704   374.8    8.227      29.311
2015   12        2     5  55    3.9750   374.8    8.235      29.319
2015   12        2     6   2    3.9796   374.7    8.245      29.328
2015   12        2     6   9    3.9844   374.7    8.254      29.337
2015   12        2     6  15    3.9893   374.6    8.264      29.347
2015   12        2     6  22    3.9943   374.5    8.274      29.358
2015   12        2     6  28    3.9994   374.5    8.285      29.370
2015   12        2     6  35    4.0046   374.4    8.296      29.383
2015   12        2     6  42    4.0099   374.4    8.308      29.397
2015   12        2     6  48    4.0152   374.3    8.319      29.413
2015   12        2     6  55    4.0206   374.3    8.331      29.430
2015   12        2     7   1    4.0260   374.2    8.343      29.448
2015   12        2     7   8    4.0315   374.2    8.356      29.467
2015   12        2     7  15    4.0371   374.2    8.368      29.488
2015   12        2     7  21    4.0426   374.1    8.381      29.509
2015   12        2     7  28    4.0482   374.1    8.393      29.531
2015   12        2     7  34    4.0538   374.1    8.406      29.554
2015   12        2     7  41    4.0594   374.1    8.419      29.577
2015   12        2     7  48    4.0650   374.0    8.431      29.601
2015   12        2     7  54    4.0706   374.0    8.444      29.625
2015   12        2     8   1    4.0762   374.0    8.456      29.650
2015   12        2     8   8    4.0818   374.0    8.469      29.675
2015   12        2     8  14    4.0873   374.0    8.481      29.700
2015   12        2     8  21    4.0929   374.0    8.493      29.725
2015   12        2     8  27    4.0984   373.9    8.505      29.750
2015   12        2     8  34    4.1040   373.9    8.517      29.775
2015   12        2     8  41    4.1095   373.9    8.528      29.800
2015   12        2     8  47    4.1150   373.9    8.540      29.825
2015   12        2     8  54    4.1205   373.9    8.552      29.849
2015   12        2     9   0    4.1261   373.9    8.563      29.873
2015   12        2     9   7    4.1316   373.9    8.574      29.898
2015   12        2     9  14    4.1371   373.9    8.585      29.922
2015   12        2     9  20    4.1426   373.9    8.596      29.945
2015   12        2     9  27    4.1482   373.9    8.608      29.969
2015   12        2     9  33    4.1538   373.8    8.618      29.993
2015   12        2     9  40    4.1594   373.8    8.629      30.016
2015   12        2     9  47    4.1650   373.8    8.640      30.040
2015   12        2     9  53    4.1706   373.8    8.651      30.063
2015   12        2    10   0    4.1762   373.8    8.662      30.086
2015   12        2    10   6    4.1819   373.8    8.672      30.109
2015   12        2    10  13    4.1876   373.8    8.683      30.132
2015   12        2    10  20    4.1934   373.8    8.694      30.155
2015   12        2    10  26    4.1991   373.8    8.704      30.177
2015   12        2    10  33    4.2049   373.8    8.715      30.200
2015   12        2    10  39    4.2107   373.8    8.726      30.223
2015   12        2    10  46    4.2166   373.8    8.736      30.246
2015   12        2    10  53    4.2225   373.8    8.747      30.269
2015   12        2    10  59    4.2284   373.8    8.758      30.292
2015   12        2    11   6    4.2344   373.7    8.769      30.315
2015   12        2    11  12    4.2404   373.7    8.780      30.338
2015   12        2    11  19    4.2464   373.7    8.791      30.362
2015   12        2    11  26    4.2525   373.7    8.802      30.385
2015   12        2    11  32    4.2586   373.7    8.813      30.409
2015   12        2    11  39    4.2648   373.7    8.824      30.433
2015   12        2    11  45    4.2710   373.7    8.836      30.458
2015   12        2    11  52    4.2773   373.7    8.847      30.483
2015   12        2    11  59    4.2836   373.7    8.859      30.508
2015   12        2    12   5    4.2900   373.7    8.871      30.533
2015   12        2    12  12    4.2964   373.7    8.883      30.559
2015   12        2    12  18    4.3028   373.7    8.896      30.586
2015   12        2    12  25    4.3094   373.8    8.908      30.613
2015   12        2    12  32    4.3159   373.8    8.921      30.640
2015   12        2    12  38    4.3225   373.8    8.935      30.668
2015   12        2    12  45    4.3292   373.8    8.948      30.696
2015   12        2    12  51    4.3359   373.8    8.962      30.725
2015   12        2    12  58    4.3427   373.8    8.976      30.755
2015   12        2    13   5    4.3495   373.8    8.990      30.785
2015   12        2    13  11    4.3564   373.8    9.005      30.816
2015   12        2    13  18    4.3634   373.8    9.020      30.848
2015   12        2    13  24    4.3704   373.9    9.036      30.881
2015   12        2    13  31    4.3774   373.9    9.052      30.915
2015   12        2    13  38    4.3846   373.9    9.068      30.949
2015   12        2    13  44    4.3918   373.9    9.084      30.984
2015   12        2    13  51    4.3990   373.9    9.101      31.020
2015   12        2    13  57    4.4064   374.0    9.119      31.057
2015   12        2    14   4    4.4138   374.0    9.136      31.095
2015   12        2    14  11    4.4213   374.0    9.154      31.134
2015   12        2    14  17    4.4289   374.1    9.173      31.174
2015   12        2    14  24    4.4365   374.1    9.192      31.215
2015   12        2    14  30    4.4442   374.1    9.211      31.256
2015   12        2    14  37    4.4519   374.2    9.231      31.298
2015   12        2    14  44    4.4597   374.2    9.251      31.341
2015   12        2    14  50    4.4676   374.3    9.272      31.386
2015   12        2    14  57    4.4754   374.3    9.292      31.433
2015   12        2    15   3    4.4832   374.4    9.313      31.481
2015   12        2    15  10    4.4911   374.5    9.334      31.530
2015   12        2    15  17    4.4990   374.5    9.354      31.581
2015   12        2    15  23    4.5068   374.6    9.375      31.633
2015   12        2    15  30    4.5147   374.7    9.396      31.686
2015   12        2    15  36    4.5225   374.7    9.417      31.740
2015   12        2    15  43    4.5303   374.8    9.438      31.795
2015   12        2    15  50    4.5381   374.9    9.459      31.850
2015   12        2    15  56    4.5459   375.0    9.480      31.907
2015   12        2    16   3    4.5536   375.0    9.501      31.963
2015   12        2    16   9    4.5613   375.1    9.521      32.021
2015   12        2    16  16    4.5690   375.2    9.542      32.079
2015   12        2    16  23    4.5766   375.3    9.562      32.138
2015   12        2    16  29    4.5843   375.4    9.582      32.198
2015   12        2    16  36    4.5919   375.5    9.602      32.259
2015   12        2    16  42    4.5996   375.6    9.622      32.320
2015   12        2    16  49    4.6072   375.6    9.642      32.382
2015   12        2    16  56    4.6149   375.7    9.661      32.444
2015   12        2    17   2    4.6225   375.8    9.680      32.507
2015   12        2    17   9    4.6301   375.9    9.698      32.571
2015   12        2    17  15    4.6376   376.0    9.716      32.634
2015   12        2    17  22    4.6452   376.1    9.734      32.697
2015   12        2    17  29    4.6527   376.3    9.752      32.760
2015   12        2    17  35    4.6602   376.4    9.769      32.823
2015   12        2    17  42    4.6676   376.5    9.785      32.885
2015   12        2    17  48    4.6750   376.6    9.801      32.947
2015   12        2    17  55    4.6824   376.7    9.817      33.008
2015   12        2    18   2    4.6897   376.8    9.832      33.069
2015   12        2    18   8    4.6970   376.9    9.847      33.128
2015   12        2    18  15    4.7042   377.0    9.862      33.186
2015   12        2    18  21    4.7114   377.1    9.876      33.243
2015   12        2    18  28    4.7185   377.2    9.889      33.299
2015   12        2    18  35    4.7256   377.4    9.903      33.354
2015   12        2    18  41    4.7326   377.5    9.916      33.408
2015   12        2    18  48    4.7397   377.6    9.929      33.462
2015   12        2    18  54    4.7466   377.7    9.941      33.514
2015   12        2    19   1    4.7536   377.8    9.954      33.566
2015   12        2    19   8    4.7605   377.9    9.966      33.617
2015   12        2    19  14    4.7674   378.0    9.978      33.667
2015   12        2    19  21    4.7743   378.2    9.990      33.717
2015   12        2    19  27    4.7812   378.3   10.001      33.767
2015   12        2    19  34    4.7881   378.4   10.013      33.816
2015   12        2    19  41    4.7949   378.5   10.025      33.864
2015   12        2    19  47    4.8018   378.6   10.037      33.912
2015   12        2    19  54    4.8086   378.8   10.049      33.960
2015   12        2    20   0    4.8155   378.9   10.061      34.008
2015   12        2    20   7    4.8224   379.0   10.073      34.056
2015   12        2    20  14    4.8293   379.1   10.085      34.103
2015   12        2    20  20    4.8362   379.2   10.097      34.151
2015   12        2    20  27    4.8431   379.4   10.110      34.199
2015   12        2    20  33    4.8501   379.5   10.123      34.247
2015   12        2    20  40    4.8570   379.6   10.136      34.297
2015   12        2    20  47    4.8641   379.7   10.149      34.346
2015   12        2    20  53    4.8711   379.8   10.162      34.397
2015   12        2    21   0    4.8782   380.0   10.176      34.448
2015   12        2    21   6    4.8853   380.1   10.190      34.500
2015   12        2    21  13    4.8924   380.2   10.204      34.552
2015   12        2    21  20    4.8996   380.4   10.218      34.606
2015   12        2    21  26    4.9069   380.5   10.233      34.660
2015   12        2    21  33    4.9141   380.6   10.247      34.717
2015   12        2    21  39    4.9215   380.8   10.262      34.775
2015   12        2    21  46    4.9288   380.9   10.276      34.835
2015   12        2    21  53    4.9363   381.0   10.290      34.897
2015   12        2    21  59    4.9437   381.2   10.305      34.960
2015   12        2    22   6    4.9512   381.3   10.319      35.024
2015   12        2    22  12    4.9588   381.5   10.333      35.089
2015   12        2    22  19    4.9664   381.6   10.347      35.155
2015   12        2    22  26    4.9740   381.7   10.362      35.222
2015   12        2    22  32    4.9817   381.9   10.376      35.289
2015   12        2    22  39    4.9894   382.0   10.390      35.359
2015   12        2    22  45    4.9972   382.2   10.404      35.429
2015   12        2    22  52    5.0051   382.3   10.418      35.502
2015   12        2    22  59    5.0130   382.5   10.431      35.575
2015   12        2    23   5    5.0209   382.6   10.445      35.648
2015   12        2    23  12    5.0289   382.8   10.459      35.722
2015   12        2    23  18    5.0369   382.9   10.472      35.797
2015   12        2    23  25    5.0449   383.1   10.486      35.873
2015   12        2    23  32    5.0529   383.3   10.499      35.949
2015   12        2    23  38    5.0609   383.4   10.512      36.026
2015   12        2    23  45    5.0688   383.6   10.524      36.104
2015   12        2    23  51    5.0767   383.7   10.537      36.182
2015   12        2    23  58    5.0845   383.9   10.549      36.260
2015   12        3     0   5    5.0923   384.1   10.560      36.338
2015   12        3     0  11    5.1000   384.3   10.571      36.415
2015   12        3     0  18    5.1076   384.4   10.581      36.492
2015   12        3     0  24    5.1151   384.6   10.591      36.567
2015   12        3     0  31    5.1225   384.8   10.601      36.642
2015   12        3     0  38    5.1298   385.0   10.609      36.715
2015   12        3     0  44    5.1369   385.2   10.617      36.787
2015   12        3     0  51    5.1440   385.4   10.625      36.858
2015   12        3     0  57    5.1509   385.5   10.631      36.928
2015   12        3     1   4    5.1577   385.7   10.638      36.995
2015   12        3     1  11    5.1645   385.9   10.643      37.061
2015   12        3     1  17    5.1711   386.1   10.648      37.126
2015   12        3     1  24    5.1776   386.3   10.653      37.188
2015   12        3     1  30    5.1841   386.5   10.657      37.250
2015   12        3     1  37    5.1904   386.7   10.661      37.310
2015   12        3     1  44    5.1967   386.9   10.664      37.368
2015   12        3     1  50    5.2029   387.1   10.667      37.426
2015   12        3     1  57    5.2090   387.3   10.669      37.482
2015   12        3     2   3    5.2151   387.5   10.671      37.538
2015   12        3     2  10    5.2211   387.7   10.673      37.592
2015   12        3     2  17    5.2270   387.8   10.675      37.646
2015   12        3     2  23    5.2329   388.0   10.676      37.699
2015   12        3     2  30    5.2388   388.2   10.678      37.751
2015   12        3     2  37    5.2446   388.4   10.679      37.803
2015   12        3     2  43    5.2504   388.6   10.680      37.853
2015   12        3     2  50    5.2561   388.8   10.681      37.904
2015   12        3     2  56    5.2619   389.0   10.682      37.954
2015   12        3     3   3    5.2675   389.2   10.683      38.004
2015   12        3     3  10    5.2733   389.4   10.684      38.053
2015   12        3     3  16    5.2789   389.6   10.685      38.102
2015   12        3     3  23    5.2847   389.8   10.685      38.150
2015   12        3     3  29    5.2904   390.0   10.687      38.199
2015   12        3     3  36    5.2961   390.2   10.688      38.248
2015   12        3     3  43    5.3019   390.3   10.689      38.296
2015   12        3     3  49    5.3077   390.5   10.691      38.345
2015   12        3     3  56    5.3136   390.7   10.693      38.394
2015   12        3     4   2    5.3195   390.9   10.695      38.444
2015   12        3     4   9    5.3256   391.1   10.697      38.496
2015   12        3     4  16    5.3316   391.3   10.699      38.548
2015   12        3     4  22    5.3377   391.5   10.702      38.603
2015   12        3     4  29    5.3439   391.7   10.705      38.658
2015   12        3     4  35    5.3500   392.0   10.708      38.715
2015   12        3     4  42    5.3562   392.2   10.711      38.773
2015   12        3     4  49    5.3624   392.4   10.714      38.832
2015   12        3     4  55    5.3687   392.6   10.718      38.892
2015   12        3     5   2    5.3749   392.8   10.721      38.953
2015   12        3     5   8    5.3811   393.0   10.725      39.014
2015   12        3     5  15    5.3873   393.2   10.729      39.077
2015   12        3     5  22    5.3935   393.5   10.733      39.142
2015   12        3     5  28    5.3997   393.7   10.738      39.207
2015   12        3     5  35    5.4059   393.9   10.742      39.274
2015   12        3     5  41    5.4121   394.1   10.747      39.341
2015   12        3     5  48    5.4183   394.3   10.752      39.410
2015   12        3     5  55    5.4245   394.5   10.757      39.480
2015   12        3     6   1    5.4307   394.7   10.762      39.551
2015   12        3     6   8    5.4369   395.0   10.768      39.623
2015   12        3     6  14    5.4431   395.2   10.774      39.696
2015   12        3     6  21    5.4493   395.4   10.780      39.770
2015   12        3     6  28    5.4554   395.6   10.786      39.846
2015   12        3     6  34    5.4615   395.8   10.792      39.924
2015   12        3     6  41    5.4675   396.0   10.798      40.003
2015   12        3     6  47    5.4735   396.3   10.805      40.084
2015   12        3     6  54    5.4794   396.5   10.811      40.166
2015   12        3     7   1    5.4853   396.7   10.817      40.249
2015   12        3     7   7    5.4911   397.0   10.823      40.333
2015   12        3     7  14    5.4968   397.2   10.829      40.417
2015   12        3     7  20    5.5024   397.4   10.835      40.502
2015   12        3     7  27    5.5079   397.7   10.841      40.587
2015   12        3     7  34    5.5133   397.9   10.846      40.673
2015   12        3     7  40    5.5185   398.2   10.851      40.760
2015   12        3     7  47    5.5237   398.4   10.855      40.847
2015   12        3     7  53    5.5288   398.7   10.859      40.933
2015   12        3     8   0    5.5338   398.9   10.862      41.019
2015   12        3     8   7    5.5387   399.2   10.865      41.104
2015   12        3     8  13    5.5435   399.5   10.867      41.188
2015   12        3     8  20    5.5481   399.7   10.868      41.271
2015   12        3     8  26    5.5526   400.0   10.869      41.352
2015   12        3     8  33    5.5569   400.3   10.869      41.431
2015   12        3     8  40    5.5611   400.6   10.868      41.508
2015   12        3     8  46    5.5652   400.9   10.867      41.583
2015   12        3     8  53    5.5691   401.1   10.864      41.657
2015   12        3     8  59    5.5729   401.4   10.861      41.729
2015   12        3     9   6    5.5765   401.7   10.857      41.799
2015   12        3     9  13    5.5799   402.0   10.852      41.866
2015   12        3     9  19    5.5832   402.3   10.847      41.932
2015   12        3     9  26    5.5864   402.6   10.841      41.995
2015   12        3     9  32    5.5894   402.9   10.834      42.057
2015   12        3     9  39    5.5923   403.1   10.827      42.116
2015   12        3     9  46    5.5951   403.4   10.819      42.174
2015   12        3     9  52    5.5977   403.7   10.811      42.230
2015   12        3     9  59    5.6003   404.0   10.802      42.285
2015   12        3    10   5    5.6027   404.3   10.793      42.339
2015   12        3    10  12    5.6051   404.6   10.783      42.391
2015   12        3    10  19    5.6073   404.8   10.774      42.442
2015   12        3    10  25    5.6094   405.1   10.764      42.492
2015   12        3    10  32    5.6114   405.4   10.753      42.541
2015   12        3    10  38    5.6134   405.7   10.743      42.589
2015   12        3    10  45    5.6152   406.0   10.732      42.637
2015   12        3    10  52    5.6170   406.2   10.722      42.684
2015   12        3    10  58    5.6187   406.5   10.711      42.730
2015   12        3    11   5    5.6203   406.8   10.700      42.776
2015   12        3    11  11    5.6218   407.1   10.689      42.822
2015   12        3    11  18    5.6233   407.3   10.678      42.867
2015   12        3    11  25    5.6248   407.6   10.667      42.912
2015   12        3    11  31    5.6262   407.9   10.657      42.957
2015   12        3    11  38    5.6276   408.2   10.646      43.002
2015   12        3    11  44    5.6289   408.5   10.635      43.047
2015   12        3    11  51    5.6303   408.7   10.624      43.092
2015   12        3    11  58    5.6316   409.0   10.613      43.136
2015   12        3    12   4    5.6330   409.3   10.603      43.181
2015   12        3    12  11    5.6344   409.6   10.592      43.226
2015   12        3    12  17    5.6357   409.9   10.582      43.271
2015   12        3    12  24    5.6371   410.1   10.572      43.317
2015   12        3    12  31    5.6385   410.4   10.562      43.362
2015   12        3    12  37    5.6399   410.7   10.552      43.408
2015   12        3    12  44    5.6413   411.0   10.543      43.455
2015   12        3    12  50    5.6427   411.3   10.534      43.502
2015   12        3    12  57    5.6440   411.6   10.525      43.549
2015   12        3    13   4    5.6454   411.8   10.517      43.598
2015   12        3    13  10    5.6467   412.1   10.508      43.648
2015   12        3    13  17    5.6480   412.4   10.500      43.699
2015   12        3    13  23    5.6491   412.7   10.492      43.751
2015   12        3    13  30    5.6503   413.0   10.484      43.804
2015   12        3    13  37    5.6514   413.3   10.476      43.859
2015   12        3    13  43    5.6525   413.6   10.469      43.915
2015   12        3    13  50    5.6535   413.9   10.461      43.972
2015   12        3    13  56    5.6544   414.2   10.454      44.030
2015   12        3    14   3    5.6553   414.4   10.446      44.089
2015   12        3    14  10    5.6561   414.7   10.439      44.148
2015   12        3    14  16    5.6568   415.0   10.432      44.208
2015   12        3    14  23    5.6575   415.3   10.424      44.268
2015   12        3    14  29    5.6582   415.6   10.417      44.329
2015   12        3    14  36    5.6588   415.9   10.410      44.390
2015   12        3    14  43    5.6593   416.2   10.403      44.452
2015   12        3    14  49    5.6599   416.4   10.395      44.513
2015   12        3    14  56    5.6603   416.7   10.388      44.575
2015   12        3    15   2    5.6607   417.0   10.380      44.636
2015   12        3    15   9    5.6610   417.3   10.372      44.697
2015   12        3    15  16    5.6613   417.6   10.364      44.757
2015   12        3    15  22    5.6614   417.9   10.355      44.816
2015   12        3    15  29    5.6614   418.2   10.346      44.874
2015   12        3    15  35    5.6613   418.5   10.336      44.931
2015   12        3    15  42    5.6611   418.8   10.326      44.986
2015   12        3    15  49    5.6607   419.1   10.316      45.041
2015   12        3    15  55    5.6603   419.4   10.304      45.094
2015   12        3    16   2    5.6596   419.7   10.292      45.146
2015   12        3    16   8    5.6588   420.0   10.280      45.197
2015   12        3    16  15    5.6577   420.4   10.266      45.246
2015   12        3    16  22    5.6565   420.7   10.252      45.294
2015   12        3    16  28    5.6551   421.0   10.237      45.340
2015   12        3    16  35    5.6534   421.3   10.221      45.384
2015   12        3    16  41    5.6515   421.7   10.204      45.427
2015   12        3    16  48    5.6494   422.0   10.186      45.467
2015   12        3    16  55    5.6470   422.3   10.168      45.505
2015   12        3    17   1    5.6443   422.7   10.148      45.541
2015   12        3    17   8    5.6413   423.0   10.127      45.574
2015   12        3    17  14    5.6380   423.4   10.105      45.603
2015   12        3    17  21    5.6343   423.7   10.082      45.627
2015   12        3    17  28    5.6304   424.0   10.058      45.649
2015   12        3    17  34    5.6262   424.3   10.034      45.667
2015   12        3    17  41    5.6219   424.6   10.009      45.682
2015   12        3    17  47    5.6174   424.9    9.985      45.694
2015   12        3    17  54    5.6128   425.2    9.960      45.704
2015   12        3    18   1    5.6080   425.5    9.935      45.713
2015   12        3    18   7    5.6032   425.8    9.910      45.721
2015   12        3    18  14    5.5983   426.1    9.885      45.727
2015   12        3    18  20    5.5935   426.3    9.860      45.734
2015   12        3    18  27    5.5886   426.6    9.836      45.739
2015   12        3    18  34    5.5838   426.9    9.813      45.744
2015   12        3    18  40    5.5790   427.1    9.790      45.751
2015   12        3    18  47    5.5744   427.4    9.768      45.760
2015   12        3    18  53    5.5698   427.7    9.746      45.769
2015   12        3    19   0    5.5653   427.9    9.725      45.779
2015   12        3    19   7    5.5609   428.2    9.704      45.791
2015   12        3    19  13    5.5564   428.5    9.683      45.803
2015   12        3    19  20    5.5521   428.7    9.663      45.815
2015   12        3    19  26    5.5477   429.0    9.642      45.828
2015   12        3    19  33    5.5433   429.3    9.622      45.842
2015   12        3    19  40    5.5390   429.6    9.602      45.855
2015   12        3    19  46    5.5346   429.8    9.582      45.869
2015   12        3    19  53    5.5302   430.1    9.563      45.882
2015   12        3    19  59    5.5258   430.4    9.543      45.896
2015   12        3    20   6    5.5214   430.7    9.524      45.909
2015   12        3    20  13    5.5169   430.9    9.504      45.921
2015   12        3    20  19    5.5123   431.2    9.485      45.934
2015   12        3    20  26    5.5077   431.5    9.466      45.946
2015   12        3    20  32    5.5030   431.7    9.446      45.958
2015   12        3    20  39    5.4982   432.0    9.427      45.970
2015   12        3    20  46    5.4934   432.2    9.408      45.982
2015   12        3    20  52    5.4885   432.5    9.389      45.993
2015   12        3    20  59    5.4836   432.8    9.370      46.004
2015   12        3    21   5    5.4785   433.0    9.351      46.015
2015   12        3    21  12    5.4734   433.3    9.332      46.025
2015   12        3    21  19    5.4683   433.6    9.312      46.035
2015   12        3    21  25    5.4631   433.8    9.293      46.045
2015   12        3    21  32    5.4578   434.1    9.274      46.054
2015   12        3    21  38    5.4525   434.3    9.254      46.063
2015   12        3    21  45    5.4472   434.6    9.235      46.072
2015   12        3    21  52    5.4418   434.9    9.215      46.080
2015   12        3    21  58    5.4364   435.1    9.195      46.087
2015   12        3    22   5    5.4309   435.4    9.175      46.094
2015   12        3    22  11    5.4253   435.7    9.155      46.099
2015   12        3    22  18    5.4197   435.9    9.134      46.104
2015   12        3    22  25    5.4139   436.2    9.113      46.108
2015   12        3    22  31    5.4080   436.5    9.092      46.110
2015   12        3    22  38    5.4020   436.7    9.070      46.110
2015   12        3    22  45    5.3959   437.0    9.048      46.108
2015   12        3    22  51    5.3897   437.2    9.026      46.103
2015   12        3    22  58    5.3834   437.5    9.004      46.097
2015   12        3    23   4    5.3770   437.7    8.981      46.089
2015   12        3    23  11    5.3706   438.0    8.959      46.079
2015   12        3    23  18    5.3640   438.2    8.936      46.068
2015   12        3    23  24    5.3575   438.5    8.914      46.057
2015   12        3    23  31    5.3508   438.7    8.891      46.046
2015   12        3    23  37    5.3441   439.0    8.869      46.034
2015   12        3    23  44    5.3374   439.2    8.847      46.022
2015   12        3    23  51    5.3306   439.5    8.825      46.010
2015   12        3    23  57    5.3237   439.8    8.802      45.996
2015   12        4     0   4    5.3167   440.0    8.780      45.982
2015   12        4     0  10    5.3096   440.3    8.758      45.967
2015   12        4     0  17    5.3023   440.6    8.736      45.952
2015   12        4     0  24    5.2949   440.8    8.713      45.936
2015   12        4     0  30    5.2873   441.1    8.689      45.919
2015   12        4     0  37    5.2794   441.4    8.665      45.898
2015   12        4     0  43    5.2714   441.6    8.640      45.874
2015   12        4     0  50    5.2631   441.9    8.616      45.847
2015   12        4     0  57    5.2547   442.1    8.591      45.817
2015   12        4     1   3    5.2462   442.4    8.565      45.784
2015   12        4     1  10    5.2376   442.6    8.540      45.748
2015   12        4     1  16    5.2290   442.8    8.515      45.710
2015   12        4     1  23    5.2203   443.0    8.490      45.671
2015   12        4     1  30    5.2117   443.2    8.465      45.631
2015   12        4     1  36    5.2031   443.4    8.441      45.590
2015   12        4     1  43    5.1946   443.6    8.417      45.550
2015   12        4     1  49    5.1863   443.8    8.394      45.509
2015   12        4     1  56    5.1780   444.0    8.371      45.469
2015   12        4     2   3    5.1700   444.2    8.349      45.430
2015   12        4     2   9    5.1621   444.3    8.328      45.394
2015   12        4     2  16    5.1545   444.5    8.308      45.361
2015   12        4     2  22    5.1469   444.7    8.288      45.329
2015   12        4     2  29    5.1395   444.8    8.269      45.298
2015   12        4     2  36    5.1322   445.0    8.250      45.270
2015   12        4     2  42    5.1250   445.2    8.231      45.243
2015   12        4     2  49    5.1180   445.3    8.213      45.217
2015   12        4     2  55    5.1110   445.5    8.196      45.192
2015   12        4     3   2    5.1040   445.7    8.178      45.169
2015   12        4     3   9    5.0971   445.8    8.161      45.145
2015   12        4     3  15    5.0903   446.0    8.144      45.122
2015   12        4     3  22    5.0834   446.2    8.127      45.099
2015   12        4     3  28    5.0766   446.3    8.110      45.076
2015   12        4     3  35    5.0698   446.5    8.093      45.052
2015   12        4     3  42    5.0631   446.7    8.077      45.028
2015   12        4     3  48    5.0563   446.8    8.060      45.004
2015   12        4     3  55    5.0495   447.0    8.043      44.979
2015   12        4     4   1    5.0427   447.1    8.027      44.953
2015   12        4     4   8    5.0359   447.3    8.010      44.926
2015   12        4     4  15    5.0291   447.5    7.993      44.899
2015   12        4     4  21    5.0223   447.6    7.976      44.870
2015   12        4     4  28    5.0155   447.8    7.960      44.841
2015   12        4     4  34    5.0087   447.9    7.943      44.810
2015   12        4     4  41    5.0019   448.1    7.926      44.779
2015   12        4     4  48    4.9951   448.2    7.909      44.748
2015   12        4     4  54    4.9883   448.4    7.893      44.716
2015   12        4     5   1    4.9816   448.5    7.876      44.684
2015   12        4     5   7    4.9749   448.7    7.859      44.652
2015   12        4     5  14    4.9682   448.8    7.843      44.620
2015   12        4     5  21    4.9615   449.0    7.826      44.589
2015   12        4     5  27    4.9549   449.1    7.810      44.557
2015   12        4     5  34    4.9483   449.3    7.793      44.526
2015   12        4     5  40    4.9417   449.4    7.777      44.494
2015   12        4     5  47    4.9351   449.6    7.760      44.462
2015   12        4     5  54    4.9285   449.7    7.744      44.431
2015   12        4     6   0    4.9218   449.9    7.727      44.400
2015   12        4     6   7    4.9151   450.0    7.709      44.365
2015   12        4     6  13    4.9084   450.2    7.692      44.330
2015   12        4     6  20    4.9017   450.3    7.675      44.293
2015   12        4     6  27    4.8949   450.4    7.658      44.255
2015   12        4     6  33    4.8881   450.6    7.640      44.215
2015   12        4     6  40    4.8813   450.7    7.623      44.174
2015   12        4     6  46    4.8745   450.8    7.607      44.133
2015   12        4     6  53    4.8677   451.0    7.590      44.091
2015   12        4     7   0    4.8610   451.1    7.574      44.048
2015   12        4     7   6    4.8543   451.2    7.558      44.005
2015   12        4     7  13    4.8476   451.4    7.542      43.962
2015   12        4     7  19    4.8410   451.5    7.527      43.917
2015   12        4     7  26    4.8344   451.6    7.512      43.873
2015   12        4     7  33    4.8278   451.7    7.498      43.827
2015   12        4     7  39    4.8214   451.9    7.484      43.783
2015   12        4     7  46    4.8150   452.0    7.471      43.740
2015   12        4     7  52    4.8087   452.1    7.458      43.698
2015   12        4     7  59    4.8024   452.2    7.445      43.656
2015   12        4     8   6    4.7963   452.3    7.433      43.616
2015   12        4     8  12    4.7903   452.4    7.421      43.576
2015   12        4     8  19    4.7844   452.5    7.410      43.537
2015   12        4     8  25    4.7785   452.6    7.399      43.499
2015   12        4     8  32    4.7728   452.7    7.388      43.462
2015   12        4     8  39    4.7671   452.8    7.377      43.426
2015   12        4     8  45    4.7617   452.9    7.367      43.392
2015   12        4     8  52    4.7562   453.0    7.356      43.358
2015   12        4     8  58    4.7509   453.1    7.346      43.326
2015   12        4     9   5    4.7457   453.2    7.336      43.295
2015   12        4     9  12    4.7407   453.2    7.327      43.264
2015   12        4     9  18    4.7357   453.3    7.317      43.235
2015   12        4     9  25    4.7309   453.4    7.308      43.206
2015   12        4     9  31    4.7261   453.5    7.299      43.179
2015   12        4     9  38    4.7215   453.6    7.290      43.153
2015   12        4     9  45    4.7169   453.6    7.281      43.128
2015   12        4     9  51    4.7124   453.7    7.273      43.103
2015   12        4     9  58    4.7080   453.8    7.264      43.080
2015   12        4    10   4    4.7037   453.9    7.256      43.057
2015   12        4    10  11    4.6994   454.0    7.247      43.034
2015   12        4    10  18    4.6951   454.0    7.239      43.013
2015   12        4    10  24    4.6909   454.1    7.231      42.992
2015   12        4    10  31    4.6868   454.2    7.223      42.972
2015   12        4    10  37    4.6827   454.3    7.215      42.952
2015   12        4    10  44    4.6787   454.4    7.207      42.932
2015   12        4    10  51    4.6746   454.5    7.199      42.912
2015   12        4    10  57    4.6706   454.5    7.190      42.892
2015   12        4    11   4    4.6666   454.6    7.182      42.872
2015   12        4    11  10    4.6627   454.7    7.174      42.852
2015   12        4    11  17    4.6587   454.8    7.166      42.831
2015   12        4    11  24    4.6547   454.9    7.158      42.809
2015   12        4    11  30    4.6508   455.0    7.149      42.787
2015   12        4    11  37    4.6469   455.0    7.141      42.765
2015   12        4    11  43    4.6430   455.1    7.133      42.742
2015   12        4    11  50    4.6392   455.2    7.124      42.718
2015   12        4    11  57    4.6354   455.3    7.116      42.695
2015   12        4    12   3    4.6316   455.3    7.108      42.671
2015   12        4    12  10    4.6279   455.4    7.099      42.647
2015   12        4    12  16    4.6243   455.5    7.091      42.624
2015   12        4    12  23    4.6206   455.5    7.083      42.600
2015   12        4    12  30    4.6171   455.6    7.075      42.577
2015   12        4    12  36    4.6136   455.7    7.067      42.553
2015   12        4    12  43    4.6101   455.7    7.059      42.530
2015   12        4    12  49    4.6067   455.8    7.051      42.506
2015   12        4    12  56    4.6033   455.9    7.043      42.483
2015   12        4    13   3    4.6000   455.9    7.035      42.459
2015   12        4    13   9    4.5968   456.0    7.027      42.436
2015   12        4    13  16    4.5936   456.1    7.019      42.412
2015   12        4    13  22    4.5905   456.1    7.012      42.389
2015   12        4    13  29    4.5874   456.2    7.004      42.365
2015   12        4    13  36    4.5843   456.3    6.997      42.342
2015   12        4    13  42    4.5813   456.3    6.990      42.318
2015   12        4    13  49    4.5784   456.4    6.982      42.294
2015   12        4    13  55    4.5756   456.5    6.975      42.270
2015   12        4    14   2    4.5728   456.5    6.969      42.246
2015   12        4    14   9    4.5700   456.6    6.962      42.222
2015   12        4    14  15    4.5673   456.7    6.955      42.198
2015   12        4    14  22    4.5647   456.7    6.949      42.174
2015   12        4    14  28    4.5621   456.8    6.943      42.151
2015   12        4    14  35    4.5596   456.8    6.937      42.128
2015   12        4    14  42    4.5572   456.9    6.931      42.105
2015   12        4    14  48    4.5548   456.9    6.925      42.084
2015   12        4    14  55    4.5525   457.0    6.920      42.063
2015   12        4    15   1    4.5502   457.0    6.914      42.042
2015   12        4    15   8    4.5481   457.1    6.909      42.023
2015   12        4    15  15    4.5460   457.1    6.905      42.004
2015   12        4    15  21    4.5439   457.2    6.900      41.987
2015   12        4    15  28    4.5419   457.2    6.896      41.970
2015   12        4    15  34    4.5400   457.3    6.892      41.955
2015   12        4    15  41    4.5381   457.3    6.888      41.941
2015   12        4    15  48    4.5364   457.4    6.885      41.929
2015   12        4    15  54    4.5346   457.4    6.881      41.918
2015   12        4    16   1    4.5329   457.5    6.878      41.908
2015   12        4    16   7    4.5313   457.5    6.875      41.899
2015   12        4    16  14    4.5298   457.6    6.872      41.891
2015   12        4    16  21    4.5283   457.6    6.869      41.884
2015   12        4    16  27    4.5268   457.7    6.866      41.878
2015   12        4    16  34    4.5254   457.7    6.864      41.872
2015   12        4    16  40    4.5241   457.8    6.861      41.867
2015   12        4    16  47    4.5227   457.9    6.859      41.863
2015   12        4    16  54    4.5215   457.9    6.856      41.859
2015   12        4    17   0    4.5202   458.0    6.854      41.855
2015   12        4    17   7    4.5191   458.0    6.851      41.853
2015   12        4    17  13    4.5179   458.1    6.849      41.851
2015   12        4    17  20    4.5167   458.1    6.847      41.849
2015   12        4    17  27    4.5156   458.2    6.844      41.847
2015   12        4    17  33    4.5145   458.3    6.842      41.846
2015   12        4    17  40    4.5134   458.3    6.839      41.844
2015   12        4    17  46    4.5124   458.4    6.837      41.843
2015   12        4    17  53    4.5113   458.4    6.834      41.842
2015   12        4    18   0    4.5103   458.5    6.832      41.841
2015   12        4    18   6    4.5093   458.6    6.829      41.840
2015   12        4    18  13    4.5083   458.6    6.826      41.840
2015   12        4    18  19    4.5073   458.7    6.824      41.839
2015   12        4    18  26    4.5063   458.7    6.821      41.837
2015   12        4    18  33    4.5054   458.8    6.818      41.836
2015   12        4    18  39    4.5045   458.9    6.815      41.835
2015   12        4    18  46    4.5035   458.9    6.813      41.833
2015   12        4    18  52    4.5027   459.0    6.810      41.832
2015   12        4    18  59    4.5018   459.0    6.807      41.830
2015   12        4    19   6    4.5010   459.1    6.804      41.828
2015   12        4    19  12    4.5001   459.2    6.801      41.826
2015   12        4    19  19    4.4994   459.2    6.799      41.824
2015   12        4    19  25    4.4986   459.3    6.796      41.822
2015   12        4    19  32    4.4979   459.4    6.793      41.820
2015   12        4    19  39    4.4972   459.4    6.790      41.818
2015   12        4    19  45    4.4965   459.5    6.787      41.815
2015   12        4    19  52    4.4959   459.5    6.785      41.813
2015   12        4    19  59    4.4953   459.6    6.782      41.811
2015   12        4    20   5    4.4947   459.7    6.779      41.808
2015   12        4    20  12    4.4942   459.7    6.776      41.806
2015   12        4    20  18    4.4937   459.8    6.774      41.803
2015   12        4    20  25    4.4932   459.8    6.771      41.801
2015   12        4    20  32    4.4928   459.9    6.768      41.799
2015   12        4    20  38    4.4924   460.0    6.765      41.796
2015   12        4    20  45    4.4920   460.0    6.763      41.794
2015   12        4    20  51    4.4917   460.1    6.760      41.792
2015   12        4    20  58    4.4915   460.1    6.758      41.790
2015   12        4    21   5    4.4912   460.2    6.755      41.788
2015   12        4    21  11    4.4910   460.3    6.753      41.786
2015   12        4    21  18    4.4908   460.3    6.751      41.785
2015   12        4    21  24    4.4907   460.4    6.748      41.783
2015   12        4    21  31    4.4906   460.4    6.746      41.782
2015   12        4    21  38    4.4905   460.5    6.744      41.781
2015   12        4    21  44    4.4905   460.6    6.742      41.780
2015   12        4    21  51    4.4905   460.6    6.740      41.779
2015   12        4    21  57    4.4905   460.7    6.738      41.779
2015   12        4    22   4    4.4906   460.7    6.736      41.778
2015   12        4    22  11    4.4907   460.8    6.734      41.779
2015   12        4    22  17    4.4909   460.8    6.733      41.779
2015   12        4    22  24    4.4910   460.9    6.731      41.780
2015   12        4    22  30    4.4913   460.9    6.730      41.781
2015   12        4    22  37    4.4915   461.0    6.728      41.782
2015   12        4    22  44    4.4918   461.0    6.727      41.784
2015   12        4    22  50    4.4921   461.1    6.726      41.786
2015   12        4    22  57    4.4925   461.1    6.725      41.789
2015   12        4    23   3    4.4929   461.2    6.724      41.792
2015   12        4    23  10    4.4934   461.3    6.723      41.796
2015   12        4    23  17    4.4939   461.3    6.723      41.800
2015   12        4    23  23    4.4944   461.4    6.722      41.804
2015   12        4    23  30    4.4949   461.4    6.722      41.809
2015   12        4    23  36    4.4955   461.5    6.721      41.815
2015   12        4    23  43    4.4961   461.5    6.721      41.821
2015   12        4    23  50    4.4967   461.6    6.721      41.828
2015   12        4    23  56    4.4974   461.6    6.721      41.835
2015   12        5     0   3    4.4981   461.7    6.721      41.842
2015   12        5     0   9    4.4988   461.8    6.721      41.850
2015   12        5     0  16    4.4996   461.8    6.721      41.859
2015   12        5     0  23    4.5003   461.9    6.721      41.869
2015   12        5     0  29    4.5011   461.9    6.722      41.879
2015   12        5     0  36    4.5019   462.0    6.722      41.890
2015   12        5     0  42    4.5027   462.1    6.723      41.902
2015   12        5     0  49    4.5035   462.1    6.723      41.914
2015   12        5     0  56    4.5044   462.2    6.723      41.926
2015   12        5     1   2    4.5052   462.3    6.724      41.940
2015   12        5     1   9    4.5061   462.3    6.724      41.953
2015   12        5     1  15    4.5070   462.4    6.725      41.967
2015   12        5     1  22    4.5079   462.5    6.725      41.982
2015   12        5     1  29    4.5088   462.5    6.726      41.996
2015   12        5     1  35    4.5098   462.6    6.726      42.011
2015   12        5     1  42    4.5108   462.7    6.727      42.027
2015   12        5     1  48    4.5118   462.7    6.727      42.042
2015   12        5     1  55    4.5128   462.8    6.728      42.058
2015   12        5     2   2    4.5139   462.9    6.729      42.075
2015   12        5     2   8    4.5150   463.0    6.729      42.092
2015   12        5     2  15    4.5161   463.0    6.730      42.109
2015   12        5     2  21    4.5173   463.1    6.731      42.127
2015   12        5     2  28    4.5185   463.2    6.732      42.146
2015   12        5     2  35    4.5198   463.3    6.732      42.165
2015   12        5     2  41    4.5210   463.3    6.733      42.185
2015   12        5     2  48    4.5224   463.4    6.734      42.204
2015   12        5     2  54    4.5237   463.5    6.735      42.224
2015   12        5     3   1    4.5251   463.6    6.735      42.244
2015   12        5     3   8    4.5264   463.7    6.736      42.264
2015   12        5     3  14    4.5278   463.8    6.737      42.285
2015   12        5     3  21    4.5293   463.8    6.737      42.305
2015   12        5     3  27    4.5308   463.9    6.738      42.325
2015   12        5     3  34    4.5322   464.0    6.739      42.346
2015   12        5     3  41    4.5337   464.1    6.739      42.366
2015   12        5     3  47    4.5352   464.2    6.740      42.386
2015   12        5     3  54    4.5368   464.3    6.740      42.406
2015   12        5     4   0    4.5384   464.4    6.741      42.426
2015   12        5     4   7    4.5400   464.5    6.742      42.446
2015   12        5     4  14    4.5416   464.5    6.742      42.467
2015   12        5     4  20    4.5433   464.6    6.743      42.487
2015   12        5     4  27    4.5450   464.7    6.744      42.508
2015   12        5     4  33    4.5467   464.8    6.745      42.529
2015   12        5     4  40    4.5485   464.9    6.746      42.550
2015   12        5     4  47    4.5503   465.0    6.747      42.572
2015   12        5     4  53    4.5521   465.1    6.748      42.595
2015   12        5     5   0    4.5539   465.2    6.749      42.617
2015   12        5     5   6    4.5558   465.3    6.750      42.640
2015   12        5     5  13    4.5576   465.4    6.751      42.663
2015   12        5     5  20    4.5595   465.5    6.752      42.687
2015   12        5     5  26    4.5614   465.6    6.753      42.710
2015   12        5     5  33    4.5633   465.7    6.754      42.734
2015   12        5     5  39    4.5653   465.8    6.755      42.758
2015   12        5     5  46    4.5672   465.9    6.756      42.782
2015   12        5     5  53    4.5691   466.0    6.757      42.807
2015   12        5     5  59    4.5710   466.1    6.758      42.831
2015   12        5     6   6    4.5729   466.2    6.759      42.855
2015   12        5     6  12    4.5749   466.3    6.760      42.879
2015   12        5     6  19    4.5768   466.4    6.760      42.903
2015   12        5     6  26    4.5787   466.5    6.761      42.927
2015   12        5     6  32    4.5806   466.7    6.761      42.951
2015   12        5     6  39    4.5826   466.8    6.762      42.975
2015   12        5     6  45    4.5845   466.9    6.762      42.998
2015   12        5     6  52    4.5864   467.0    6.763      43.022
2015   12        5     6  59    4.5884   467.1    6.763      43.045
2015   12        5     7   5    4.5903   467.2    6.764      43.068
2015   12        5     7  12    4.5922   467.3    6.764      43.090
2015   12        5     7  18    4.5942   467.4    6.764      43.113
2015   12        5     7  25    4.5961   467.6    6.765      43.136
2015   12        5     7  32    4.5981   467.7    6.765      43.159
2015   12        5     7  38    4.6000   467.8    6.766      43.182
2015   12        5     7  45    4.6020   467.9    6.766      43.205
2015   12        5     7  51    4.6040   468.0    6.766      43.228
2015   12        5     7  58    4.6059   468.1    6.767      43.252
2015   12        5     8   5    4.6079   468.2    6.767      43.276
2015   12        5     8  11    4.6099   468.4    6.767      43.301
2015   12        5     8  18    4.6119   468.5    6.768      43.326
2015   12        5     8  24    4.6139   468.6    6.768      43.352
2015   12        5     8  31    4.6159   468.7    6.769      43.378
2015   12        5     8  38    4.6178   468.8    6.769      43.405
2015   12        5     8  44    4.6199   468.9    6.769      43.432
2015   12        5     8  51    4.6219   469.1    6.770      43.460
2015   12        5     8  57    4.6239   469.2    6.770      43.489
2015   12        5     9   4    4.6259   469.3    6.771      43.518
2015   12        5     9  11    4.6280   469.4    6.771      43.548
2015   12        5     9  17    4.6301   469.6    6.772      43.578
2015   12        5     9  24    4.6322   469.7    6.773      43.609
2015   12        5     9  30    4.6344   469.8    6.773      43.641
2015   12        5     9  37    4.6365   469.9    6.774      43.673
2015   12        5     9  44    4.6387   470.1    6.775      43.707
2015   12        5     9  50    4.6410   470.2    6.776      43.741
2015   12        5     9  57    4.6432   470.3    6.777      43.776
2015   12        5    10   3    4.6455   470.5    6.778      43.812
2015   12        5    10  10    4.6478   470.6    6.778      43.849
2015   12        5    10  17    4.6502   470.7    6.779      43.886
2015   12        5    10  23    4.6525   470.9    6.780      43.923
2015   12        5    10  30    4.6549   471.0    6.781      43.961
2015   12        5    10  36    4.6573   471.1    6.782      43.999
2015   12        5    10  43    4.6597   471.3    6.783      44.038
2015   12        5    10  50    4.6621   471.4    6.784      44.077
2015   12        5    10  56    4.6646   471.6    6.785      44.116
2015   12        5    11   3    4.6670   471.7    6.786      44.155
2015   12        5    11   9    4.6695   471.8    6.787      44.194
2015   12        5    11  16    4.6720   472.0    6.787      44.233
2015   12        5    11  23    4.6746   472.1    6.789      44.273
2015   12        5    11  29    4.6771   472.3    6.790      44.313
2015   12        5    11  36    4.6797   472.4    6.791      44.353
2015   12        5    11  42    4.6822   472.6    6.792      44.393
2015   12        5    11  49    4.6848   472.7    6.793      44.433
2015   12        5    11  56    4.6874   472.8    6.794      44.474
2015   12        5    12   2    4.6901   473.0    6.796      44.515
2015   12        5    12   9    4.6927   473.1    6.797      44.557
2015   12        5    12  15    4.6953   473.3    6.798      44.598
2015   12        5    12  22    4.6979   473.4    6.800      44.640
2015   12        5    12  29    4.7006   473.6    6.801      44.682
2015   12        5    12  35    4.7032   473.8    6.802      44.723
2015   12        5    12  42    4.7058   473.9    6.804      44.765
2015   12        5    12  48    4.7084   474.1    6.805      44.806
2015   12        5    12  55    4.7111   474.2    6.806      44.848
2015   12        5    13   2    4.7137   474.4    6.807      44.890
2015   12        5    13   8    4.7163   474.5    6.808      44.931
2015   12        5    13  15    4.7189   474.7    6.810      44.973
2015   12        5    13  21    4.7215   474.9    6.811      45.015
2015   12        5    13  28    4.7241   475.0    6.812      45.058
2015   12        5    13  35    4.7267   475.2    6.813      45.102
2015   12        5    13  41    4.7293   475.4    6.814      45.146
2015   12        5    13  48    4.7318   475.5    6.815      45.190
2015   12        5    13  54    4.7344   475.7    6.816      45.235
2015   12        5    14   1    4.7369   475.9    6.817      45.280
2015   12        5    14   8    4.7394   476.1    6.817      45.325
2015   12        5    14  14    4.7420   476.2    6.818      45.370
2015   12        5    14  21    4.7444   476.4    6.819      45.415
2015   12        5    14  27    4.7469   476.6    6.819      45.460
2015   12        5    14  34    4.7494   476.7    6.819      45.505
2015   12        5    14  41    4.7519   476.9    6.820      45.549
2015   12        5    14  47    4.7544   477.1    6.820      45.592
2015   12        5    14  54    4.7569   477.3    6.821      45.636
2015   12        5    15   0    4.7594   477.4    6.821      45.681
2015   12        5    15   7    4.7618   477.6    6.821      45.725
2015   12        5    15  14    4.7643   477.8    6.821      45.770
2015   12        5    15  20    4.7668   478.0    6.821      45.816
2015   12        5    15  27    4.7692   478.1    6.821      45.861
2015   12        5    15  33    4.7716   478.3    6.821      45.907
2015   12        5    15  40    4.7739   478.5    6.821      45.952
2015   12        5    15  47    4.7762   478.7    6.821      45.997
2015   12        5    15  53    4.7785   478.9    6.820      46.042
2015   12        5    16   0    4.7807   479.1    6.819      46.087
2015   12        5    16   6    4.7829   479.3    6.818      46.131
2015   12        5    16  13    4.7851   479.4    6.817      46.175
2015   12        5    16  20    4.7872   479.6    6.816      46.218
2015   12        5    16  26    4.7892   479.8    6.814      46.260
2015   12        5    16  33    4.7913   480.0    6.813      46.302
2015   12        5    16  39    4.7933   480.2    6.811      46.343
2015   12        5    16  46    4.7953   480.4    6.809      46.384
2015   12        5    16  53    4.7972   480.6    6.808      46.424
2015   12        5    16  59    4.7992   480.7    6.806      46.464
2015   12        5    17   6    4.8011   480.9    6.804      46.504
2015   12        5    17  12    4.8030   481.1    6.802      46.544
2015   12        5    17  19    4.8049   481.3    6.800      46.583
2015   12        5    17  26    4.8069   481.5    6.798      46.623
2015   12        5    17  32    4.8088   481.7    6.796      46.662
2015   12        5    17  39    4.8107   481.9    6.794      46.702
2015   12        5    17  45    4.8126   482.0    6.792      46.741
2015   12        5    17  52    4.8145   482.2    6.790      46.781
2015   12        5    17  59    4.8165   482.4    6.788      46.821
2015   12        5    18   5    4.8185   482.6    6.787      46.861
2015   12        5    18  12    4.8204   482.8    6.785      46.902
2015   12        5    18  18    4.8224   483.0    6.783      46.942
2015   12        5    18  25    4.8244   483.2    6.782      46.984
2015   12        5    18  32    4.8264   483.4    6.781      47.025
2015   12        5    18  38    4.8285   483.5    6.779      47.067
2015   12        5    18  45    4.8306   483.7    6.778      47.110
2015   12        5    18  51    4.8327   483.9    6.777      47.153
2015   12        5    18  58    4.8348   484.1    6.776      47.196
2015   12        5    19   5    4.8369   484.3    6.776      47.240
2015   12        5    19  11    4.8391   484.5    6.775      47.284
2015   12        5    19  18    4.8414   484.7    6.775      47.329
2015   12        5    19  24    4.8437   484.9    6.775      47.374
2015   12        5    19  31    4.8460   485.1    6.775      47.420
2015   12        5    19  38    4.8483   485.3    6.775      47.467
2015   12        5    19  44    4.8508   485.4    6.776      47.514
2015   12        5    19  51    4.8532   485.6    6.777      47.563
2015   12        5    19  57    4.8557   485.9    6.778      47.614
2015   12        5    20   4    4.8582   486.1    6.779      47.667
2015   12        5    20  11    4.8607   486.3    6.780      47.722
2015   12        5    20  17    4.8632   486.5    6.781      47.778
2015   12        5    20  24    4.8657   486.7    6.781      47.836
2015   12        5    20  30    4.8682   486.9    6.782      47.895
2015   12        5    20  37    4.8707   487.2    6.783      47.955
2015   12        5    20  44    4.8731   487.4    6.784      48.015
2015   12        5    20  50    4.8754   487.6    6.784      48.077
2015   12        5    20  57    4.8778   487.8    6.784      48.138
2015   12        5    21   4    4.8800   488.1    6.784      48.199
2015   12        5    21  10    4.8823   488.3    6.784      48.260
2015   12        5    21  17    4.8845   488.5    6.784      48.320
2015   12        5    21  23    4.8867   488.7    6.783      48.379
2015   12        5    21  30    4.8888   489.0    6.783      48.439
2015   12        5    21  37    4.8910   489.2    6.782      48.498
2015   12        5    21  43    4.8932   489.4    6.781      48.557
2015   12        5    21  50    4.8953   489.6    6.780      48.616
2015   12        5    21  56    4.8975   489.9    6.780      48.675
2015   12        5    22   3    4.8997   490.1    6.779      48.734
2015   12        5    22  10    4.9018   490.3    6.778      48.794
2015   12        5    22  16    4.9040   490.6    6.777      48.855
2015   12        5    22  23    4.9061   490.8    6.776      48.915
2015   12        5    22  29    4.9082   491.0    6.774      48.976
2015   12        5    22  36    4.9103   491.3    6.773      49.036
2015   12        5    22  43    4.9123   491.5    6.771      49.097
2015   12        5    22  49    4.9143   491.8    6.769      49.157
2015   12        5    22  56    4.9162   492.0    6.767      49.216
2015   12        5    23   2    4.9181   492.2    6.765      49.275
2015   12        5    23   9    4.9199   492.5    6.763      49.332
2015   12        5    23  16    4.9217   492.7    6.760      49.389
2015   12        5    23  22    4.9234   493.0    6.757      49.445
2015   12        5    23  29    4.9250   493.2    6.753      49.499
2015   12        5    23  35    4.9265   493.5    6.750      49.553
2015   12        5    23  42    4.9280   493.7    6.746      49.605
2015   12        5    23  49    4.9295   494.0    6.742      49.656
2015   12        5    23  55    4.9308   494.3    6.738      49.706
2015   12        6     0   2    4.9322   494.5    6.734      49.754
2015   12        6     0   8    4.9334   494.8    6.729      49.802
2015   12        6     0  15    4.9346   495.0    6.724      49.849
2015   12        6     0  22    4.9358   495.3    6.719      49.894
2015   12        6     0  28    4.9369   495.5    6.714      49.939
2015   12        6     0  35    4.9380   495.8    6.709      49.983
2015   12        6     0  41    4.9390   496.1    6.704      50.027
2015   12        6     0  48    4.9400   496.3    6.699      50.069
2015   12        6     0  55    4.9409   496.6    6.693      50.111
2015   12        6     1   1    4.9418   496.8    6.688      50.152
2015   12        6     1   8    4.9427   497.1    6.682      50.192
2015   12        6     1  14    4.9435   497.4    6.676      50.232
2015   12        6     1  21    4.9443   497.6    6.670      50.272
2015   12        6     1  28    4.9450   497.9    6.665      50.311
2015   12        6     1  34    4.9458   498.1    6.659      50.349
2015   12        6     1  41    4.9465   498.4    6.653      50.387
2015   12        6     1  47    4.9471   498.7    6.647      50.425
2015   12        6     1  54    4.9478   498.9    6.641      50.462
2015   12        6     2   1    4.9484   499.2    6.636      50.499
2015   12        6     2   7    4.9490   499.4    6.630      50.536
2015   12        6     2  14    4.9497   499.7    6.624      50.573
2015   12        6     2  20    4.9502   500.0    6.618      50.610
2015   12        6     2  27    4.9508   500.2    6.613      50.646
2015   12        6     2  34    4.9513   500.5    6.607      50.683
2015   12        6     2  40    4.9519   500.8    6.602      50.720
2015   12        6     2  47    4.9524   501.0    6.597      50.758
2015   12        6     2  53    4.9530   501.3    6.592      50.796
2015   12        6     3   0    4.9535   501.5    6.587      50.834
2015   12        6     3   7    4.9541   501.8    6.582      50.873
2015   12        6     3  13    4.9546   502.0    6.578      50.912
2015   12        6     3  20    4.9552   502.3    6.573      50.953
2015   12        6     3  26    4.9557   502.6    6.569      50.996
2015   12        6     3  33    4.9562   502.8    6.565      51.041
2015   12        6     3  40    4.9567   503.1    6.561      51.088
2015   12        6     3  46    4.9572   503.4    6.557      51.136
2015   12        6     3  53    4.9575   503.7    6.552      51.186
2015   12        6     3  59    4.9579   503.9    6.548      51.236
2015   12        6     4   6    4.9582   504.2    6.544      51.287
2015   12        6     4  13    4.9585   504.5    6.539      51.339
2015   12        6     4  19    4.9587   504.8    6.535      51.392
2015   12        6     4  26    4.9588   505.0    6.530      51.444
2015   12        6     4  32    4.9589   505.3    6.525      51.497
2015   12        6     4  39    4.9589   505.6    6.520      51.549
2015   12        6     4  46    4.9588   505.9    6.514      51.600
2015   12        6     4  52    4.9587   506.1    6.509      51.651
2015   12        6     4  59    4.9586   506.4    6.504      51.701
2015   12        6     5   5    4.9584   506.7    6.498      51.750
2015   12        6     5  12    4.9581   507.0    6.492      51.800
2015   12        6     5  19    4.9579   507.3    6.486      51.849
2015   12        6     5  25    4.9576   507.5    6.481      51.899
2015   12        6     5  32    4.9572   507.8    6.474      51.948
2015   12        6     5  38    4.9568   508.1    6.468      51.997
2015   12        6     5  45    4.9563   508.4    6.462      52.046
2015   12        6     5  52    4.9558   508.7    6.455      52.095
2015   12        6     5  58    4.9553   509.0    6.449      52.143
2015   12        6     6   5    4.9546   509.2    6.442      52.191
2015   12        6     6  11    4.9539   509.5    6.435      52.238
2015   12        6     6  18    4.9532   509.8    6.428      52.285
2015   12        6     6  25    4.9524   510.1    6.421      52.330
2015   12        6     6  31    4.9515   510.4    6.413      52.375
2015   12        6     6  38    4.9505   510.7    6.406      52.419
2015   12        6     6  44    4.9495   511.0    6.398      52.462
2015   12        6     6  51    4.9484   511.2    6.391      52.504
2015   12        6     6  58    4.9473   511.5    6.383      52.545
2015   12        6     7   4    4.9461   511.8    6.375      52.585
2015   12        6     7  11    4.9448   512.1    6.366      52.624
2015   12        6     7  17    4.9435   512.4    6.358      52.663
2015   12        6     7  24    4.9421   512.7    6.350      52.700
2015   12        6     7  31    4.9406   513.0    6.341      52.737
2015   12        6     7  37    4.9391   513.3    6.332      52.773
2015   12        6     7  44    4.9375   513.5    6.323      52.808
2015   12        6     7  50    4.9359   513.8    6.315      52.842
2015   12        6     7  57    4.9342   514.1    6.306      52.875
2015   12        6     8   4    4.9324   514.4    6.296      52.907
2015   12        6     8  10    4.9306   514.7    6.287      52.939
2015   12        6     8  17    4.9287   515.0    6.278      52.970
2015   12        6     8  23    4.9268   515.3    6.269      53.000
2015   12        6     8  30    4.9249   515.6    6.259      53.030
2015   12        6     8  37    4.9229   515.9    6.250      53.058
2015   12        6     8  43    4.9208   516.2    6.240      53.086
2015   12        6     8  50    4.9187   516.5    6.230      53.114
2015   12        6     8  56    4.9166   516.7    6.221      53.140
2015   12        6     9   3    4.9144   517.0    6.211      53.166
2015   12        6     9  10    4.9121   517.3    6.201      53.191
2015   12        6     9  16    4.9098   517.6    6.191      53.216
2015   12        6     9  23    4.9075   517.9    6.181      53.240
2015   12        6     9  29    4.9051   518.2    6.171      53.264
2015   12        6     9  36    4.9027   518.5    6.162      53.287
2015   12        6     9  43    4.9002   518.7    6.152      53.310
2015   12        6     9  49    4.8977   519.0    6.142      53.333
2015   12        6     9  56    4.8951   519.3    6.132      53.355
2015   12        6    10   2    4.8925   519.6    6.122      53.376
2015   12        6    10   9    4.8898   519.9    6.112      53.397
2015   12        6    10  16    4.8871   520.2    6.102      53.418
2015   12        6    10  22    4.8844   520.4    6.092      53.439
2015   12        6    10  29    4.8815   520.7    6.082      53.459
2015   12        6    10  35    4.8787   521.0    6.072      53.478
2015   12        6    10  42    4.8758   521.3    6.062      53.498
2015   12        6    10  49    4.8729   521.6    6.052      53.517
2015   12        6    10  55    4.8699   521.8    6.042      53.536
2015   12        6    11   2    4.8669   522.1    6.032      53.554
2015   12        6    11   8    4.8639   522.4    6.021      53.572
2015   12        6    11  15    4.8609   522.7    6.011      53.590
2015   12        6    11  22    4.8578   522.9    6.001      53.607
2015   12        6    11  28    4.8547   523.2    5.991      53.624
2015   12        6    11  35    4.8515   523.5    5.981      53.641
2015   12        6    11  41    4.8484   523.7    5.971      53.658
2015   12        6    11  48    4.8452   524.0    5.961      53.674
2015   12        6    11  55    4.8420   524.3    5.951      53.690
2015   12        6    12   1    4.8388   524.5    5.941      53.706
2015   12        6    12   8    4.8356   524.8    5.930      53.722
2015   12        6    12  14    4.8323   525.1    5.920      53.737
2015   12        6    12  21    4.8290   525.3    5.910      53.752
2015   12        6    12  28    4.8257   525.6    5.901      53.767
2015   12        6    12  34    4.8224   525.9    5.891      53.782
2015   12        6    12  41    4.8191   526.1    5.881      53.797
2015   12        6    12  47    4.8158   526.4    5.871      53.811
2015   12        6    12  54    4.8124   526.6    5.861      53.825
2015   12        6    13   1    4.8090   526.9    5.851      53.839
2015   12        6    13   7    4.8056   527.1    5.842      53.852
2015   12        6    13  14    4.8022   527.4    5.832      53.865
2015   12        6    13  20    4.7987   527.6    5.822      53.879
2015   12        6    13  27    4.7953   527.9    5.813      53.891
2015   12        6    13  34    4.7917   528.1    5.803      53.904
2015   12        6    13  40    4.7882   528.4    5.793      53.916
2015   12        6    13  47    4.7847   528.6    5.784      53.928
2015   12        6    13  53    4.7812   528.9    5.775      53.940
2015   12        6    14   0    4.7776   529.1    5.765      53.951
2015   12        6    14   7    4.7740   529.3    5.756      53.962
2015   12        6    14  13    4.7704   529.6    5.747      53.974
2015   12        6    14  20    4.7668   529.8    5.737      53.985
2015   12        6    14  26    4.7632   530.0    5.728      53.996
2015   12        6    14  33    4.7595   530.3    5.719      54.007
2015   12        6    14  40    4.7559   530.5    5.710      54.018
2015   12        6    14  46    4.7523   530.7    5.701      54.028
2015   12        6    14  53    4.7486   531.0    5.693      54.039
2015   12        6    14  59    4.7450   531.2    5.684      54.050
2015   12        6    15   6    4.7413   531.4    5.675      54.061
2015   12        6    15  13    4.7377   531.7    5.667      54.072
2015   12        6    15  19    4.7341   531.9    5.658      54.083
2015   12        6    15  26    4.7304   532.1    5.650      54.094
2015   12        6    15  32    4.7268   532.3    5.642      54.105
2015   12        6    15  39    4.7232   532.6    5.634      54.116
2015   12        6    15  46    4.7196   532.8    5.626      54.127
2015   12        6    15  52    4.7160   533.0    5.618      54.139
2015   12        6    15  59    4.7124   533.2    5.610      54.150
2015   12        6    16   5    4.7088   533.4    5.602      54.160
2015   12        6    16  12    4.7052   533.7    5.594      54.171
2015   12        6    16  19    4.7016   533.9    5.586      54.181
2015   12        6    16  25    4.6980   534.1    5.578      54.191
2015   12        6    16  32    4.6944   534.3    5.570      54.201
2015   12        6    16  38    4.6908   534.5    5.562      54.210
2015   12        6    16  45    4.6871   534.7    5.554      54.219
2015   12        6    16  52    4.6834   535.0    5.546      54.227
2015   12        6    16  58    4.6798   535.2    5.538      54.235
2015   12        6    17   5    4.6761   535.4    5.530      54.242
2015   12        6    17  11    4.6724   535.6    5.522      54.248
2015   12        6    17  18    4.6688   535.8    5.514      54.254
2015   12        6    17  25    4.6651   536.0    5.505      54.260
2015   12        6    17  31    4.6614   536.3    5.497      54.264
2015   12        6    17  38    4.6577   536.5    5.488      54.268
2015   12        6    17  44    4.6541   536.7    5.480      54.271
2015   12        6    17  51    4.6504   536.9    5.471      54.274
2015   12        6    17  58    4.6467   537.1    5.463      54.276
2015   12        6    18   4    4.6430   537.3    5.454      54.277
2015   12        6    18  11    4.6394   537.5    5.445      54.278
2015   12        6    18  17    4.6357   537.8    5.437      54.279
2015   12        6    18  24    4.6321   538.0    5.428      54.279
2015   12        6    18  31    4.6285   538.2    5.419      54.278
2015   12        6    18  37    4.6249   538.4    5.411      54.277
2015   12        6    18  44    4.6213   538.6    5.402      54.276
2015   12        6    18  50    4.6178   538.8    5.393      54.274
2015   12        6    18  57    4.6142   539.0    5.385      54.272
2015   12        6    19   4    4.6107   539.2    5.376      54.269
2015   12        6    19  10    4.6072   539.4    5.367      54.267
2015   12        6    19  17    4.6037   539.6    5.359      54.264
2015   12        6    19  23    4.6003   539.8    5.350      54.261
2015   12        6    19  30    4.5968   540.0    5.342      54.258
2015   12        6    19  37    4.5934   540.2    5.333      54.254
2015   12        6    19  43    4.5900   540.4    5.325      54.251
2015   12        6    19  50    4.5866   540.6    5.317      54.248
2015   12        6    19  56    4.5833   540.8    5.308      54.244
2015   12        6    20   3    4.5799   541.0    5.300      54.241
2015   12        6    20  10    4.5766   541.2    5.292      54.237
2015   12        6    20  16    4.5733   541.4    5.284      54.234
2015   12        6    20  23    4.5700   541.6    5.276      54.231
2015   12        6    20  29    4.5668   541.8    5.268      54.228
2015   12        6    20  36    4.5635   542.0    5.261      54.225
2015   12        6    20  43    4.5603   542.2    5.253      54.222
2015   12        6    20  49    4.5571   542.4    5.246      54.220
2015   12        6    20  56    4.5538   542.6    5.238      54.218
2015   12        6    21   2    4.5507   542.8    5.231      54.216
2015   12        6    21   9    4.5475   542.9    5.224      54.214
2015   12        6    21  16    4.5443   543.1    5.217      54.213
2015   12        6    21  22    4.5412   543.3    5.210      54.212
2015   12        6    21  29    4.5381   543.5    5.203      54.211
2015   12        6    21  35    4.5349   543.7    5.196      54.211
2015   12        6    21  42    4.5319   543.8    5.190      54.211
2015   12        6    21  49    4.5288   544.0    5.183      54.212
2015   12        6    21  55    4.5258   544.2    5.177      54.213
2015   12        6    22   2    4.5227   544.3    5.171      54.214
2015   12        6    22   8    4.5197   544.5    5.165      54.216
2015   12        6    22  15    4.5168   544.7    5.159      54.218
2015   12        6    22  22    4.5138   544.8    5.153      54.221
2015   12        6    22  28    4.5109   545.0    5.147      54.225
2015   12        6    22  35    4.5080   545.2    5.142      54.229
2015   12        6    22  41    4.5051   545.3    5.137      54.233
2015   12        6    22  48    4.5023   545.5    5.131      54.238
2015   12        6    22  55    4.4994   545.7    5.126      54.243
2015   12        6    23   1    4.4966   545.8    5.121      54.249
2015   12        6    23   8    4.4938   546.0    5.116      54.255
2015   12        6    23  15    4.4910   546.1    5.111      54.261
2015   12        6    23  21    4.4883   546.3    5.107      54.267
2015   12        6    23  28    4.4855   546.4    5.102      54.273
2015   12        6    23  34    4.4828   546.6    5.097      54.279
2015   12        6    23  41    4.4800   546.8    5.092      54.285
2015   12        6    23  48    4.4773   546.9    5.087      54.291
2015   12        6    23  54    4.4745   547.1    5.083      54.296
2015   12        7     0   1    4.4718   547.2    5.078      54.301
