year    month   day   hour  minute  B_enl V_enl   n_enl       T_enl
[year] [month] [day] [hour][minute] [nT]  [km/s]  [cm-3]      [kK]
2015   11        1     0   2    3.4017   341.3   10.546      27.648
2015   11        1     0   9    3.4023   341.3   10.553      27.651
2015   11        1     0  16    3.4030   341.2   10.560      27.655
2015   11        1     0  24    3.4036   341.2   10.567      27.659
2015   11        1     0  31    3.4043   341.2   10.574      27.662
2015   11        1     0  38    3.4049   341.1   10.581      27.666
2015   11        1     0  45    3.4056   341.1   10.588      27.670
2015   11        1     0  52    3.4062   341.1   10.595      27.674
2015   11        1     0  59    3.4069   341.1   10.602      27.678
2015   11        1     1   6    3.4076   341.0   10.609      27.682
2015   11        1     1  13    3.4082   341.0   10.616      27.686
2015   11        1     1  21    3.4088   341.0   10.623      27.690
2015   11        1     1  28    3.4096   340.9   10.630      27.694
2015   11        1     1  35    3.4103   340.9   10.637      27.699
2015   11        1     1  42    3.4110   340.9   10.644      27.703
2015   11        1     1  49    3.4117   340.9   10.650      27.707
2015   11        1     1  56    3.4124   340.8   10.657      27.712
2015   11        1     2   3    3.4130   340.8   10.664      27.716
2015   11        1     2  10    3.4138   340.8   10.671      27.721
2015   11        1     2  18    3.4146   340.7   10.679      27.726
2015   11        1     2  25    3.4153   340.7   10.686      27.730
2015   11        1     2  32    3.4161   340.7   10.693      27.735
2015   11        1     2  39    3.4168   340.7   10.700      27.740
2015   11        1     2  46    3.4177   340.6   10.707      27.745
2015   11        1     2  53    3.4185   340.6   10.715      27.751
2015   11        1     3   0    3.4193   340.6   10.722      27.756
2015   11        1     3   7    3.4201   340.6   10.730      27.762
2015   11        1     3  14    3.4211   340.5   10.738      27.767
2015   11        1     3  22    3.4220   340.5   10.745      27.773
2015   11        1     3  29    3.4229   340.5   10.753      27.780
2015   11        1     3  36    3.4238   340.5   10.761      27.786
2015   11        1     3  43    3.4248   340.4   10.770      27.792
2015   11        1     3  50    3.4258   340.4   10.778      27.799
2015   11        1     3  57    3.4268   340.4   10.786      27.806
2015   11        1     4   4    3.4279   340.4   10.795      27.813
2015   11        1     4  11    3.4289   340.4   10.804      27.820
2015   11        1     4  18    3.4301   340.3   10.813      27.828
2015   11        1     4  25    3.4312   340.3   10.822      27.836
2015   11        1     4  32    3.4324   340.3   10.831      27.844
2015   11        1     4  39    3.4336   340.3   10.840      27.852
2015   11        1     4  47    3.4348   340.3   10.850      27.861
2015   11        1     4  54    3.4361   340.2   10.860      27.870
2015   11        1     5   1    3.4373   340.2   10.870      27.879
2015   11        1     5   8    3.4386   340.2   10.880      27.888
2015   11        1     5  15    3.4400   340.2   10.891      27.898
2015   11        1     5  22    3.4413   340.2   10.901      27.908
2015   11        1     5  29    3.4426   340.2   10.912      27.919
2015   11        1     5  36    3.4440   340.2   10.923      27.930
2015   11        1     5  43    3.4454   340.1   10.933      27.941
2015   11        1     5  50    3.4468   340.1   10.944      27.953
2015   11        1     5  57    3.4482   340.1   10.956      27.966
2015   11        1     6   5    3.4496   340.1   10.967      27.979
2015   11        1     6  12    3.4510   340.1   10.978      27.992
2015   11        1     6  19    3.4524   340.1   10.989      28.006
2015   11        1     6  26    3.4537   340.1   11.000      28.020
2015   11        1     6  33    3.4551   340.1   11.011      28.035
2015   11        1     6  40    3.4565   340.1   11.022      28.049
2015   11        1     6  47    3.4579   340.1   11.032      28.065
2015   11        1     6  54    3.4592   340.1   11.043      28.080
2015   11        1     7   1    3.4605   340.1   11.053      28.095
2015   11        1     7   8    3.4617   340.1   11.064      28.111
2015   11        1     7  16    3.4630   340.1   11.074      28.126
2015   11        1     7  23    3.4643   340.1   11.084      28.142
2015   11        1     7  30    3.4655   340.1   11.094      28.157
2015   11        1     7  37    3.4667   340.1   11.103      28.173
2015   11        1     7  44    3.4679   340.1   11.113      28.188
2015   11        1     7  51    3.4691   340.1   11.122      28.203
2015   11        1     7  58    3.4703   340.1   11.131      28.218
2015   11        1     8   5    3.4715   340.1   11.140      28.232
2015   11        1     8  13    3.4726   340.1   11.149      28.247
2015   11        1     8  20    3.4738   340.1   11.158      28.261
2015   11        1     8  27    3.4749   340.1   11.166      28.275
2015   11        1     8  34    3.4761   340.1   11.174      28.289
2015   11        1     8  41    3.4771   340.1   11.183      28.303
2015   11        1     8  48    3.4782   340.1   11.191      28.317
2015   11        1     8  55    3.4793   340.1   11.199      28.330
2015   11        1     9   2    3.4805   340.1   11.206      28.344
2015   11        1     9  10    3.4815   340.1   11.214      28.357
2015   11        1     9  17    3.4826   340.2   11.222      28.370
2015   11        1     9  24    3.4837   340.2   11.229      28.383
2015   11        1     9  31    3.4847   340.2   11.236      28.396
2015   11        1     9  38    3.4858   340.2   11.244      28.409
2015   11        1     9  45    3.4869   340.2   11.251      28.422
2015   11        1     9  52    3.4880   340.2   11.258      28.434
2015   11        1     9  59    3.4890   340.2   11.265      28.446
2015   11        1    10   7    3.4901   340.2   11.272      28.459
2015   11        1    10  14    3.4911   340.2   11.279      28.471
2015   11        1    10  21    3.4922   340.2   11.285      28.483
2015   11        1    10  28    3.4932   340.2   11.292      28.495
2015   11        1    10  35    3.4943   340.2   11.299      28.507
2015   11        1    10  42    3.4953   340.3   11.305      28.519
2015   11        1    10  49    3.4964   340.3   11.312      28.531
2015   11        1    10  56    3.4974   340.3   11.319      28.542
2015   11        1    11   3    3.4985   340.3   11.325      28.554
2015   11        1    11  10    3.4996   340.3   11.332      28.565
2015   11        1    11  17    3.5006   340.3   11.338      28.577
2015   11        1    11  25    3.5017   340.3   11.345      28.588
2015   11        1    11  32    3.5028   340.3   11.351      28.599
2015   11        1    11  39    3.5039   340.3   11.358      28.611
2015   11        1    11  46    3.5050   340.4   11.365      28.622
2015   11        1    11  53    3.5061   340.4   11.371      28.633
2015   11        1    12   0    3.5073   340.4   11.378      28.644
2015   11        1    12   7    3.5084   340.4   11.385      28.655
2015   11        1    12  14    3.5096   340.4   11.392      28.667
2015   11        1    12  21    3.5108   340.4   11.399      28.678
2015   11        1    12  28    3.5120   340.4   11.406      28.689
2015   11        1    12  35    3.5132   340.4   11.413      28.701
2015   11        1    12  42    3.5145   340.5   11.420      28.712
2015   11        1    12  50    3.5157   340.5   11.428      28.724
2015   11        1    12  57    3.5170   340.5   11.435      28.737
2015   11        1    13   4    3.5183   340.5   11.443      28.749
2015   11        1    13  11    3.5196   340.5   11.450      28.762
2015   11        1    13  18    3.5210   340.5   11.458      28.775
2015   11        1    13  25    3.5223   340.6   11.466      28.788
2015   11        1    13  32    3.5237   340.6   11.474      28.802
2015   11        1    13  39    3.5251   340.6   11.481      28.816
2015   11        1    13  46    3.5265   340.6   11.489      28.830
2015   11        1    13  53    3.5279   340.6   11.497      28.845
2015   11        1    14   1    3.5293   340.7   11.505      28.860
2015   11        1    14   8    3.5306   340.7   11.512      28.875
2015   11        1    14  15    3.5320   340.7   11.520      28.891
2015   11        1    14  22    3.5333   340.7   11.527      28.907
2015   11        1    14  29    3.5346   340.8   11.535      28.923
2015   11        1    14  36    3.5360   340.8   11.542      28.940
2015   11        1    14  43    3.5372   340.8   11.548      28.956
2015   11        1    14  50    3.5385   340.9   11.555      28.973
2015   11        1    14  57    3.5398   340.9   11.561      28.989
2015   11        1    15   5    3.5410   340.9   11.568      29.006
2015   11        1    15  12    3.5421   340.9   11.574      29.022
2015   11        1    15  19    3.5433   341.0   11.579      29.038
2015   11        1    15  26    3.5444   341.0   11.585      29.054
2015   11        1    15  33    3.5456   341.0   11.590      29.070
2015   11        1    15  40    3.5467   341.1   11.595      29.085
2015   11        1    15  47    3.5478   341.1   11.599      29.100
2015   11        1    15  54    3.5488   341.1   11.604      29.115
2015   11        1    16   2    3.5499   341.2   11.608      29.129
2015   11        1    16   9    3.5509   341.2   11.612      29.143
2015   11        1    16  16    3.5519   341.2   11.616      29.157
2015   11        1    16  23    3.5529   341.3   11.620      29.170
2015   11        1    16  30    3.5539   341.3   11.623      29.183
2015   11        1    16  37    3.5549   341.3   11.626      29.196
2015   11        1    16  44    3.5558   341.4   11.630      29.208
2015   11        1    16  51    3.5568   341.4   11.633      29.221
2015   11        1    16  59    3.5577   341.4   11.635      29.232
2015   11        1    17   6    3.5587   341.4   11.638      29.244
2015   11        1    17  13    3.5596   341.5   11.641      29.255
2015   11        1    17  20    3.5605   341.5   11.643      29.266
2015   11        1    17  27    3.5614   341.5   11.646      29.277
2015   11        1    17  34    3.5623   341.6   11.648      29.288
2015   11        1    17  41    3.5632   341.6   11.650      29.298
2015   11        1    17  48    3.5641   341.6   11.652      29.308
2015   11        1    17  55    3.5650   341.7   11.654      29.318
2015   11        1    18   3    3.5659   341.7   11.656      29.328
2015   11        1    18  10    3.5668   341.7   11.658      29.337
2015   11        1    18  17    3.5676   341.8   11.659      29.346
2015   11        1    18  24    3.5685   341.8   11.661      29.355
2015   11        1    18  31    3.5694   341.8   11.663      29.364
2015   11        1    18  38    3.5703   341.9   11.664      29.373
2015   11        1    18  45    3.5712   341.9   11.666      29.381
2015   11        1    18  52    3.5721   341.9   11.667      29.390
2015   11        1    18  59    3.5729   342.0   11.669      29.398
2015   11        1    19   6    3.5739   342.0   11.670      29.407
2015   11        1    19  13    3.5747   342.0   11.672      29.415
2015   11        1    19  20    3.5756   342.0   11.673      29.423
2015   11        1    19  28    3.5766   342.1   11.675      29.431
2015   11        1    19  35    3.5775   342.1   11.676      29.438
2015   11        1    19  42    3.5784   342.1   11.678      29.446
2015   11        1    19  49    3.5793   342.2   11.679      29.454
2015   11        1    19  56    3.5803   342.2   11.681      29.462
2015   11        1    20   3    3.5812   342.2   11.683      29.469
2015   11        1    20  10    3.5822   342.3   11.684      29.477
2015   11        1    20  17    3.5832   342.3   11.686      29.485
2015   11        1    20  24    3.5841   342.3   11.688      29.492
2015   11        1    20  31    3.5852   342.4   11.690      29.500
2015   11        1    20  38    3.5862   342.4   11.692      29.508
2015   11        1    20  45    3.5872   342.4   11.694      29.516
2015   11        1    20  53    3.5883   342.5   11.696      29.524
2015   11        1    21   0    3.5894   342.5   11.699      29.532
2015   11        1    21   7    3.5905   342.5   11.701      29.540
2015   11        1    21  14    3.5916   342.6   11.704      29.548
2015   11        1    21  21    3.5927   342.6   11.707      29.556
2015   11        1    21  28    3.5938   342.6   11.709      29.565
2015   11        1    21  35    3.5949   342.7   11.712      29.574
2015   11        1    21  42    3.5960   342.7   11.715      29.583
2015   11        1    21  49    3.5972   342.7   11.718      29.593
2015   11        1    21  56    3.5984   342.8   11.721      29.602
2015   11        1    22   4    3.5995   342.8   11.725      29.613
2015   11        1    22  11    3.6006   342.9   11.728      29.623
2015   11        1    22  18    3.6018   342.9   11.731      29.634
2015   11        1    22  25    3.6030   342.9   11.734      29.644
2015   11        1    22  32    3.6041   343.0   11.737      29.655
2015   11        1    22  39    3.6052   343.0   11.740      29.666
2015   11        1    22  46    3.6064   343.1   11.743      29.677
2015   11        1    22  53    3.6075   343.1   11.746      29.688
2015   11        1    23   1    3.6087   343.1   11.749      29.700
2015   11        1    23   8    3.6098   343.2   11.752      29.711
2015   11        1    23  15    3.6110   343.2   11.755      29.722
2015   11        1    23  22    3.6121   343.3   11.758      29.733
2015   11        1    23  29    3.6133   343.3   11.761      29.744
2015   11        1    23  36    3.6144   343.4   11.764      29.756
2015   11        1    23  43    3.6155   343.4   11.767      29.767
2015   11        1    23  50    3.6167   343.4   11.769      29.778
2015   11        1    23  58    3.6178   343.5   11.772      29.790
2015   11        2     0   5    3.6189   343.5   11.774      29.801
2015   11        2     0  12    3.6200   343.6   11.777      29.812
2015   11        2     0  19    3.6211   343.6   11.779      29.823
2015   11        2     0  26    3.6222   343.6   11.781      29.834
2015   11        2     0  33    3.6233   343.7   11.783      29.845
2015   11        2     0  40    3.6244   343.7   11.785      29.855
2015   11        2     0  47    3.6254   343.8   11.786      29.866
2015   11        2     0  54    3.6265   343.8   11.788      29.877
2015   11        2     1   2    3.6276   343.9   11.789      29.887
2015   11        2     1   9    3.6286   343.9   11.791      29.897
2015   11        2     1  16    3.6297   343.9   11.792      29.907
2015   11        2     1  23    3.6308   344.0   11.793      29.916
2015   11        2     1  30    3.6318   344.0   11.794      29.926
2015   11        2     1  37    3.6329   344.1   11.794      29.935
2015   11        2     1  44    3.6340   344.1   11.795      29.944
2015   11        2     1  51    3.6350   344.2   11.796      29.952
2015   11        2     1  59    3.6361   344.2   11.796      29.961
2015   11        2     2   6    3.6372   344.2   11.797      29.969
2015   11        2     2  13    3.6383   344.3   11.797      29.977
2015   11        2     2  20    3.6394   344.3   11.798      29.985
2015   11        2     2  27    3.6405   344.4   11.798      29.993
2015   11        2     2  34    3.6416   344.4   11.798      30.001
2015   11        2     2  41    3.6427   344.4   11.798      30.009
2015   11        2     2  48    3.6439   344.5   11.798      30.016
2015   11        2     2  55    3.6450   344.5   11.799      30.024
2015   11        2     3   3    3.6462   344.6   11.799      30.031
2015   11        2     3  10    3.6473   344.6   11.799      30.039
2015   11        2     3  17    3.6485   344.6   11.799      30.046
2015   11        2     3  24    3.6497   344.7   11.799      30.053
2015   11        2     3  31    3.6509   344.7   11.799      30.060
2015   11        2     3  38    3.6522   344.8   11.799      30.067
2015   11        2     3  45    3.6534   344.8   11.799      30.074
2015   11        2     3  53    3.6546   344.9   11.800      30.081
2015   11        2     4   0    3.6559   344.9   11.800      30.088
2015   11        2     4   7    3.6572   344.9   11.800      30.095
2015   11        2     4  14    3.6585   345.0   11.800      30.102
2015   11        2     4  21    3.6598   345.0   11.801      30.109
2015   11        2     4  28    3.6611   345.1   11.801      30.116
2015   11        2     4  35    3.6625   345.1   11.801      30.123
2015   11        2     4  42    3.6638   345.1   11.802      30.131
2015   11        2     4  50    3.6652   345.2   11.802      30.138
2015   11        2     4  57    3.6666   345.2   11.803      30.145
2015   11        2     5   4    3.6680   345.3   11.804      30.152
2015   11        2     5  11    3.6695   345.3   11.805      30.159
2015   11        2     5  18    3.6709   345.4   11.805      30.166
2015   11        2     5  25    3.6724   345.4   11.806      30.174
2015   11        2     5  32    3.6739   345.4   11.808      30.181
2015   11        2     5  40    3.6754   345.5   11.809      30.189
2015   11        2     5  47    3.6770   345.5   11.810      30.196
2015   11        2     5  54    3.6786   345.6   11.811      30.204
2015   11        2     6   1    3.6802   345.6   11.813      30.212
2015   11        2     6   8    3.6818   345.7   11.815      30.220
2015   11        2     6  15    3.6835   345.7   11.816      30.228
2015   11        2     6  22    3.6852   345.8   11.818      30.236
2015   11        2     6  30    3.6869   345.8   11.820      30.244
2015   11        2     6  37    3.6887   345.9   11.823      30.253
2015   11        2     6  44    3.6904   345.9   11.825      30.261
2015   11        2     6  51    3.6923   345.9   11.827      30.270
2015   11        2     6  58    3.6940   346.0   11.830      30.279
2015   11        2     7   5    3.6959   346.0   11.832      30.289
2015   11        2     7  12    3.6978   346.1   11.835      30.298
2015   11        2     7  19    3.6997   346.1   11.838      30.308
2015   11        2     7  26    3.7016   346.2   11.840      30.318
2015   11        2     7  34    3.7035   346.2   11.843      30.328
2015   11        2     7  41    3.7055   346.3   11.846      30.338
2015   11        2     7  48    3.7075   346.3   11.848      30.348
2015   11        2     7  55    3.7096   346.4   11.851      30.359
2015   11        2     8   2    3.7115   346.4   11.854      30.369
2015   11        2     8   9    3.7136   346.5   11.856      30.380
2015   11        2     8  16    3.7156   346.5   11.859      30.390
2015   11        2     8  23    3.7177   346.6   11.861      30.401
2015   11        2     8  31    3.7198   346.6   11.864      30.411
2015   11        2     8  38    3.7220   346.7   11.866      30.421
2015   11        2     8  45    3.7241   346.7   11.869      30.431
2015   11        2     8  52    3.7263   346.8   11.871      30.442
2015   11        2     8  59    3.7286   346.8   11.874      30.452
2015   11        2     9   6    3.7308   346.9   11.876      30.462
2015   11        2     9  13    3.7330   346.9   11.878      30.473
2015   11        2     9  20    3.7353   347.0   11.881      30.483
2015   11        2     9  27    3.7377   347.0   11.883      30.493
2015   11        2     9  35    3.7399   347.1   11.886      30.503
2015   11        2     9  42    3.7423   347.1   11.888      30.513
2015   11        2     9  49    3.7447   347.2   11.890      30.523
2015   11        2     9  56    3.7471   347.2   11.893      30.534
2015   11        2    10   3    3.7496   347.3   11.895      30.544
2015   11        2    10  10    3.7520   347.3   11.898      30.554
2015   11        2    10  17    3.7546   347.4   11.900      30.564
2015   11        2    10  24    3.7572   347.4   11.902      30.574
2015   11        2    10  32    3.7597   347.5   11.905      30.585
2015   11        2    10  39    3.7623   347.5   11.907      30.595
2015   11        2    10  46    3.7648   347.6   11.910      30.605
2015   11        2    10  53    3.7674   347.6   11.912      30.616
2015   11        2    11   0    3.7700   347.7   11.915      30.626
2015   11        2    11   7    3.7727   347.7   11.918      30.637
2015   11        2    11  14    3.7754   347.8   11.920      30.647
2015   11        2    11  21    3.7782   347.8   11.923      30.657
2015   11        2    11  29    3.7810   347.9   11.926      30.668
2015   11        2    11  36    3.7838   347.9   11.928      30.679
2015   11        2    11  43    3.7866   348.0   11.931      30.689
2015   11        2    11  50    3.7896   348.0   11.934      30.700
2015   11        2    11  57    3.7925   348.1   11.937      30.711
2015   11        2    12   4    3.7955   348.1   11.940      30.722
2015   11        2    12  11    3.7986   348.2   11.943      30.733
2015   11        2    12  19    3.8019   348.2   11.947      30.744
2015   11        2    12  26    3.8050   348.3   11.950      30.756
2015   11        2    12  33    3.8081   348.3   11.954      30.767
2015   11        2    12  40    3.8114   348.4   11.957      30.778
2015   11        2    12  47    3.8148   348.4   11.961      30.790
2015   11        2    12  54    3.8183   348.5   11.965      30.802
2015   11        2    13   1    3.8218   348.5   11.970      30.814
2015   11        2    13   8    3.8257   348.6   11.974      30.826
2015   11        2    13  16    3.8292   348.6   11.979      30.838
2015   11        2    13  23    3.8330   348.7   11.984      30.851
2015   11        2    13  30    3.8369   348.7   11.989      30.863
2015   11        2    13  37    3.8409   348.8   11.995      30.877
2015   11        2    13  44    3.8450   348.8   12.001      30.890
2015   11        2    13  51    3.8492   348.9   12.007      30.904
2015   11        2    13  58    3.8534   348.9   12.013      30.918
2015   11        2    14   6    3.8577   349.0   12.020      30.933
2015   11        2    14  13    3.8621   349.1   12.027      30.948
2015   11        2    14  20    3.8666   349.1   12.035      30.963
2015   11        2    14  27    3.8711   349.2   12.042      30.979
2015   11        2    14  34    3.8756   349.2   12.050      30.996
2015   11        2    14  41    3.8805   349.3   12.058      31.014
2015   11        2    14  48    3.8849   349.3   12.066      31.033
2015   11        2    14  55    3.8899   349.4   12.075      31.053
2015   11        2    15   2    3.8943   349.5   12.083      31.073
2015   11        2    15  10    3.8991   349.5   12.092      31.094
2015   11        2    15  17    3.9041   349.6   12.101      31.116
2015   11        2    15  24    3.9089   349.7   12.110      31.138
2015   11        2    15  31    3.9137   349.7   12.119      31.161
2015   11        2    15  38    3.9186   349.8   12.128      31.184
2015   11        2    15  45    3.9232   349.9   12.137      31.208
2015   11        2    15  52    3.9282   350.0   12.146      31.232
2015   11        2    15  59    3.9331   350.0   12.155      31.257
2015   11        2    16   7    3.9383   350.1   12.165      31.282
2015   11        2    16  14    3.9430   350.2   12.174      31.308
2015   11        2    16  21    3.9484   350.3   12.184      31.333
2015   11        2    16  28    3.9534   350.3   12.193      31.359
2015   11        2    16  35    3.9585   350.4   12.203      31.385
2015   11        2    16  42    3.9633   350.5   12.213      31.412
2015   11        2    16  49    3.9684   350.6   12.224      31.438
2015   11        2    16  56    3.9735   350.6   12.234      31.465
2015   11        2    17   3    3.9787   350.7   12.244      31.493
2015   11        2    17  11    3.9839   350.8   12.255      31.521
2015   11        2    17  18    3.9893   350.9   12.266      31.549
2015   11        2    17  25    3.9945   350.9   12.277      31.578
2015   11        2    17  32    3.9996   351.0   12.289      31.607
2015   11        2    17  39    4.0051   351.1   12.300      31.637
2015   11        2    17  46    4.0104   351.2   12.312      31.667
2015   11        2    17  53    4.0157   351.3   12.324      31.699
2015   11        2    18   0    4.0209   351.4   12.336      31.731
2015   11        2    18   8    4.0262   351.5   12.348      31.764
2015   11        2    18  15    4.0319   351.6   12.360      31.798
2015   11        2    18  22    4.0374   351.6   12.372      31.832
2015   11        2    18  29    4.0427   351.7   12.385      31.868
2015   11        2    18  36    4.0485   351.8   12.398      31.904
2015   11        2    18  43    4.0539   351.9   12.411      31.941
2015   11        2    18  50    4.0598   352.0   12.424      31.978
2015   11        2    18  57    4.0656   352.1   12.437      32.016
2015   11        2    19   5    4.0712   352.2   12.450      32.055
2015   11        2    19  12    4.0771   352.4   12.464      32.095
2015   11        2    19  19    4.0831   352.5   12.478      32.135
2015   11        2    19  26    4.0892   352.6   12.493      32.176
2015   11        2    19  33    4.0956   352.7   12.508      32.218
2015   11        2    19  40    4.1020   352.8   12.523      32.260
2015   11        2    19  47    4.1082   352.9   12.539      32.303
2015   11        2    19  54    4.1151   353.0   12.556      32.347
2015   11        2    20   2    4.1216   353.2   12.573      32.392
2015   11        2    20   9    4.1288   353.3   12.591      32.437
2015   11        2    20  16    4.1357   353.4   12.609      32.483
2015   11        2    20  23    4.1432   353.5   12.628      32.531
2015   11        2    20  30    4.1505   353.7   12.648      32.582
2015   11        2    20  37    4.1579   353.8   12.669      32.634
2015   11        2    20  44    4.1655   354.0   12.689      32.689
2015   11        2    20  52    4.1734   354.1   12.711      32.746
2015   11        2    20  59    4.1813   354.2   12.733      32.804
2015   11        2    21   6    4.1894   354.4   12.755      32.863
2015   11        2    21  13    4.1978   354.5   12.778      32.924
2015   11        2    21  20    4.2060   354.7   12.801      32.988
2015   11        2    21  27    4.2142   354.9   12.823      33.054
2015   11        2    21  34    4.2221   355.0   12.846      33.123
2015   11        2    21  41    4.2306   355.2   12.869      33.193
2015   11        2    21  49    4.2385   355.4   12.891      33.267
2015   11        2    21  56    4.2469   355.6   12.913      33.341
2015   11        2    22   3    4.2547   355.7   12.934      33.416
2015   11        2    22  10    4.2630   355.9   12.955      33.492
2015   11        2    22  17    4.2710   356.1   12.975      33.569
2015   11        2    22  24    4.2784   356.3   12.994      33.645
2015   11        2    22  31    4.2862   356.5   13.012      33.722
2015   11        2    22  38    4.2940   356.7   13.030      33.800
2015   11        2    22  45    4.3015   356.8   13.047      33.877
2015   11        2    22  53    4.3088   357.0   13.062      33.954
2015   11        2    23   0    4.3161   357.2   13.077      34.030
2015   11        2    23   7    4.3229   357.4   13.092      34.105
2015   11        2    23  14    4.3302   357.6   13.105      34.179
2015   11        2    23  21    4.3369   357.8   13.118      34.252
2015   11        2    23  28    4.3437   358.0   13.130      34.324
2015   11        2    23  35    4.3505   358.1   13.142      34.395
2015   11        2    23  42    4.3572   358.3   13.153      34.465
2015   11        2    23  49    4.3640   358.5   13.164      34.534
2015   11        2    23  57    4.3705   358.7   13.174      34.602
2015   11        3     0   4    4.3767   358.9   13.184      34.669
2015   11        3     0  11    4.3833   359.1   13.194      34.736
2015   11        3     0  18    4.3896   359.3   13.203      34.802
2015   11        3     0  25    4.3957   359.5   13.213      34.868
2015   11        3     0  32    4.4021   359.6   13.222      34.933
2015   11        3     0  39    4.4082   359.8   13.231      34.998
2015   11        3     0  46    4.4145   360.0   13.240      35.063
2015   11        3     0  54    4.4206   360.2   13.249      35.128
2015   11        3     1   1    4.4266   360.4   13.258      35.193
2015   11        3     1   8    4.4328   360.6   13.267      35.258
2015   11        3     1  15    4.4388   360.8   13.276      35.323
2015   11        3     1  22    4.4448   361.0   13.285      35.389
2015   11        3     1  29    4.4509   361.2   13.293      35.454
2015   11        3     1  36    4.4570   361.4   13.302      35.521
2015   11        3     1  43    4.4629   361.6   13.311      35.588
2015   11        3     1  50    4.4691   361.8   13.321      35.655
2015   11        3     1  58    4.4751   362.0   13.330      35.723
2015   11        3     2   5    4.4812   362.2   13.339      35.791
2015   11        3     2  12    4.4873   362.4   13.349      35.859
2015   11        3     2  19    4.4935   362.6   13.359      35.929
2015   11        3     2  26    4.4996   362.8   13.369      35.998
2015   11        3     2  33    4.5059   363.1   13.380      36.069
2015   11        3     2  40    4.5121   363.3   13.391      36.139
2015   11        3     2  47    4.5185   363.5   13.403      36.211
2015   11        3     2  55    4.5249   363.7   13.415      36.283
2015   11        3     3   2    4.5313   363.9   13.428      36.356
2015   11        3     3   9    4.5378   364.2   13.442      36.429
2015   11        3     3  16    4.5446   364.4   13.457      36.503
2015   11        3     3  23    4.5513   364.6   13.473      36.578
2015   11        3     3  30    4.5582   364.8   13.490      36.655
2015   11        3     3  37    4.5653   365.1   13.509      36.734
2015   11        3     3  45    4.5725   365.3   13.528      36.816
2015   11        3     3  52    4.5797   365.5   13.548      36.900
2015   11        3     3  59    4.5869   365.8   13.571      36.987
2015   11        3     4   6    4.5946   366.0   13.594      37.076
2015   11        3     4  13    4.6023   366.2   13.619      37.169
2015   11        3     4  20    4.6099   366.5   13.645      37.266
2015   11        3     4  27    4.6179   366.8   13.673      37.368
2015   11        3     4  34    4.6260   367.0   13.701      37.474
2015   11        3     4  42    4.6343   367.3   13.730      37.585
2015   11        3     4  49    4.6423   367.6   13.760      37.701
2015   11        3     4  56    4.6508   367.8   13.790      37.821
2015   11        3     5   3    4.6590   368.1   13.820      37.946
2015   11        3     5  10    4.6675   368.4   13.850      38.076
2015   11        3     5  17    4.6759   368.7   13.880      38.209
2015   11        3     5  24    4.6842   369.1   13.909      38.344
2015   11        3     5  31    4.6924   369.4   13.937      38.481
2015   11        3     5  39    4.7005   369.7   13.963      38.621
2015   11        3     5  46    4.7083   370.1   13.987      38.762
2015   11        3     5  53    4.7161   370.4   14.010      38.902
2015   11        3     6   0    4.7236   370.8   14.030      39.040
2015   11        3     6   7    4.7310   371.2   14.048      39.177
2015   11        3     6  14    4.7378   371.5   14.063      39.311
2015   11        3     6  21    4.7447   371.9   14.076      39.444
2015   11        3     6  28    4.7511   372.3   14.086      39.573
2015   11        3     6  35    4.7572   372.7   14.094      39.698
2015   11        3     6  43    4.7628   373.0   14.099      39.819
2015   11        3     6  50    4.7684   373.4   14.102      39.936
2015   11        3     6  57    4.7736   373.8   14.102      40.049
2015   11        3     7   4    4.7786   374.2   14.101      40.160
2015   11        3     7  11    4.7832   374.5   14.098      40.266
2015   11        3     7  18    4.7878   374.9   14.093      40.371
2015   11        3     7  25    4.7921   375.3   14.087      40.472
2015   11        3     7  32    4.7962   375.6   14.079      40.571
2015   11        3     7  39    4.8003   376.0   14.071      40.669
2015   11        3     7  47    4.8042   376.4   14.061      40.765
2015   11        3     7  54    4.8080   376.7   14.051      40.859
2015   11        3     8   1    4.8117   377.1   14.041      40.953
2015   11        3     8   8    4.8154   377.4   14.029      41.047
2015   11        3     8  15    4.8190   377.8   14.017      41.140
2015   11        3     8  22    4.8225   378.1   14.005      41.232
2015   11        3     8  29    4.8260   378.5   13.992      41.325
2015   11        3     8  36    4.8295   378.8   13.979      41.418
2015   11        3     8  43    4.8329   379.2   13.966      41.512
2015   11        3     8  51    4.8363   379.5   13.953      41.606
2015   11        3     8  58    4.8397   379.9   13.939      41.701
2015   11        3     9   5    4.8430   380.2   13.925      41.796
2015   11        3     9  12    4.8463   380.6   13.911      41.892
2015   11        3     9  19    4.8495   380.9   13.896      41.989
2015   11        3     9  26    4.8526   381.3   13.882      42.087
2015   11        3     9  33    4.8558   381.6   13.867      42.186
2015   11        3     9  40    4.8590   382.0   13.852      42.286
2015   11        3     9  48    4.8620   382.4   13.837      42.387
2015   11        3     9  55    4.8651   382.7   13.822      42.489
2015   11        3    10   2    4.8681   383.1   13.808      42.592
2015   11        3    10   9    4.8710   383.5   13.793      42.696
2015   11        3    10  16    4.8739   383.8   13.778      42.800
2015   11        3    10  23    4.8768   384.2   13.764      42.905
2015   11        3    10  30    4.8797   384.6   13.749      43.010
2015   11        3    10  37    4.8825   384.9   13.735      43.116
2015   11        3    10  45    4.8852   385.3   13.722      43.222
2015   11        3    10  52    4.8882   385.7   13.709      43.329
2015   11        3    10  59    4.8910   386.1   13.696      43.436
2015   11        3    11   6    4.8938   386.4   13.684      43.544
2015   11        3    11  13    4.8966   386.8   13.673      43.651
2015   11        3    11  20    4.8994   387.2   13.663      43.758
2015   11        3    11  27    4.9023   387.5   13.654      43.865
2015   11        3    11  35    4.9052   387.9   13.646      43.975
2015   11        3    11  42    4.9081   388.3   13.639      44.085
2015   11        3    11  49    4.9111   388.7   13.633      44.198
2015   11        3    11  56    4.9138   389.0   13.627      44.312
2015   11        3    12   3    4.9167   389.4   13.623      44.426
2015   11        3    12  10    4.9201   389.8   13.619      44.541
2015   11        3    12  17    4.9232   390.2   13.616      44.658
2015   11        3    12  24    4.9258   390.6   13.613      44.777
2015   11        3    12  31    4.9293   391.0   13.611      44.897
2015   11        3    12  39    4.9323   391.4   13.608      45.018
2015   11        3    12  46    4.9352   391.9   13.605      45.140
2015   11        3    12  53    4.9375   392.3   13.601      45.263
2015   11        3    13   0    4.9407   392.8   13.597      45.387
2015   11        3    13   7    4.9432   393.2   13.591      45.508
2015   11        3    13  14    4.9455   393.7   13.584      45.628
2015   11        3    13  21    4.9476   394.1   13.575      45.745
2015   11        3    13  28    4.9495   394.6   13.565      45.859
2015   11        3    13  36    4.9511   395.1   13.554      45.971
2015   11        3    13  43    4.9524   395.6   13.540      46.082
2015   11        3    13  50    4.9535   396.1   13.524      46.188
2015   11        3    13  57    4.9542   396.6   13.507      46.291
2015   11        3    14   4    4.9547   397.2   13.487      46.390
2015   11        3    14  11    4.9541   397.7   13.466      46.487
2015   11        3    14  18    4.9547   398.2   13.443      46.581
2015   11        3    14  25    4.9537   398.7   13.418      46.673
2015   11        3    14  32    4.9538   399.2   13.392      46.763
2015   11        3    14  39    4.9522   399.8   13.364      46.851
2015   11        3    14  47    4.9518   400.3   13.335      46.937
2015   11        3    14  54    4.9505   400.8   13.304      47.023
2015   11        3    15   1    4.9490   401.3   13.273      47.106
2015   11        3    15   8    4.9464   401.8   13.239      47.190
2015   11        3    15  15    4.9452   402.3   13.205      47.272
2015   11        3    15  22    4.9430   402.9   13.169      47.354
2015   11        3    15  29    4.9406   403.4   13.132      47.434
2015   11        3    15  36    4.9371   403.9   13.093      47.514
2015   11        3    15  43    4.9350   404.4   13.053      47.592
2015   11        3    15  51    4.9318   404.8   13.011      47.669
2015   11        3    15  58    4.9285   405.3   12.967      47.745
2015   11        3    16   5    4.9248   405.8   12.922      47.819
2015   11        3    16  12    4.9209   406.3   12.876      47.891
2015   11        3    16  19    4.9166   406.8   12.827      47.961
2015   11        3    16  26    4.9121   407.3   12.777      48.027
2015   11        3    16  33    4.9063   407.8   12.725      48.092
2015   11        3    16  40    4.9012   408.2   12.670      48.155
2015   11        3    16  48    4.8956   408.7   12.614      48.215
2015   11        3    16  55    4.8899   409.2   12.556      48.270
2015   11        3    17   2    4.8847   409.7   12.496      48.320
2015   11        3    17   9    4.8785   410.1   12.436      48.364
2015   11        3    17  16    4.8720   410.6   12.375      48.405
2015   11        3    17  23    4.8655   411.0   12.313      48.441
2015   11        3    17  30    4.8586   411.5   12.251      48.473
2015   11        3    17  37    4.8518   411.9   12.189      48.503
2015   11        3    17  45    4.8438   412.3   12.126      48.531
2015   11        3    17  52    4.8378   412.8   12.064      48.557
2015   11        3    17  59    4.8306   413.2   12.003      48.583
2015   11        3    18   6    4.8225   413.7   11.942      48.606
2015   11        3    18  13    4.8153   414.1   11.881      48.627
2015   11        3    18  20    4.8091   414.5   11.822      48.648
2015   11        3    18  27    4.8017   415.0   11.763      48.670
2015   11        3    18  34    4.7934   415.4   11.705      48.692
2015   11        3    18  42    4.7859   415.9   11.647      48.714
2015   11        3    18  49    4.7794   416.3   11.590      48.737
2015   11        3    18  56    4.7717   416.8   11.533      48.759
2015   11        3    19   3    4.7641   417.2   11.477      48.780
2015   11        3    19  10    4.7562   417.7   11.421      48.801
2015   11        3    19  17    4.7473   418.1   11.366      48.820
2015   11        3    19  24    4.7402   418.6   11.311      48.839
2015   11        3    19  31    4.7321   419.0   11.256      48.855
2015   11        3    19  39    4.7237   419.5   11.202      48.870
2015   11        3    19  46    4.7154   419.9   11.149      48.884
2015   11        3    19  53    4.7068   420.4   11.095      48.895
2015   11        3    20   0    4.6971   420.9   11.043      48.905
2015   11        3    20   7    4.6883   421.3   10.990      48.913
2015   11        3    20  14    4.6794   421.8   10.939      48.918
2015   11        3    20  21    4.6714   422.2   10.887      48.921
2015   11        3    20  28    4.6613   422.7   10.836      48.922
2015   11        3    20  36    4.6530   423.1   10.785      48.921
2015   11        3    20  43    4.6437   423.6   10.735      48.918
2015   11        3    20  50    4.6342   424.0   10.685      48.912
2015   11        3    20  57    4.6247   424.5   10.636      48.904
2015   11        3    21   4    4.6139   424.9   10.587      48.894
2015   11        3    21  11    4.6042   425.4   10.538      48.883
2015   11        3    21  18    4.5953   425.9   10.489      48.869
2015   11        3    21  25    4.5854   426.3   10.441      48.855
2015   11        3    21  32    4.5752   426.8   10.393      48.839
2015   11        3    21  39    4.5650   427.2   10.345      48.824
2015   11        3    21  47    4.5546   427.7   10.297      48.807
2015   11        3    21  54    4.5442   428.2   10.249      48.791
2015   11        3    22   1    4.5335   428.6   10.201      48.774
2015   11        3    22   8    4.5227   429.1   10.153      48.757
2015   11        3    22  15    4.5107   429.5   10.104      48.739
2015   11        3    22  22    4.5007   430.0   10.055      48.721
2015   11        3    22  29    4.4893   430.4   10.006      48.703
2015   11        3    22  36    4.4779   430.9    9.956      48.683
2015   11        3    22  43    4.4662   431.3    9.906      48.662
2015   11        3    22  51    4.4545   431.8    9.855      48.639
2015   11        3    22  58    4.4424   432.2    9.803      48.614
2015   11        3    23   5    4.4303   432.7    9.750      48.587
2015   11        3    23  12    4.4178   433.1    9.697      48.556
2015   11        3    23  19    4.4054   433.6    9.642      48.523
2015   11        3    23  26    4.3926   434.0    9.587      48.486
2015   11        3    23  33    4.3797   434.4    9.531      48.444
2015   11        3    23  40    4.3666   434.8    9.473      48.396
2015   11        3    23  47    4.3534   435.3    9.415      48.344
2015   11        3    23  55    4.3398   435.7    9.355      48.287
2015   11        4     0   2    4.3253   436.1    9.294      48.225
2015   11        4     0   9    4.3124   436.5    9.232      48.154
2015   11        4     0  16    4.2976   436.9    9.170      48.074
2015   11        4     0  23    4.2845   437.3    9.106      47.983
2015   11        4     0  30    4.2705   437.7    9.044      47.886
2015   11        4     0  37    4.2555   438.1    8.981      47.780
2015   11        4     0  44    4.2424   438.4    8.919      47.668
2015   11        4     0  52    4.2284   438.8    8.857      47.549
2015   11        4     0  59    4.2145   439.1    8.796      47.427
2015   11        4     1   6    4.2005   439.4    8.736      47.301
2015   11        4     1  13    4.1859   439.8    8.677      47.173
2015   11        4     1  20    4.1729   440.1    8.619      47.041
2015   11        4     1  27    4.1593   440.4    8.563      46.907
2015   11        4     1  34    4.1457   440.7    8.507      46.772
2015   11        4     1  41    4.1323   441.0    8.454      46.638
2015   11        4     1  49    4.1181   441.2    8.401      46.505
2015   11        4     1  56    4.1048   441.5    8.349      46.374
2015   11        4     2   3    4.0922   441.8    8.298      46.244
2015   11        4     2  10    4.0790   442.1    8.249      46.115
2015   11        4     2  17    4.0657   442.4    8.200      45.986
2015   11        4     2  24    4.0525   442.7    8.152      45.859
2015   11        4     2  31    4.0393   442.9    8.104      45.731
2015   11        4     2  38    4.0255   443.2    8.057      45.604
2015   11        4     2  46    4.0129   443.5    8.011      45.476
2015   11        4     2  53    3.9998   443.7    7.966      45.349
2015   11        4     3   0    3.9866   444.0    7.921      45.221
2015   11        4     3   7    3.9729   444.2    7.876      45.094
2015   11        4     3  14    3.9602   444.5    7.832      44.966
2015   11        4     3  21    3.9471   444.7    7.789      44.838
2015   11        4     3  28    3.9339   445.0    7.746      44.709
2015   11        4     3  35    3.9208   445.2    7.703      44.580
2015   11        4     3  42    3.9076   445.4    7.661      44.451
2015   11        4     3  50    3.8945   445.6    7.619      44.321
2015   11        4     3  57    3.8813   445.9    7.578      44.190
2015   11        4     4   4    3.8682   446.1    7.537      44.058
2015   11        4     4  11    3.8551   446.3    7.496      43.926
2015   11        4     4  18    3.8420   446.5    7.456      43.794
2015   11        4     4  25    3.8288   446.7    7.416      43.662
2015   11        4     4  32    3.8157   446.9    7.376      43.529
2015   11        4     4  39    3.8026   447.0    7.337      43.395
2015   11        4     4  46    3.7895   447.2    7.298      43.261
2015   11        4     4  54    3.7764   447.4    7.260      43.126
2015   11        4     5   1    3.7634   447.6    7.222      42.992
2015   11        4     5   8    3.7503   447.7    7.184      42.856
2015   11        4     5  15    3.7372   447.9    7.148      42.721
2015   11        4     5  22    3.7242   448.0    7.111      42.585
2015   11        4     5  29    3.7112   448.1    7.075      42.450
2015   11        4     5  36    3.6982   448.3    7.040      42.313
2015   11        4     5  43    3.6853   448.4    7.005      42.177
2015   11        4     5  50    3.6724   448.5    6.970      42.041
2015   11        4     5  57    3.6596   448.6    6.936      41.905
2015   11        4     6   5    3.6468   448.7    6.903      41.769
2015   11        4     6  12    3.6341   448.8    6.870      41.633
2015   11        4     6  19    3.6214   448.9    6.838      41.498
2015   11        4     6  26    3.6089   449.0    6.807      41.363
2015   11        4     6  33    3.5966   449.0    6.776      41.228
2015   11        4     6  40    3.5842   449.1    6.746      41.095
2015   11        4     6  47    3.5718   449.2    6.716      40.962
2015   11        4     6  54    3.5597   449.2    6.687      40.830
2015   11        4     7   1    3.5477   449.3    6.659      40.699
2015   11        4     7   9    3.5359   449.3    6.631      40.569
2015   11        4     7  16    3.5242   449.3    6.604      40.439
2015   11        4     7  23    3.5126   449.4    6.578      40.312
2015   11        4     7  30    3.5012   449.4    6.552      40.185
2015   11        4     7  37    3.4899   449.4    6.527      40.061
2015   11        4     7  44    3.4792   449.4    6.503      39.937
2015   11        4     7  51    3.4679   449.4    6.479      39.816
2015   11        4     7  58    3.4575   449.4    6.456      39.695
2015   11        4     8   6    3.4468   449.4    6.434      39.577
2015   11        4     8  13    3.4359   449.4    6.412      39.460
2015   11        4     8  20    3.4255   449.4    6.391      39.345
2015   11        4     8  27    3.4153   449.4    6.370      39.231
2015   11        4     8  34    3.4052   449.3    6.350      39.120
2015   11        4     8  41    3.3952   449.3    6.331      39.010
2015   11        4     8  48    3.3853   449.3    6.312      38.902
2015   11        4     8  55    3.3756   449.2    6.293      38.796
2015   11        4     9   3    3.3660   449.2    6.275      38.692
2015   11        4     9  10    3.3565   449.2    6.257      38.589
2015   11        4     9  17    3.3470   449.1    6.240      38.488
2015   11        4     9  24    3.3377   449.1    6.223      38.388
2015   11        4     9  31    3.3285   449.1    6.206      38.290
2015   11        4     9  38    3.3194   449.0    6.190      38.193
2015   11        4     9  45    3.3103   449.0    6.173      38.098
2015   11        4     9  52    3.3013   449.0    6.157      38.003
2015   11        4    10   0    3.2924   448.9    6.141      37.910
2015   11        4    10   7    3.2836   448.9    6.125      37.817
2015   11        4    10  14    3.2748   448.8    6.110      37.724
2015   11        4    10  21    3.2660   448.8    6.094      37.633
2015   11        4    10  28    3.2573   448.8    6.079      37.541
2015   11        4    10  35    3.2493   448.7    6.064      37.449
2015   11        4    10  42    3.2407   448.7    6.048      37.358
2015   11        4    10  49    3.2322   448.6    6.033      37.267
2015   11        4    10  56    3.2237   448.6    6.018      37.175
2015   11        4    11   4    3.2147   448.5    6.004      37.083
2015   11        4    11  11    3.2064   448.5    5.989      36.991
2015   11        4    11  18    3.1981   448.4    5.974      36.899
2015   11        4    11  25    3.1898   448.3    5.960      36.807
2015   11        4    11  32    3.1816   448.3    5.945      36.715
2015   11        4    11  39    3.1734   448.2    5.931      36.623
2015   11        4    11  46    3.1652   448.1    5.916      36.532
2015   11        4    11  53    3.1572   448.1    5.902      36.441
2015   11        4    12   0    3.1496   448.0    5.888      36.351
2015   11        4    12   8    3.1417   447.9    5.875      36.261
2015   11        4    12  15    3.1332   447.8    5.861      36.172
2015   11        4    12  22    3.1254   447.7    5.847      36.084
2015   11        4    12  29    3.1181   447.7    5.834      35.997
2015   11        4    12  36    3.1098   447.6    5.821      35.911
2015   11        4    12  43    3.1021   447.5    5.808      35.827
2015   11        4    12  50    3.0949   447.4    5.795      35.743
2015   11        4    12  57    3.0873   447.3    5.782      35.660
2015   11        4    13   4    3.0798   447.3    5.769      35.578
2015   11        4    13  11    3.0718   447.2    5.756      35.497
2015   11        4    13  19    3.0648   447.1    5.744      35.417
2015   11        4    13  26    3.0574   447.0    5.731      35.337
2015   11        4    13  33    3.0495   446.9    5.719      35.259
2015   11        4    13  40    3.0422   446.8    5.706      35.180
2015   11        4    13  47    3.0350   446.7    5.694      35.102
2015   11        4    13  54    3.0277   446.7    5.682      35.024
2015   11        4    14   1    3.0211   446.6    5.669      34.947
2015   11        4    14   8    3.0139   446.5    5.657      34.870
2015   11        4    14  15    3.0064   446.4    5.645      34.793
2015   11        4    14  23    2.9993   446.3    5.633      34.717
2015   11        4    14  30    2.9924   446.2    5.621      34.641
2015   11        4    14  37    2.9854   446.1    5.609      34.564
2015   11        4    14  44    2.9785   446.0    5.597      34.489
2015   11        4    14  51    2.9722   445.9    5.586      34.413
2015   11        4    14  58    2.9649   445.8    5.574      34.337
2015   11        4    15   5    2.9581   445.7    5.562      34.262
2015   11        4    15  12    2.9519   445.6    5.551      34.187
2015   11        4    15  19    2.9447   445.5    5.539      34.111
2015   11        4    15  27    2.9381   445.4    5.528      34.037
2015   11        4    15  34    2.9320   445.3    5.517      33.962
2015   11        4    15  41    2.9255   445.2    5.506      33.888
2015   11        4    15  48    2.9190   445.1    5.495      33.813
2015   11        4    15  55    2.9125   444.9    5.484      33.739
2015   11        4    16   2    2.9061   444.8    5.474      33.665
2015   11        4    16   9    2.8993   444.7    5.463      33.592
2015   11        4    16  16    2.8934   444.6    5.453      33.518
2015   11        4    16  24    2.8867   444.5    5.443      33.446
2015   11        4    16  31    2.8809   444.4    5.432      33.373
2015   11        4    16  38    2.8743   444.2    5.422      33.301
2015   11        4    16  45    2.8685   444.1    5.413      33.229
2015   11        4    16  52    2.8624   444.0    5.403      33.158
2015   11        4    16  59    2.8563   443.9    5.393      33.087
2015   11        4    17   6    2.8499   443.7    5.384      33.016
2015   11        4    17  14    2.8439   443.6    5.375      32.946
2015   11        4    17  21    2.8383   443.5    5.366      32.876
2015   11        4    17  28    2.8324   443.3    5.357      32.807
2015   11        4    17  35    2.8262   443.2    5.348      32.738
2015   11        4    17  42    2.8203   443.0    5.340      32.669
2015   11        4    17  49    2.8146   442.9    5.331      32.600
2015   11        4    17  56    2.8092   442.7    5.323      32.532
2015   11        4    18   3    2.8035   442.6    5.315      32.464
2015   11        4    18  10    2.7975   442.4    5.308      32.396
2015   11        4    18  18    2.7919   442.3    5.300      32.328
2015   11        4    18  25    2.7863   442.1    5.293      32.260
2015   11        4    18  32    2.7808   441.9    5.286      32.193
2015   11        4    18  39    2.7753   441.7    5.279      32.126
2015   11        4    18  46    2.7699   441.6    5.272      32.059
2015   11        4    18  53    2.7645   441.4    5.266      31.992
2015   11        4    19   0    2.7592   441.2    5.259      31.926
2015   11        4    19   7    2.7539   441.0    5.253      31.860
2015   11        4    19  14    2.7487   440.8    5.247      31.796
2015   11        4    19  21    2.7438   440.7    5.241      31.731
2015   11        4    19  29    2.7384   440.5    5.236      31.667
2015   11        4    19  36    2.7333   440.3    5.230      31.604
2015   11        4    19  43    2.7282   440.1    5.224      31.543
2015   11        4    19  50    2.7232   439.9    5.219      31.482
2015   11        4    19  57    2.7185   439.7    5.214      31.422
2015   11        4    20   4    2.7136   439.6    5.208      31.363
2015   11        4    20  11    2.7084   439.4    5.203      31.305
2015   11        4    20  18    2.7036   439.2    5.197      31.248
2015   11        4    20  25    2.6987   439.0    5.192      31.191
2015   11        4    20  32    2.6940   438.8    5.187      31.135
2015   11        4    20  39    2.6895   438.7    5.181      31.080
2015   11        4    20  47    2.6845   438.5    5.176      31.024
2015   11        4    20  54    2.6798   438.3    5.170      30.970
2015   11        4    21   1    2.6752   438.1    5.165      30.915
2015   11        4    21   8    2.6706   437.9    5.160      30.860
2015   11        4    21  15    2.6660   437.8    5.154      30.805
2015   11        4    21  22    2.6614   437.6    5.148      30.752
2015   11        4    21  29    2.6569   437.4    5.143      30.697
2015   11        4    21  36    2.6526   437.2    5.137      30.643
2015   11        4    21  43    2.6481   437.0    5.132      30.589
2015   11        4    21  51    2.6434   436.8    5.126      30.535
2015   11        4    21  58    2.6389   436.6    5.120      30.480
2015   11        4    22   5    2.6345   436.5    5.115      30.426
2015   11        4    22  12    2.6301   436.3    5.109      30.371
2015   11        4    22  19    2.6257   436.1    5.104      30.316
2015   11        4    22  26    2.6214   435.9    5.098      30.262
2015   11        4    22  33    2.6170   435.7    5.093      30.207
2015   11        4    22  40    2.6127   435.5    5.087      30.152
2015   11        4    22  48    2.6084   435.3    5.082      30.098
2015   11        4    22  55    2.6041   435.1    5.076      30.043
2015   11        4    23   2    2.6002   434.9    5.071      29.988
2015   11        4    23   9    2.5959   434.7    5.066      29.933
2015   11        4    23  16    2.5915   434.5    5.061      29.878
2015   11        4    23  23    2.5876   434.3    5.055      29.823
2015   11        4    23  30    2.5832   434.1    5.050      29.769
2015   11        4    23  37    2.5791   433.9    5.045      29.714
2015   11        4    23  45    2.5750   433.7    5.040      29.660
2015   11        4    23  52    2.5709   433.5    5.036      29.606
2015   11        4    23  59    2.5671   433.3    5.031      29.552
2015   11        5     0   6    2.5629   433.1    5.026      29.498
2015   11        5     0  13    2.5589   432.9    5.022      29.444
2015   11        5     0  20    2.5553   432.7    5.017      29.391
2015   11        5     0  27    2.5511   432.5    5.013      29.338
2015   11        5     0  34    2.5472   432.3    5.008      29.285
2015   11        5     0  42    2.5434   432.1    5.004      29.232
2015   11        5     0  49    2.5396   431.9    5.000      29.180
2015   11        5     0  56    2.5358   431.7    4.996      29.128
2015   11        5     1   3    2.5323   431.5    4.992      29.076
2015   11        5     1  10    2.5286   431.3    4.989      29.024
2015   11        5     1  17    2.5247   431.0    4.985      28.973
2015   11        5     1  24    2.5211   430.8    4.981      28.922
2015   11        5     1  31    2.5175   430.6    4.978      28.871
2015   11        5     1  38    2.5139   430.4    4.974      28.820
2015   11        5     1  46    2.5103   430.2    4.971      28.770
2015   11        5     1  53    2.5068   430.0    4.968      28.720
2015   11        5     2   0    2.5034   429.7    4.964      28.670
2015   11        5     2   7    2.5002   429.5    4.961      28.620
2015   11        5     2  14    2.4965   429.3    4.958      28.570
2015   11        5     2  21    2.4932   429.1    4.955      28.521
2015   11        5     2  28    2.4898   428.9    4.952      28.471
2015   11        5     2  35    2.4865   428.6    4.949      28.422
2015   11        5     2  42    2.4835   428.4    4.947      28.373
2015   11        5     2  49    2.4802   428.2    4.944      28.324
2015   11        5     2  57    2.4770   427.9    4.941      28.275
2015   11        5     3   4    2.4739   427.7    4.939      28.226
2015   11        5     3  11    2.4707   427.5    4.936      28.178
2015   11        5     3  18    2.4676   427.3    4.933      28.129
2015   11        5     3  25    2.4645   427.0    4.931      28.081
2015   11        5     3  32    2.4613   426.8    4.928      28.033
2015   11        5     3  39    2.4585   426.6    4.926      27.985
2015   11        5     3  46    2.4555   426.3    4.924      27.938
2015   11        5     3  53    2.4525   426.1    4.921      27.890
2015   11        5     4   0    2.4496   425.9    4.919      27.843
2015   11        5     4   7    2.4467   425.6    4.917      27.795
2015   11        5     4  15    2.4438   425.4    4.915      27.748
2015   11        5     4  22    2.4409   425.2    4.912      27.701
2015   11        5     4  29    2.4381   424.9    4.910      27.654
2015   11        5     4  36    2.4352   424.7    4.908      27.608
2015   11        5     4  43    2.4325   424.5    4.906      27.561
2015   11        5     4  50    2.4297   424.2    4.904      27.515
2015   11        5     4  57    2.4269   424.0    4.902      27.469
2015   11        5     5   4    2.4242   423.8    4.900      27.422
2015   11        5     5  11    2.4213   423.5    4.898      27.377
2015   11        5     5  19    2.4187   423.3    4.896      27.331
2015   11        5     5  26    2.4160   423.0    4.894      27.285
2015   11        5     5  33    2.4131   422.8    4.893      27.239
2015   11        5     5  40    2.4105   422.6    4.891      27.194
2015   11        5     5  47    2.4078   422.3    4.889      27.149
2015   11        5     5  54    2.4052   422.1    4.887      27.104
2015   11        5     6   1    2.4027   421.8    4.885      27.059
2015   11        5     6   8    2.4001   421.6    4.884      27.014
2015   11        5     6  15    2.3975   421.4    4.882      26.970
2015   11        5     6  23    2.3948   421.1    4.880      26.925
2015   11        5     6  30    2.3924   420.9    4.879      26.881
2015   11        5     6  37    2.3898   420.6    4.877      26.837
2015   11        5     6  44    2.3873   420.4    4.876      26.794
2015   11        5     6  51    2.3849   420.1    4.874      26.750
2015   11        5     6  58    2.3823   419.9    4.873      26.707
2015   11        5     7   5    2.3799   419.6    4.871      26.664
2015   11        5     7  12    2.3777   419.4    4.870      26.621
2015   11        5     7  20    2.3753   419.2    4.869      26.578
2015   11        5     7  27    2.3729   418.9    4.867      26.536
2015   11        5     7  34    2.3706   418.7    4.866      26.494
2015   11        5     7  41    2.3683   418.4    4.865      26.452
2015   11        5     7  48    2.3660   418.2    4.864      26.410
2015   11        5     7  55    2.3638   417.9    4.863      26.368
2015   11        5     8   2    2.3615   417.7    4.861      26.327
2015   11        5     8   9    2.3593   417.4    4.860      26.285
2015   11        5     8  17    2.3571   417.2    4.859      26.244
2015   11        5     8  24    2.3550   416.9    4.858      26.203
2015   11        5     8  31    2.3527   416.7    4.857      26.162
2015   11        5     8  38    2.3507   416.4    4.856      26.121
2015   11        5     8  45    2.3485   416.2    4.855      26.080
2015   11        5     8  52    2.3464   416.0    4.854      26.039
2015   11        5     8  59    2.3445   415.7    4.853      25.998
2015   11        5     9   6    2.3425   415.5    4.852      25.957
2015   11        5     9  13    2.3404   415.2    4.852      25.916
2015   11        5     9  21    2.3385   415.0    4.851      25.876
2015   11        5     9  28    2.3364   414.7    4.850      25.835
2015   11        5     9  35    2.3346   414.5    4.849      25.794
2015   11        5     9  42    2.3325   414.2    4.848      25.754
2015   11        5     9  49    2.3306   414.0    4.848      25.713
2015   11        5     9  56    2.3287   413.7    4.847      25.673
2015   11        5    10   3    2.3268   413.5    4.846      25.633
2015   11        5    10  10    2.3250   413.2    4.846      25.593
2015   11        5    10  17    2.3231   413.0    4.845      25.552
2015   11        5    10  24    2.3213   412.8    4.844      25.512
2015   11        5    10  31    2.3196   412.5    4.844      25.472
2015   11        5    10  39    2.3176   412.3    4.843      25.432
2015   11        5    10  46    2.3158   412.0    4.843      25.392
2015   11        5    10  53    2.3142   411.8    4.842      25.353
2015   11        5    11   0    2.3124   411.5    4.842      25.313
2015   11        5    11   7    2.3105   411.3    4.842      25.273
2015   11        5    11  14    2.3087   411.0    4.841      25.233
2015   11        5    11  21    2.3071   410.8    4.841      25.194
2015   11        5    11  28    2.3053   410.5    4.841      25.154
2015   11        5    11  35    2.3035   410.3    4.840      25.115
2015   11        5    11  42    2.3018   410.1    4.840      25.076
2015   11        5    11  49    2.3002   409.8    4.840      25.037
2015   11        5    11  57    2.2984   409.6    4.840      24.998
2015   11        5    12   4    2.2967   409.3    4.840      24.959
2015   11        5    12  11    2.2952   409.1    4.840      24.920
2015   11        5    12  18    2.2935   408.8    4.839      24.881
2015   11        5    12  25    2.2917   408.6    4.839      24.843
2015   11        5    12  32    2.2901   408.3    4.839      24.804
2015   11        5    12  39    2.2886   408.1    4.839      24.766
2015   11        5    12  46    2.2869   407.8    4.839      24.728
2015   11        5    12  53    2.2853   407.6    4.840      24.689
2015   11        5    13   1    2.2837   407.3    4.840      24.652
2015   11        5    13   8    2.2821   407.1    4.840      24.614
2015   11        5    13  15    2.2807   406.8    4.840      24.576
2015   11        5    13  22    2.2791   406.6    4.840      24.539
2015   11        5    13  29    2.2776   406.3    4.840      24.502
2015   11        5    13  36    2.2759   406.1    4.841      24.465
2015   11        5    13  43    2.2744   405.8    4.841      24.428
2015   11        5    13  50    2.2729   405.6    4.841      24.391
2015   11        5    13  58    2.2714   405.3    4.842      24.355
2015   11        5    14   5    2.2700   405.1    4.842      24.319
2015   11        5    14  12    2.2685   404.9    4.842      24.282
2015   11        5    14  19    2.2670   404.6    4.843      24.246
2015   11        5    14  26    2.2656   404.4    4.843      24.210
2015   11        5    14  33    2.2643   404.1    4.844      24.175
2015   11        5    14  40    2.2628   403.9    4.844      24.139
2015   11        5    14  47    2.2614   403.6    4.845      24.103
2015   11        5    14  55    2.2600   403.4    4.845      24.068
2015   11        5    15   2    2.2586   403.1    4.846      24.032
2015   11        5    15   9    2.2572   402.9    4.846      23.997
2015   11        5    15  16    2.2559   402.6    4.847      23.961
2015   11        5    15  23    2.2545   402.4    4.847      23.926
2015   11        5    15  30    2.2531   402.1    4.848      23.891
2015   11        5    15  37    2.2518   401.9    4.848      23.856
2015   11        5    15  44    2.2505   401.6    4.849      23.820
2015   11        5    15  51    2.2492   401.4    4.849      23.785
2015   11        5    15  59    2.2479   401.1    4.850      23.750
2015   11        5    16   6    2.2466   400.9    4.851      23.715
2015   11        5    16  13    2.2453   400.6    4.851      23.680
2015   11        5    16  20    2.2440   400.4    4.852      23.646
2015   11        5    16  27    2.2427   400.1    4.853      23.611
2015   11        5    16  34    2.2414   399.9    4.853      23.577
2015   11        5    16  41    2.2402   399.6    4.854      23.542
2015   11        5    16  48    2.2389   399.4    4.855      23.508
2015   11        5    16  55    2.2377   399.1    4.856      23.474
2015   11        5    17   2    2.2365   398.9    4.856      23.440
2015   11        5    17  10    2.2352   398.6    4.857      23.406
2015   11        5    17  17    2.2340   398.4    4.858      23.372
2015   11        5    17  24    2.2328   398.1    4.859      23.338
2015   11        5    17  31    2.2316   397.9    4.860      23.305
2015   11        5    17  38    2.2305   397.6    4.861      23.272
2015   11        5    17  45    2.2293   397.4    4.863      23.239
2015   11        5    17  52    2.2281   397.1    4.864      23.206
2015   11        5    17  59    2.2269   396.8    4.865      23.173
2015   11        5    18   6    2.2258   396.6    4.866      23.140
2015   11        5    18  13    2.2247   396.3    4.867      23.107
2015   11        5    18  20    2.2235   396.1    4.869      23.075
2015   11        5    18  28    2.2224   395.8    4.870      23.043
2015   11        5    18  35    2.2213   395.6    4.871      23.010
2015   11        5    18  42    2.2201   395.3    4.873      22.978
2015   11        5    18  49    2.2191   395.1    4.874      22.946
2015   11        5    18  56    2.2180   394.8    4.876      22.914
2015   11        5    19   3    2.2169   394.6    4.877      22.882
2015   11        5    19  10    2.2158   394.3    4.879      22.850
2015   11        5    19  17    2.2147   394.0    4.880      22.818
2015   11        5    19  24    2.2137   393.8    4.882      22.787
2015   11        5    19  31    2.2126   393.5    4.883      22.755
2015   11        5    19  39    2.2116   393.3    4.884      22.723
2015   11        5    19  46    2.2106   393.0    4.886      22.692
2015   11        5    19  53    2.2095   392.7    4.887      22.660
2015   11        5    20   0    2.2085   392.5    4.889      22.628
2015   11        5    20   7    2.2075   392.2    4.890      22.597
2015   11        5    20  14    2.2065   392.0    4.892      22.565
2015   11        5    20  21    2.2055   391.7    4.893      22.533
2015   11        5    20  28    2.2046   391.4    4.895      22.501
2015   11        5    20  35    2.2036   391.2    4.896      22.470
2015   11        5    20  43    2.2026   390.9    4.897      22.438
2015   11        5    20  50    2.2017   390.7    4.899      22.406
2015   11        5    20  57    2.2008   390.4    4.900      22.374
2015   11        5    21   4    2.1998   390.1    4.901      22.342
2015   11        5    21  11    2.1989   389.9    4.903      22.310
2015   11        5    21  18    2.1980   389.6    4.904      22.278
2015   11        5    21  25    2.1972   389.4    4.905      22.246
2015   11        5    21  32    2.1962   389.1    4.907      22.214
2015   11        5    21  40    2.1954   388.8    4.908      22.182
2015   11        5    21  47    2.1945   388.6    4.909      22.150
2015   11        5    21  54    2.1937   388.3    4.910      22.118
2015   11        5    22   1    2.1928   388.0    4.911      22.086
2015   11        5    22   8    2.1919   387.8    4.913      22.053
2015   11        5    22  15    2.1911   387.5    4.914      22.021
2015   11        5    22  22    2.1903   387.3    4.915      21.989
2015   11        5    22  29    2.1895   387.0    4.916      21.957
2015   11        5    22  37    2.1887   386.7    4.918      21.925
2015   11        5    22  44    2.1879   386.5    4.919      21.893
2015   11        5    22  51    2.1871   386.2    4.920      21.861
2015   11        5    22  58    2.1864   385.9    4.921      21.829
2015   11        5    23   5    2.1857   385.7    4.923      21.797
2015   11        5    23  12    2.1849   385.4    4.924      21.765
2015   11        5    23  19    2.1841   385.1    4.926      21.733
2015   11        5    23  26    2.1834   384.9    4.927      21.701
2015   11        5    23  33    2.1827   384.6    4.929      21.669
2015   11        5    23  40    2.1820   384.3    4.930      21.638
2015   11        5    23  48    2.1814   384.1    4.932      21.606
2015   11        5    23  55    2.1807   383.8    4.934      21.575
2015   11        6     0   2    2.1801   383.5    4.935      21.544
2015   11        6     0   9    2.1795   383.3    4.937      21.513
2015   11        6     0  16    2.1789   383.0    4.939      21.483
2015   11        6     0  23    2.1783   382.7    4.942      21.453
2015   11        6     0  30    2.1777   382.4    4.944      21.422
2015   11        6     0  37    2.1772   382.2    4.946      21.393
2015   11        6     0  44    2.1767   381.9    4.949      21.363
2015   11        6     0  51    2.1763   381.6    4.952      21.334
2015   11        6     0  58    2.1759   381.3    4.955      21.306
2015   11        6     1   6    2.1755   381.1    4.958      21.277
2015   11        6     1  13    2.1751   380.8    4.961      21.250
2015   11        6     1  20    2.1748   380.5    4.965      21.222
2015   11        6     1  27    2.1745   380.3    4.968      21.195
2015   11        6     1  34    2.1742   380.0    4.972      21.169
2015   11        6     1  41    2.1740   379.7    4.976      21.142
2015   11        6     1  48    2.1738   379.4    4.981      21.117
2015   11        6     1  55    2.1736   379.2    4.985      21.091
2015   11        6     2   2    2.1735   378.9    4.990      21.066
2015   11        6     2   9    2.1734   378.6    4.995      21.042
2015   11        6     2  16    2.1734   378.3    5.000      21.018
2015   11        6     2  24    2.1733   378.1    5.005      20.994
2015   11        6     2  31    2.1733   377.8    5.010      20.971
2015   11        6     2  38    2.1734   377.5    5.016      20.948
2015   11        6     2  45    2.1734   377.2    5.022      20.925
2015   11        6     2  52    2.1736   377.0    5.028      20.903
2015   11        6     2  59    2.1737   376.7    5.034      20.881
2015   11        6     3   6    2.1739   376.4    5.040      20.859
2015   11        6     3  13    2.1741   376.1    5.047      20.837
2015   11        6     3  20    2.1743   375.9    5.053      20.816
2015   11        6     3  27    2.1745   375.6    5.060      20.795
2015   11        6     3  35    2.1748   375.3    5.067      20.774
2015   11        6     3  42    2.1752   375.0    5.074      20.754
2015   11        6     3  49    2.1755   374.7    5.081      20.733
2015   11        6     3  56    2.1759   374.5    5.088      20.714
2015   11        6     4   3    2.1763   374.2    5.096      20.694
2015   11        6     4  10    2.1767   373.9    5.103      20.675
2015   11        6     4  17    2.1772   373.6    5.111      20.655
2015   11        6     4  24    2.1778   373.3    5.119      20.637
2015   11        6     4  32    2.1783   373.1    5.127      20.618
2015   11        6     4  39    2.1788   372.8    5.135      20.600
2015   11        6     4  46    2.1796   372.5    5.143      20.582
2015   11        6     4  53    2.1802   372.2    5.152      20.564
2015   11        6     5   0    2.1808   371.9    5.160      20.546
2015   11        6     5   7    2.1815   371.7    5.169      20.529
2015   11        6     5  14    2.1822   371.4    5.178      20.512
2015   11        6     5  21    2.1830   371.1    5.186      20.495
2015   11        6     5  29    2.1838   370.8    5.195      20.479
2015   11        6     5  36    2.1847   370.5    5.204      20.462
2015   11        6     5  43    2.1855   370.3    5.214      20.446
2015   11        6     5  50    2.1864   370.0    5.223      20.430
2015   11        6     5  57    2.1873   369.7    5.232      20.414
2015   11        6     6   4    2.1883   369.4    5.242      20.399
2015   11        6     6  11    2.1894   369.2    5.252      20.383
2015   11        6     6  18    2.1905   368.9    5.261      20.368
2015   11        6     6  25    2.1914   368.6    5.271      20.353
2015   11        6     6  33    2.1925   368.3    5.281      20.339
2015   11        6     6  40    2.1938   368.1    5.291      20.324
2015   11        6     6  47    2.1948   367.8    5.302      20.310
2015   11        6     6  54    2.1961   367.5    5.312      20.296
2015   11        6     7   1    2.1973   367.2    5.323      20.282
2015   11        6     7   8    2.1988   367.0    5.333      20.269
2015   11        6     7  15    2.2001   366.7    5.344      20.256
2015   11        6     7  22    2.2013   366.4    5.355      20.243
2015   11        6     7  29    2.2027   366.2    5.366      20.231
2015   11        6     7  36    2.2042   365.9    5.377      20.219
2015   11        6     7  44    2.2057   365.6    5.389      20.207
2015   11        6     7  51    2.2073   365.4    5.400      20.195
2015   11        6     7  58    2.2090   365.1    5.412      20.184
2015   11        6     8   5    2.2105   364.8    5.424      20.174
2015   11        6     8  12    2.2121   364.6    5.436      20.164
2015   11        6     8  19    2.2141   364.3    5.448      20.154
2015   11        6     8  26    2.2158   364.0    5.460      20.144
2015   11        6     8  33    2.2174   363.8    5.473      20.135
2015   11        6     8  40    2.2193   363.5    5.485      20.127
2015   11        6     8  47    2.2212   363.3    5.498      20.119
2015   11        6     8  54    2.2231   363.0    5.511      20.111
2015   11        6     9   1    2.2254   362.8    5.525      20.104
2015   11        6     9   8    2.2274   362.5    5.538      20.097
2015   11        6     9  16    2.2295   362.3    5.552      20.091
2015   11        6     9  23    2.2314   362.0    5.565      20.085
2015   11        6     9  30    2.2336   361.8    5.579      20.080
2015   11        6     9  37    2.2359   361.5    5.594      20.075
2015   11        6     9  44    2.2382   361.3    5.608      20.071
2015   11        6     9  51    2.2405   361.0    5.622      20.067
2015   11        6     9  58    2.2432   360.8    5.637      20.064
2015   11        6    10   5    2.2454   360.6    5.652      20.061
2015   11        6    10  12    2.2481   360.3    5.667      20.059
2015   11        6    10  19    2.2507   360.1    5.682      20.058
2015   11        6    10  27    2.2531   359.8    5.698      20.056
2015   11        6    10  34    2.2557   359.6    5.714      20.055
2015   11        6    10  41    2.2584   359.4    5.729      20.055
2015   11        6    10  48    2.2612   359.2    5.745      20.055
2015   11        6    10  55    2.2642   358.9    5.762      20.056
2015   11        6    11   2    2.2668   358.7    5.778      20.057
2015   11        6    11   9    2.2700   358.5    5.794      20.059
2015   11        6    11  16    2.2726   358.3    5.811      20.061
2015   11        6    11  23    2.2757   358.0    5.828      20.064
2015   11        6    11  31    2.2789   357.8    5.845      20.067
2015   11        6    11  38    2.2818   357.6    5.862      20.070
2015   11        6    11  45    2.2851   357.4    5.879      20.074
2015   11        6    11  52    2.2881   357.2    5.896      20.078
2015   11        6    11  59    2.2915   357.0    5.914      20.083
2015   11        6    12   6    2.2948   356.7    5.932      20.088
2015   11        6    12  13    2.2981   356.5    5.949      20.093
2015   11        6    12  20    2.3015   356.3    5.967      20.099
2015   11        6    12  28    2.3046   356.1    5.985      20.105
2015   11        6    12  35    2.3081   355.9    6.003      20.112
2015   11        6    12  42    2.3115   355.7    6.022      20.119
2015   11        6    12  49    2.3151   355.5    6.040      20.126
2015   11        6    12  56    2.3186   355.3    6.058      20.134
2015   11        6    13   3    2.3222   355.1    6.077      20.142
2015   11        6    13  10    2.3259   354.9    6.096      20.151
2015   11        6    13  17    2.3296   354.7    6.115      20.159
2015   11        6    13  25    2.3335   354.6    6.133      20.169
2015   11        6    13  32    2.3370   354.4    6.152      20.178
2015   11        6    13  39    2.3408   354.2    6.171      20.188
2015   11        6    13  46    2.3446   354.0    6.191      20.198
2015   11        6    13  53    2.3487   353.8    6.210      20.208
2015   11        6    14   0    2.3523   353.6    6.229      20.219
2015   11        6    14   7    2.3562   353.4    6.249      20.230
2015   11        6    14  14    2.3602   353.3    6.268      20.242
2015   11        6    14  21    2.3644   353.1    6.288      20.253
2015   11        6    14  28    2.3683   352.9    6.307      20.265
2015   11        6    14  36    2.3723   352.7    6.327      20.277
2015   11        6    14  43    2.3761   352.6    6.347      20.290
2015   11        6    14  50    2.3801   352.4    6.367      20.303
2015   11        6    14  57    2.3842   352.2    6.387      20.316
2015   11        6    15   4    2.3883   352.1    6.407      20.329
2015   11        6    15  11    2.3926   351.9    6.427      20.342
2015   11        6    15  18    2.3964   351.7    6.447      20.356
2015   11        6    15  25    2.4006   351.6    6.467      20.370
2015   11        6    15  32    2.4047   351.4    6.487      20.384
2015   11        6    15  39    2.4091   351.2    6.508      20.398
2015   11        6    15  46    2.4130   351.1    6.528      20.413
2015   11        6    15  53    2.4172   350.9    6.548      20.427
2015   11        6    16   0    2.4213   350.8    6.569      20.442
2015   11        6    16   8    2.4255   350.6    6.589      20.457
2015   11        6    16  15    2.4297   350.5    6.610      20.472
2015   11        6    16  22    2.4340   350.3    6.630      20.487
2015   11        6    16  29    2.4382   350.2    6.651      20.503
2015   11        6    16  36    2.4425   350.0    6.671      20.518
2015   11        6    16  43    2.4469   349.9    6.692      20.534
2015   11        6    16  50    2.4512   349.7    6.712      20.549
2015   11        6    16  57    2.4552   349.6    6.733      20.565
2015   11        6    17   4    2.4595   349.5    6.754      20.581
2015   11        6    17  11    2.4638   349.3    6.774      20.597
2015   11        6    17  18    2.4684   349.2    6.795      20.613
2015   11        6    17  26    2.4725   349.0    6.816      20.629
2015   11        6    17  33    2.4770   348.9    6.837      20.645
2015   11        6    17  40    2.4811   348.8    6.857      20.661
2015   11        6    17  47    2.4857   348.6    6.878      20.677
2015   11        6    17  54    2.4899   348.5    6.899      20.694
2015   11        6    18   1    2.4945   348.4    6.920      20.710
2015   11        6    18   8    2.4988   348.2    6.941      20.727
2015   11        6    18  15    2.5031   348.1    6.962      20.744
2015   11        6    18  22    2.5075   348.0    6.983      20.761
2015   11        6    18  30    2.5120   347.8    7.004      20.777
2015   11        6    18  37    2.5166   347.7    7.025      20.794
2015   11        6    18  44    2.5211   347.6    7.046      20.812
2015   11        6    18  51    2.5255   347.5    7.067      20.829
2015   11        6    18  58    2.5299   347.4    7.088      20.846
2015   11        6    19   5    2.5344   347.2    7.109      20.864
2015   11        6    19  12    2.5389   347.1    7.130      20.882
2015   11        6    19  19    2.5435   347.0    7.152      20.900
2015   11        6    19  26    2.5482   346.9    7.173      20.918
2015   11        6    19  34    2.5526   346.8    7.194      20.936
2015   11        6    19  41    2.5573   346.7    7.216      20.955
2015   11        6    19  48    2.5619   346.5    7.237      20.974
2015   11        6    19  55    2.5665   346.4    7.259      20.993
2015   11        6    20   2    2.5711   346.3    7.281      21.012
2015   11        6    20   9    2.5758   346.2    7.302      21.032
2015   11        6    20  16    2.5804   346.1    7.324      21.052
2015   11        6    20  23    2.5851   346.0    7.345      21.072
2015   11        6    20  31    2.5898   345.9    7.367      21.093
2015   11        6    20  38    2.5946   345.8    7.389      21.114
2015   11        6    20  45    2.5993   345.7    7.410      21.135
2015   11        6    20  52    2.6040   345.6    7.432      21.157
2015   11        6    20  59    2.6086   345.5    7.453      21.179
2015   11        6    21   6    2.6133   345.4    7.475      21.201
2015   11        6    21  13    2.6179   345.3    7.497      21.223
2015   11        6    21  20    2.6227   345.2    7.518      21.246
2015   11        6    21  27    2.6274   345.2    7.540      21.269
2015   11        6    21  35    2.6321   345.1    7.561      21.292
2015   11        6    21  42    2.6368   345.0    7.583      21.315
2015   11        6    21  49    2.6416   344.9    7.604      21.339
2015   11        6    21  56    2.6463   344.8    7.626      21.363
2015   11        6    22   3    2.6510   344.7    7.647      21.386
2015   11        6    22  10    2.6557   344.6    7.668      21.410
2015   11        6    22  17    2.6604   344.6    7.690      21.434
2015   11        6    22  24    2.6652   344.5    7.711      21.459
2015   11        6    22  31    2.6699   344.4    7.732      21.483
2015   11        6    22  38    2.6747   344.3    7.753      21.508
2015   11        6    22  45    2.6793   344.2    7.774      21.532
2015   11        6    22  52    2.6840   344.2    7.795      21.557
2015   11        6    23   0    2.6888   344.1    7.816      21.582
2015   11        6    23   7    2.6934   344.0    7.837      21.607
2015   11        6    23  14    2.6981   343.9    7.857      21.632
2015   11        6    23  21    2.7027   343.9    7.878      21.657
2015   11        6    23  28    2.7074   343.8    7.898      21.682
2015   11        6    23  35    2.7121   343.7    7.919      21.707
2015   11        6    23  42    2.7168   343.7    7.939      21.732
2015   11        6    23  49    2.7214   343.6    7.959      21.757
2015   11        6    23  56    2.7260   343.5    7.979      21.782
2015   11        7     0   3    2.7307   343.4    7.999      21.807
2015   11        7     0  10    2.7354   343.4    8.019      21.831
2015   11        7     0  17    2.7400   343.3    8.039      21.856
2015   11        7     0  25    2.7447   343.2    8.058      21.881
2015   11        7     0  32    2.7492   343.2    8.078      21.906
2015   11        7     0  39    2.7540   343.1    8.097      21.930
2015   11        7     0  46    2.7585   343.0    8.117      21.955
2015   11        7     0  53    2.7633   343.0    8.136      21.980
2015   11        7     1   0    2.7679   342.9    8.155      22.004
2015   11        7     1   7    2.7726   342.8    8.174      22.029
2015   11        7     1  14    2.7772   342.8    8.193      22.053
2015   11        7     1  21    2.7819   342.7    8.213      22.078
2015   11        7     1  28    2.7865   342.7    8.232      22.102
2015   11        7     1  36    2.7912   342.6    8.251      22.127
2015   11        7     1  43    2.7959   342.5    8.269      22.151
2015   11        7     1  50    2.8006   342.5    8.288      22.176
2015   11        7     1  57    2.8053   342.4    8.307      22.200
2015   11        7     2   4    2.8100   342.3    8.326      22.225
2015   11        7     2  11    2.8148   342.3    8.345      22.249
2015   11        7     2  18    2.8195   342.2    8.364      22.274
2015   11        7     2  25    2.8243   342.2    8.383      22.299
2015   11        7     2  33    2.8290   342.1    8.402      22.324
2015   11        7     2  40    2.8338   342.1    8.420      22.349
2015   11        7     2  47    2.8385   342.0    8.439      22.374
2015   11        7     2  54    2.8433   342.0    8.458      22.399
2015   11        7     3   1    2.8481   341.9    8.477      22.424
2015   11        7     3   8    2.8528   341.8    8.496      22.450
2015   11        7     3  15    2.8576   341.8    8.515      22.476
2015   11        7     3  22    2.8624   341.7    8.534      22.502
2015   11        7     3  30    2.8671   341.7    8.553      22.528
2015   11        7     3  37    2.8719   341.7    8.571      22.554
2015   11        7     3  44    2.8766   341.6    8.590      22.581
2015   11        7     3  51    2.8814   341.6    8.609      22.608
2015   11        7     3  58    2.8861   341.5    8.627      22.635
2015   11        7     4   5    2.8908   341.5    8.645      22.663
2015   11        7     4  12    2.8956   341.4    8.664      22.691
2015   11        7     4  19    2.9003   341.4    8.682      22.718
2015   11        7     4  26    2.9050   341.4    8.700      22.747
2015   11        7     4  34    2.9096   341.3    8.718      22.775
2015   11        7     4  41    2.9143   341.3    8.736      22.803
2015   11        7     4  48    2.9190   341.2    8.754      22.832
2015   11        7     4  55    2.9236   341.2    8.772      22.860
2015   11        7     5   2    2.9283   341.2    8.790      22.889
2015   11        7     5   9    2.9329   341.1    8.807      22.918
2015   11        7     5  16    2.9375   341.1    8.825      22.947
2015   11        7     5  23    2.9422   341.1    8.842      22.975
2015   11        7     5  30    2.9468   341.0    8.859      23.004
2015   11        7     5  37    2.9514   341.0    8.876      23.033
2015   11        7     5  44    2.9560   341.0    8.893      23.062
2015   11        7     5  52    2.9605   340.9    8.910      23.090
2015   11        7     5  59    2.9651   340.9    8.927      23.119
2015   11        7     6   6    2.9696   340.9    8.944      23.148
2015   11        7     6  13    2.9742   340.8    8.960      23.176
2015   11        7     6  20    2.9787   340.8    8.977      23.205
2015   11        7     6  27    2.9832   340.8    8.993      23.233
2015   11        7     6  34    2.9877   340.7    9.009      23.262
2015   11        7     6  41    2.9922   340.7    9.025      23.290
2015   11        7     6  48    2.9968   340.7    9.041      23.318
2015   11        7     6  55    3.0012   340.6    9.057      23.346
2015   11        7     7   2    3.0057   340.6    9.073      23.374
2015   11        7     7   9    3.0102   340.6    9.089      23.402
2015   11        7     7  16    3.0147   340.6    9.105      23.430
2015   11        7     7  24    3.0192   340.5    9.121      23.458
2015   11        7     7  31    3.0238   340.5    9.136      23.485
2015   11        7     7  38    3.0282   340.5    9.152      23.513
2015   11        7     7  45    3.0327   340.4    9.167      23.540
2015   11        7     7  52    3.0372   340.4    9.183      23.568
2015   11        7     7  59    3.0417   340.4    9.199      23.595
2015   11        7     8   6    3.0463   340.4    9.214      23.622
2015   11        7     8  13    3.0508   340.3    9.230      23.650
2015   11        7     8  20    3.0553   340.3    9.245      23.677
2015   11        7     8  27    3.0598   340.3    9.261      23.704
2015   11        7     8  35    3.0644   340.3    9.276      23.731
2015   11        7     8  42    3.0689   340.3    9.292      23.758
2015   11        7     8  49    3.0734   340.2    9.307      23.785
2015   11        7     8  56    3.0780   340.2    9.323      23.813
2015   11        7     9   3    3.0825   340.2    9.338      23.840
2015   11        7     9  10    3.0871   340.2    9.354      23.868
2015   11        7     9  17    3.0916   340.2    9.369      23.896
2015   11        7     9  24    3.0961   340.1    9.385      23.924
2015   11        7     9  31    3.1006   340.1    9.400      23.952
2015   11        7     9  39    3.1052   340.1    9.416      23.980
2015   11        7     9  46    3.1097   340.1    9.431      24.009
2015   11        7     9  53    3.1142   340.1    9.446      24.038
2015   11        7    10   0    3.1187   340.1    9.461      24.066
2015   11        7    10   7    3.1232   340.1    9.477      24.095
2015   11        7    10  14    3.1276   340.1    9.492      24.124
2015   11        7    10  21    3.1321   340.0    9.507      24.153
2015   11        7    10  28    3.1365   340.0    9.522      24.181
2015   11        7    10  36    3.1410   340.0    9.536      24.210
2015   11        7    10  43    3.1453   340.0    9.551      24.239
2015   11        7    10  50    3.1498   340.0    9.566      24.268
2015   11        7    10  57    3.1542   340.0    9.581      24.296
2015   11        7    11   4    3.1585   340.0    9.595      24.325
2015   11        7    11  11    3.1629   340.0    9.609      24.354
2015   11        7    11  18    3.1673   340.0    9.624      24.382
2015   11        7    11  25    3.1716   340.0    9.638      24.410
2015   11        7    11  33    3.1759   340.0    9.652      24.439
2015   11        7    11  40    3.1801   340.0    9.666      24.467
2015   11        7    11  47    3.1845   340.0    9.680      24.495
2015   11        7    11  54    3.1888   340.0    9.694      24.523
2015   11        7    12   1    3.1930   340.0    9.708      24.551
2015   11        7    12   8    3.1973   340.0    9.722      24.579
2015   11        7    12  15    3.2016   340.0    9.736      24.607
2015   11        7    12  22    3.2058   340.0    9.749      24.634
2015   11        7    12  29    3.2101   340.0    9.763      24.662
2015   11        7    12  36    3.2143   340.0    9.776      24.689
2015   11        7    12  44    3.2186   340.0    9.790      24.716
2015   11        7    12  51    3.2229   340.0    9.803      24.744
2015   11        7    12  58    3.2271   340.0    9.817      24.771
2015   11        7    13   5    3.2314   340.0    9.830      24.797
2015   11        7    13  12    3.2357   340.0    9.844      24.824
2015   11        7    13  19    3.2399   340.0    9.857      24.851
2015   11        7    13  26    3.2442   340.0    9.870      24.877
2015   11        7    13  33    3.2485   340.0    9.883      24.903
2015   11        7    13  40    3.2528   340.0    9.897      24.930
2015   11        7    13  47    3.2571   340.0    9.910      24.956
2015   11        7    13  54    3.2614   340.0    9.923      24.982
2015   11        7    14   1    3.2657   340.0    9.936      25.008
2015   11        7    14   8    3.2700   340.0    9.950      25.035
2015   11        7    14  16    3.2744   340.0    9.963      25.061
2015   11        7    14  23    3.2787   340.0    9.976      25.088
2015   11        7    14  30    3.2830   340.0    9.989      25.115
2015   11        7    14  37    3.2873   340.0   10.002      25.142
2015   11        7    14  44    3.2917   340.0   10.015      25.169
2015   11        7    14  51    3.2961   340.0   10.028      25.196
2015   11        7    14  58    3.3004   340.0   10.041      25.224
2015   11        7    15   5    3.3047   340.0   10.054      25.251
2015   11        7    15  12    3.3091   340.1   10.067      25.278
2015   11        7    15  19    3.3134   340.1   10.080      25.306
2015   11        7    15  26    3.3178   340.1   10.092      25.334
2015   11        7    15  34    3.3221   340.1   10.105      25.362
2015   11        7    15  41    3.3264   340.1   10.118      25.390
2015   11        7    15  48    3.3307   340.1   10.131      25.418
2015   11        7    15  55    3.3350   340.1   10.143      25.447
2015   11        7    16   2    3.3393   340.2   10.156      25.475
2015   11        7    16   9    3.3436   340.2   10.168      25.503
2015   11        7    16  16    3.3478   340.2   10.181      25.532
2015   11        7    16  23    3.3520   340.2   10.193      25.561
2015   11        7    16  30    3.3562   340.2   10.205      25.589
2015   11        7    16  38    3.3603   340.2   10.217      25.618
2015   11        7    16  45    3.3645   340.3   10.229      25.647
2015   11        7    16  52    3.3685   340.3   10.240      25.676
2015   11        7    16  59    3.3727   340.3   10.252      25.705
2015   11        7    17   6    3.3767   340.3   10.263      25.734
2015   11        7    17  13    3.3808   340.4   10.275      25.763
2015   11        7    17  20    3.3847   340.4   10.286      25.792
2015   11        7    17  27    3.3887   340.4   10.296      25.820
2015   11        7    17  35    3.3926   340.4   10.307      25.848
2015   11        7    17  42    3.3966   340.4   10.318      25.877
2015   11        7    17  49    3.4004   340.5   10.328      25.904
2015   11        7    17  56    3.4043   340.5   10.338      25.932
2015   11        7    18   3    3.4081   340.5   10.348      25.959
2015   11        7    18  10    3.4120   340.5   10.358      25.986
2015   11        7    18  17    3.4158   340.6   10.368      26.013
2015   11        7    18  24    3.4195   340.6   10.377      26.040
2015   11        7    18  32    3.4232   340.6   10.387      26.066
2015   11        7    18  39    3.4271   340.6   10.396      26.092
2015   11        7    18  46    3.4307   340.7   10.406      26.117
2015   11        7    18  53    3.4345   340.7   10.415      26.142
2015   11        7    19   0    3.4382   340.7   10.424      26.168
2015   11        7    19   7    3.4420   340.7   10.433      26.192
2015   11        7    19  14    3.4457   340.8   10.442      26.217
2015   11        7    19  21    3.4493   340.8   10.451      26.241
2015   11        7    19  28    3.4531   340.8   10.460      26.266
2015   11        7    19  35    3.4567   340.9   10.469      26.290
2015   11        7    19  43    3.4604   340.9   10.478      26.313
2015   11        7    19  50    3.4641   340.9   10.487      26.337
2015   11        7    19  57    3.4678   340.9   10.496      26.360
2015   11        7    20   4    3.4715   341.0   10.505      26.384
2015   11        7    20  11    3.4752   341.0   10.514      26.407
2015   11        7    20  18    3.4789   341.0   10.523      26.430
2015   11        7    20  25    3.4827   341.0   10.532      26.453
2015   11        7    20  32    3.4864   341.1   10.541      26.476
2015   11        7    20  39    3.4902   341.1   10.550      26.499
2015   11        7    20  46    3.4940   341.1   10.560      26.522
2015   11        7    20  53    3.4977   341.2   10.569      26.544
2015   11        7    21   0    3.5015   341.2   10.578      26.567
2015   11        7    21   8    3.5053   341.2   10.588      26.590
2015   11        7    21  15    3.5093   341.3   10.598      26.613
2015   11        7    21  22    3.5131   341.3   10.607      26.636
2015   11        7    21  29    3.5171   341.3   10.617      26.659
2015   11        7    21  36    3.5209   341.4   10.627      26.683
2015   11        7    21  43    3.5249   341.4   10.638      26.707
2015   11        7    21  50    3.5288   341.4   10.648      26.731
2015   11        7    21  57    3.5327   341.5   10.658      26.756
2015   11        7    22   4    3.5368   341.5   10.669      26.781
2015   11        7    22  11    3.5407   341.5   10.679      26.807
2015   11        7    22  18    3.5447   341.6   10.690      26.833
2015   11        7    22  25    3.5486   341.6   10.700      26.859
2015   11        7    22  33    3.5526   341.7   10.711      26.886
2015   11        7    22  40    3.5565   341.7   10.721      26.913
2015   11        7    22  47    3.5604   341.8   10.732      26.941
2015   11        7    22  54    3.5644   341.8   10.742      26.969
2015   11        7    23   1    3.5682   341.8   10.752      26.997
2015   11        7    23   8    3.5720   341.9   10.762      27.026
2015   11        7    23  15    3.5758   341.9   10.772      27.056
2015   11        7    23  22    3.5795   342.0   10.782      27.085
2015   11        7    23  29    3.5832   342.1   10.791      27.115
2015   11        7    23  37    3.5869   342.1   10.800      27.145
2015   11        7    23  44    3.5905   342.2   10.809      27.174
2015   11        7    23  51    3.5940   342.2   10.817      27.203
2015   11        7    23  58    3.5975   342.3   10.826      27.232
2015   11        8     0   5    3.6009   342.3   10.833      27.261
2015   11        8     0  12    3.6044   342.4   10.841      27.290
2015   11        8     0  19    3.6078   342.4   10.848      27.318
2015   11        8     0  26    3.6111   342.5   10.855      27.346
2015   11        8     0  34    3.6144   342.5   10.862      27.373
2015   11        8     0  41    3.6176   342.6   10.869      27.400
2015   11        8     0  48    3.6208   342.6   10.875      27.427
2015   11        8     0  55    3.6240   342.7   10.881      27.453
2015   11        8     1   2    3.6271   342.7   10.887      27.478
2015   11        8     1   9    3.6303   342.8   10.892      27.503
2015   11        8     1  16    3.6334   342.8   10.897      27.527
2015   11        8     1  23    3.6365   342.9   10.903      27.552
2015   11        8     1  30    3.6395   342.9   10.908      27.575
2015   11        8     1  38    3.6426   343.0   10.913      27.598
2015   11        8     1  45    3.6456   343.1   10.917      27.621
2015   11        8     1  52    3.6486   343.1   10.922      27.644
2015   11        8     1  59    3.6516   343.2   10.926      27.666
2015   11        8     2   6    3.6545   343.2   10.931      27.688
2015   11        8     2  13    3.6575   343.3   10.935      27.709
2015   11        8     2  20    3.6604   343.3   10.939      27.730
2015   11        8     2  27    3.6633   343.4   10.943      27.751
2015   11        8     2  34    3.6663   343.4   10.947      27.771
2015   11        8     2  42    3.6691   343.5   10.951      27.791
2015   11        8     2  49    3.6721   343.5   10.955      27.811
2015   11        8     2  56    3.6749   343.6   10.959      27.831
2015   11        8     3   3    3.6779   343.6   10.963      27.851
2015   11        8     3  10    3.6807   343.7   10.967      27.870
2015   11        8     3  17    3.6836   343.7   10.970      27.889
2015   11        8     3  24    3.6866   343.8   10.974      27.908
2015   11        8     3  31    3.6894   343.8   10.978      27.927
2015   11        8     3  38    3.6923   343.9   10.982      27.945
2015   11        8     3  45    3.6952   343.9   10.985      27.964
2015   11        8     3  52    3.6981   344.0   10.989      27.982
2015   11        8     4   0    3.7010   344.0   10.993      28.000
2015   11        8     4   7    3.7040   344.1   10.997      28.018
2015   11        8     4  14    3.7069   344.1   11.001      28.037
2015   11        8     4  21    3.7098   344.2   11.005      28.055
2015   11        8     4  28    3.7128   344.2   11.009      28.073
2015   11        8     4  35    3.7157   344.3   11.014      28.091
2015   11        8     4  42    3.7187   344.3   11.018      28.109
2015   11        8     4  49    3.7217   344.4   11.023      28.127
2015   11        8     4  56    3.7248   344.4   11.027      28.145
2015   11        8     5   3    3.7278   344.5   11.032      28.163
2015   11        8     5  10    3.7309   344.5   11.037      28.182
2015   11        8     5  17    3.7340   344.6   11.043      28.200
2015   11        8     5  24    3.7370   344.7   11.048      28.219
2015   11        8     5  32    3.7402   344.7   11.054      28.239
2015   11        8     5  39    3.7433   344.8   11.059      28.259
2015   11        8     5  46    3.7463   344.8   11.065      28.279
2015   11        8     5  53    3.7496   344.9   11.072      28.299
2015   11        8     6   0    3.7526   344.9   11.078      28.320
2015   11        8     6   7    3.7559   345.0   11.084      28.341
2015   11        8     6  14    3.7590   345.1   11.091      28.363
2015   11        8     6  21    3.7620   345.1   11.097      28.385
2015   11        8     6  28    3.7652   345.2   11.104      28.408
2015   11        8     6  35    3.7682   345.2   11.111      28.431
2015   11        8     6  43    3.7714   345.3   11.117      28.455
2015   11        8     6  50    3.7743   345.4   11.124      28.480
2015   11        8     6  57    3.7774   345.4   11.130      28.505
2015   11        8     7   4    3.7803   345.5   11.136      28.529
2015   11        8     7  11    3.7833   345.6   11.142      28.555
2015   11        8     7  18    3.7862   345.6   11.148      28.579
2015   11        8     7  25    3.7891   345.7   11.154      28.605
2015   11        8     7  32    3.7918   345.8   11.159      28.629
2015   11        8     7  40    3.7945   345.8   11.165      28.654
2015   11        8     7  47    3.7972   345.9   11.170      28.679
2015   11        8     7  54    3.8000   346.0   11.174      28.703
2015   11        8     8   1    3.8026   346.1   11.179      28.728
2015   11        8     8   8    3.8051   346.1   11.183      28.752
2015   11        8     8  15    3.8077   346.2   11.187      28.775
2015   11        8     8  22    3.8102   346.3   11.191      28.799
2015   11        8     8  29    3.8127   346.3   11.194      28.821
2015   11        8     8  37    3.8152   346.4   11.198      28.844
2015   11        8     8  44    3.8176   346.5   11.201      28.866
2015   11        8     8  51    3.8199   346.5   11.204      28.888
2015   11        8     8  58    3.8222   346.6   11.207      28.910
2015   11        8     9   5    3.8246   346.7   11.209      28.931
2015   11        8     9  12    3.8269   346.8   11.212      28.952
2015   11        8     9  19    3.8292   346.8   11.214      28.973
2015   11        8     9  26    3.8314   346.9   11.216      28.993
2015   11        8     9  33    3.8338   347.0   11.218      29.013
2015   11        8     9  41    3.8360   347.0   11.220      29.033
2015   11        8     9  48    3.8382   347.1   11.222      29.052
2015   11        8     9  55    3.8404   347.2   11.223      29.071
2015   11        8    10   2    3.8426   347.2   11.225      29.090
2015   11        8    10   9    3.8448   347.3   11.226      29.109
2015   11        8    10  16    3.8469   347.4   11.227      29.127
2015   11        8    10  23    3.8491   347.4   11.229      29.145
2015   11        8    10  30    3.8513   347.5   11.230      29.162
2015   11        8    10  37    3.8535   347.6   11.231      29.180
2015   11        8    10  44    3.8556   347.6   11.232      29.197
2015   11        8    10  51    3.8578   347.7   11.233      29.214
2015   11        8    10  59    3.8599   347.8   11.234      29.230
2015   11        8    11   6    3.8620   347.8   11.235      29.247
2015   11        8    11  13    3.8642   347.9   11.236      29.263
2015   11        8    11  20    3.8663   348.0   11.237      29.279
2015   11        8    11  27    3.8684   348.0   11.237      29.296
2015   11        8    11  34    3.8706   348.1   11.238      29.311
2015   11        8    11  41    3.8727   348.1   11.239      29.327
2015   11        8    11  48    3.8748   348.2   11.240      29.343
2015   11        8    11  55    3.8770   348.3   11.241      29.358
2015   11        8    12   2    3.8792   348.3   11.242      29.374
2015   11        8    12   9    3.8813   348.4   11.243      29.390
2015   11        8    12  16    3.8835   348.5   11.245      29.405
2015   11        8    12  24    3.8857   348.5   11.246      29.421
2015   11        8    12  31    3.8878   348.6   11.247      29.436
2015   11        8    12  38    3.8900   348.7   11.249      29.452
2015   11        8    12  45    3.8922   348.7   11.250      29.467
2015   11        8    12  52    3.8945   348.8   11.252      29.483
2015   11        8    12  59    3.8967   348.8   11.253      29.498
2015   11        8    13   6    3.8989   348.9   11.255      29.514
2015   11        8    13  13    3.9012   349.0   11.257      29.530
2015   11        8    13  20    3.9035   349.0   11.260      29.546
2015   11        8    13  27    3.9057   349.1   11.262      29.561
2015   11        8    13  34    3.9080   349.2   11.264      29.578
2015   11        8    13  42    3.9103   349.2   11.267      29.594
2015   11        8    13  49    3.9125   349.3   11.270      29.611
2015   11        8    13  56    3.9148   349.4   11.272      29.628
2015   11        8    14   3    3.9172   349.4   11.275      29.645
2015   11        8    14  10    3.9194   349.5   11.278      29.663
2015   11        8    14  17    3.9218   349.6   11.281      29.681
2015   11        8    14  24    3.9240   349.6   11.285      29.699
2015   11        8    14  31    3.9263   349.7   11.288      29.717
2015   11        8    14  39    3.9286   349.8   11.291      29.736
2015   11        8    14  46    3.9309   349.8   11.294      29.755
2015   11        8    14  53    3.9331   349.9   11.298      29.774
2015   11        8    15   0    3.9354   350.0   11.301      29.793
2015   11        8    15   7    3.9375   350.0   11.304      29.813
2015   11        8    15  14    3.9397   350.1   11.307      29.832
2015   11        8    15  21    3.9419   350.2   11.310      29.851
2015   11        8    15  28    3.9440   350.3   11.312      29.870
2015   11        8    15  36    3.9461   350.3   11.315      29.890
2015   11        8    15  43    3.9481   350.4   11.317      29.908
2015   11        8    15  50    3.9503   350.5   11.319      29.927
2015   11        8    15  57    3.9522   350.6   11.321      29.945
2015   11        8    16   4    3.9543   350.6   11.323      29.964
2015   11        8    16  11    3.9562   350.7   11.325      29.982
2015   11        8    16  18    3.9582   350.8   11.326      30.000
2015   11        8    16  25    3.9601   350.9   11.327      30.017
2015   11        8    16  32    3.9620   350.9   11.328      30.035
2015   11        8    16  40    3.9638   351.0   11.329      30.052
2015   11        8    16  47    3.9656   351.1   11.330      30.068
2015   11        8    16  54    3.9675   351.2   11.330      30.085
2015   11        8    17   1    3.9693   351.2   11.331      30.101
2015   11        8    17   8    3.9711   351.3   11.331      30.117
2015   11        8    17  15    3.9729   351.4   11.331      30.132
2015   11        8    17  22    3.9746   351.5   11.331      30.147
2015   11        8    17  29    3.9764   351.5   11.331      30.162
2015   11        8    17  36    3.9781   351.6   11.330      30.177
2015   11        8    17  43    3.9798   351.7   11.330      30.191
2015   11        8    17  51    3.9815   351.7   11.329      30.206
2015   11        8    17  58    3.9832   351.8   11.329      30.219
2015   11        8    18   5    3.9849   351.9   11.328      30.233
2015   11        8    18  12    3.9866   352.0   11.327      30.246
2015   11        8    18  19    3.9882   352.0   11.326      30.259
2015   11        8    18  26    3.9899   352.1   11.325      30.273
2015   11        8    18  33    3.9916   352.2   11.325      30.285
2015   11        8    18  40    3.9933   352.3   11.324      30.298
2015   11        8    18  47    3.9949   352.3   11.323      30.310
2015   11        8    18  54    3.9966   352.4   11.322      30.323
2015   11        8    19   1    3.9982   352.5   11.321      30.335
2015   11        8    19   8    3.9999   352.5   11.320      30.347
2015   11        8    19  15    4.0016   352.6   11.319      30.359
2015   11        8    19  23    4.0032   352.7   11.317      30.371
2015   11        8    19  30    4.0050   352.7   11.316      30.383
2015   11        8    19  37    4.0066   352.8   11.315      30.395
2015   11        8    19  44    4.0083   352.9   11.314      30.406
2015   11        8    19  51    4.0100   352.9   11.313      30.418
2015   11        8    19  58    4.0117   353.0   11.312      30.429
2015   11        8    20   5    4.0133   353.1   11.311      30.440
2015   11        8    20  12    4.0150   353.2   11.310      30.451
2015   11        8    20  19    4.0167   353.2   11.309      30.462
2015   11        8    20  26    4.0184   353.3   11.308      30.474
2015   11        8    20  33    4.0201   353.4   11.307      30.484
2015   11        8    20  41    4.0217   353.4   11.306      30.495
2015   11        8    20  48    4.0235   353.5   11.304      30.506
2015   11        8    20  55    4.0252   353.6   11.304      30.517
2015   11        8    21   2    4.0269   353.6   11.303      30.527
2015   11        8    21   9    4.0286   353.7   11.302      30.538
2015   11        8    21  16    4.0303   353.8   11.301      30.548
2015   11        8    21  23    4.0321   353.8   11.300      30.559
2015   11        8    21  30    4.0339   353.9   11.299      30.570
2015   11        8    21  37    4.0357   354.0   11.299      30.581
2015   11        8    21  45    4.0374   354.0   11.298      30.591
2015   11        8    21  52    4.0392   354.1   11.298      30.603
2015   11        8    21  59    4.0410   354.2   11.297      30.614
2015   11        8    22   6    4.0428   354.2   11.297      30.626
2015   11        8    22  13    4.0446   354.3   11.296      30.637
2015   11        8    22  20    4.0464   354.4   11.295      30.649
2015   11        8    22  27    4.0482   354.4   11.295      30.661
2015   11        8    22  34    4.0500   354.5   11.294      30.673
2015   11        8    22  42    4.0518   354.6   11.293      30.685
2015   11        8    22  49    4.0535   354.6   11.292      30.697
2015   11        8    22  56    4.0553   354.7   11.291      30.708
2015   11        8    23   3    4.0570   354.8   11.290      30.720
2015   11        8    23  10    4.0588   354.9   11.289      30.731
2015   11        8    23  17    4.0605   354.9   11.287      30.742
2015   11        8    23  24    4.0621   355.0   11.286      30.753
2015   11        8    23  31    4.0639   355.1   11.284      30.764
2015   11        8    23  39    4.0656   355.1   11.282      30.774
2015   11        8    23  46    4.0672   355.2   11.280      30.784
2015   11        8    23  53    4.0688   355.3   11.278      30.794
2015   11        9     0   0    4.0705   355.3   11.276      30.803
2015   11        9     0   7    4.0722   355.4   11.274      30.813
2015   11        9     0  14    4.0738   355.5   11.271      30.822
2015   11        9     0  21    4.0754   355.6   11.269      30.830
2015   11        9     0  28    4.0770   355.6   11.266      30.839
2015   11        9     0  35    4.0786   355.7   11.263      30.847
2015   11        9     0  42    4.0802   355.8   11.261      30.855
2015   11        9     0  50    4.0818   355.8   11.258      30.863
2015   11        9     0  57    4.0834   355.9   11.255      30.871
2015   11        9     1   4    4.0850   356.0   11.252      30.878
2015   11        9     1  11    4.0865   356.0   11.249      30.886
2015   11        9     1  18    4.0882   356.1   11.246      30.893
2015   11        9     1  25    4.0897   356.2   11.243      30.900
2015   11        9     1  32    4.0913   356.2   11.240      30.907
2015   11        9     1  39    4.0929   356.3   11.237      30.914
2015   11        9     1  46    4.0945   356.4   11.233      30.920
2015   11        9     1  53    4.0961   356.5   11.230      30.927
2015   11        9     2   0    4.0977   356.5   11.227      30.934
2015   11        9     2   7    4.0992   356.6   11.224      30.940
2015   11        9     2  15    4.1009   356.7   11.221      30.946
2015   11        9     2  22    4.1024   356.7   11.218      30.953
2015   11        9     2  29    4.1040   356.8   11.215      30.959
2015   11        9     2  36    4.1057   356.9   11.212      30.965
2015   11        9     2  43    4.1073   356.9   11.208      30.971
2015   11        9     2  50    4.1090   357.0   11.205      30.978
2015   11        9     2  57    4.1106   357.1   11.202      30.984
2015   11        9     3   4    4.1123   357.1   11.199      30.990
2015   11        9     3  11    4.1139   357.2   11.197      30.996
2015   11        9     3  18    4.1156   357.3   11.194      31.002
2015   11        9     3  25    4.1174   357.3   11.191      31.008
2015   11        9     3  32    4.1191   357.4   11.188      31.014
2015   11        9     3  40    4.1208   357.5   11.186      31.020
2015   11        9     3  47    4.1226   357.5   11.183      31.027
2015   11        9     3  54    4.1243   357.6   11.181      31.033
2015   11        9     4   1    4.1261   357.7   11.178      31.039
2015   11        9     4   8    4.1280   357.7   11.176      31.046
2015   11        9     4  15    4.1298   357.8   11.174      31.052
2015   11        9     4  22    4.1316   357.9   11.172      31.058
2015   11        9     4  29    4.1335   357.9   11.170      31.065
2015   11        9     4  36    4.1354   358.0   11.168      31.072
2015   11        9     4  44    4.1373   358.0   11.166      31.079
2015   11        9     4  51    4.1393   358.1   11.165      31.086
2015   11        9     4  58    4.1412   358.2   11.163      31.094
2015   11        9     5   5    4.1432   358.2   11.162      31.102
2015   11        9     5  12    4.1452   358.3   11.160      31.109
2015   11        9     5  19    4.1471   358.4   11.159      31.117
2015   11        9     5  26    4.1492   358.4   11.158      31.126
2015   11        9     5  33    4.1512   358.5   11.157      31.134
2015   11        9     5  41    4.1532   358.6   11.156      31.143
2015   11        9     5  48    4.1553   358.6   11.155      31.152
2015   11        9     5  55    4.1574   358.7   11.154      31.161
2015   11        9     6   2    4.1594   358.8   11.153      31.170
2015   11        9     6   9    4.1615   358.8   11.153      31.179
2015   11        9     6  16    4.1636   358.9   11.152      31.188
2015   11        9     6  23    4.1658   359.0   11.151      31.198
2015   11        9     6  30    4.1679   359.0   11.151      31.207
2015   11        9     6  37    4.1701   359.1   11.150      31.217
2015   11        9     6  45    4.1723   359.2   11.150      31.226
2015   11        9     6  52    4.1745   359.2   11.150      31.236
2015   11        9     6  59    4.1767   359.3   11.149      31.246
2015   11        9     7   6    4.1790   359.3   11.149      31.255
2015   11        9     7  13    4.1812   359.4   11.149      31.265
2015   11        9     7  20    4.1834   359.5   11.148      31.275
2015   11        9     7  27    4.1858   359.5   11.148      31.285
2015   11        9     7  34    4.1881   359.6   11.148      31.294
2015   11        9     7  41    4.1904   359.7   11.148      31.304
2015   11        9     7  49    4.1928   359.7   11.148      31.314
2015   11        9     7  56    4.1951   359.8   11.148      31.324
2015   11        9     8   3    4.1975   359.8   11.148      31.334
2015   11        9     8  10    4.1999   359.9   11.148      31.344
2015   11        9     8  17    4.2024   360.0   11.148      31.355
2015   11        9     8  24    4.2048   360.0   11.148      31.365
2015   11        9     8  31    4.2072   360.1   11.149      31.375
2015   11        9     8  38    4.2097   360.1   11.149      31.385
2015   11        9     8  45    4.2122   360.2   11.149      31.396
2015   11        9     8  52    4.2147   360.3   11.150      31.406
2015   11        9     8  59    4.2173   360.3   11.150      31.417
2015   11        9     9   6    4.2198   360.4   11.151      31.428
2015   11        9     9  14    4.2224   360.4   11.151      31.439
2015   11        9     9  21    4.2250   360.5   11.152      31.450
2015   11        9     9  28    4.2276   360.6   11.152      31.461
2015   11        9     9  35    4.2303   360.6   11.153      31.472
2015   11        9     9  42    4.2330   360.7   11.154      31.484
2015   11        9     9  49    4.2357   360.7   11.155      31.495
2015   11        9     9  56    4.2385   360.8   11.156      31.507
2015   11        9    10   3    4.2412   360.9   11.158      31.519
2015   11        9    10  10    4.2441   360.9   11.159      31.531
2015   11        9    10  17    4.2469   361.0   11.160      31.543
2015   11        9    10  24    4.2498   361.0   11.162      31.556
2015   11        9    10  31    4.2528   361.1   11.164      31.569
2015   11        9    10  39    4.2558   361.2   11.166      31.582
2015   11        9    10  46    4.2588   361.2   11.168      31.595
2015   11        9    10  53    4.2619   361.3   11.170      31.608
2015   11        9    11   0    4.2651   361.4   11.173      31.622
2015   11        9    11   7    4.2684   361.4   11.176      31.636
2015   11        9    11  14    4.2717   361.5   11.179      31.651
2015   11        9    11  21    4.2751   361.5   11.182      31.666
2015   11        9    11  28    4.2786   361.6   11.186      31.681
2015   11        9    11  35    4.2821   361.7   11.189      31.696
2015   11        9    11  42    4.2857   361.7   11.193      31.712
2015   11        9    11  50    4.2895   361.8   11.198      31.728
2015   11        9    11  57    4.2933   361.9   11.202      31.745
2015   11        9    12   4    4.2974   361.9   11.207      31.762
2015   11        9    12  11    4.3014   362.0   11.213      31.780
2015   11        9    12  18    4.3055   362.1   11.218      31.798
2015   11        9    12  25    4.3098   362.1   11.224      31.817
2015   11        9    12  32    4.3143   362.2   11.231      31.836
2015   11        9    12  39    4.3187   362.3   11.238      31.855
2015   11        9    12  47    4.3233   362.3   11.245      31.876
2015   11        9    12  54    4.3280   362.4   11.252      31.897
2015   11        9    13   1    4.3328   362.5   11.260      31.918
2015   11        9    13   8    4.3377   362.6   11.268      31.941
2015   11        9    13  15    4.3427   362.6   11.277      31.964
2015   11        9    13  22    4.3480   362.7   11.285      31.988
2015   11        9    13  29    4.3529   362.8   11.294      32.012
2015   11        9    13  36    4.3581   362.9   11.303      32.036
2015   11        9    13  44    4.3633   362.9   11.313      32.062
2015   11        9    13  51    4.3686   363.0   11.322      32.088
2015   11        9    13  58    4.3741   363.1   11.331      32.115
2015   11        9    14   5    4.3792   363.2   11.340      32.142
2015   11        9    14  12    4.3845   363.3   11.350      32.171
2015   11        9    14  19    4.3898   363.3   11.359      32.199
2015   11        9    14  26    4.3954   363.4   11.368      32.228
2015   11        9    14  33    4.4004   363.5   11.377      32.256
2015   11        9    14  40    4.4057   363.6   11.386      32.285
2015   11        9    14  48    4.4109   363.6   11.394      32.314
2015   11        9    14  55    4.4162   363.7   11.403      32.343
2015   11        9    15   2    4.4215   363.8   11.411      32.372
2015   11        9    15   9    4.4268   363.9   11.420      32.401
2015   11        9    15  16    4.4320   363.9   11.428      32.429
2015   11        9    15  23    4.4374   364.0   11.436      32.458
2015   11        9    15  30    4.4426   364.1   11.444      32.486
2015   11        9    15  37    4.4480   364.1   11.451      32.513
2015   11        9    15  44    4.4533   364.2   11.459      32.541
2015   11        9    15  51    4.4588   364.3   11.467      32.568
2015   11        9    15  58    4.4645   364.3   11.475      32.594
2015   11        9    16   6    4.4697   364.4   11.482      32.621
2015   11        9    16  13    4.4755   364.5   11.490      32.647
2015   11        9    16  20    4.4808   364.5   11.498      32.674
2015   11        9    16  27    4.4864   364.6   11.506      32.700
2015   11        9    16  34    4.4922   364.6   11.514      32.725
2015   11        9    16  41    4.4980   364.7   11.522      32.751
2015   11        9    16  48    4.5040   364.7   11.530      32.777
2015   11        9    16  55    4.5100   364.8   11.539      32.803
2015   11        9    17   2    4.5162   364.9   11.548      32.828
2015   11        9    17   9    4.5224   364.9   11.557      32.854
2015   11        9    17  16    4.5290   365.0   11.566      32.880
2015   11        9    17  23    4.5355   365.0   11.576      32.906
2015   11        9    17  30    4.5429   365.1   11.587      32.933
2015   11        9    17  38    4.5494   365.1   11.597      32.959
2015   11        9    17  45    4.5567   365.2   11.609      32.987
2015   11        9    17  52    4.5641   365.2   11.620      33.014
2015   11        9    17  59    4.5719   365.3   11.633      33.043
2015   11        9    18   6    4.5798   365.4   11.646      33.071
2015   11        9    18  13    4.5887   365.4   11.660      33.101
2015   11        9    18  20    4.5972   365.5   11.675      33.131
2015   11        9    18  27    4.6062   365.5   11.691      33.163
2015   11        9    18  34    4.6153   365.6   11.707      33.195
2015   11        9    18  41    4.6244   365.7   11.725      33.228
2015   11        9    18  49    4.6348   365.7   11.743      33.262
2015   11        9    18  56    4.6451   365.8   11.763      33.298
2015   11        9    19   3    4.6549   365.9   11.783      33.334
2015   11        9    19  10    4.6665   366.0   11.805      33.372
2015   11        9    19  17    4.6776   366.0   11.828      33.411
2015   11        9    19  24    4.6885   366.1   11.853      33.453
2015   11        9    19  31    4.7008   366.2   11.878      33.496
2015   11        9    19  38    4.7129   366.3   11.904      33.542
2015   11        9    19  45    4.7244   366.4   11.931      33.591
2015   11        9    19  53    4.7370   366.5   11.959      33.642
2015   11        9    20   0    4.7497   366.6   11.987      33.696
2015   11        9    20   7    4.7626   366.7   12.017      33.753
2015   11        9    20  14    4.7762   366.8   12.047      33.811
2015   11        9    20  21    4.7886   367.0   12.078      33.871
2015   11        9    20  28    4.8017   367.1   12.109      33.933
2015   11        9    20  35    4.8155   367.2   12.141      33.998
2015   11        9    20  42    4.8279   367.3   12.172      34.065
2015   11        9    20  50    4.8418   367.5   12.204      34.134
2015   11        9    20  57    4.8541   367.6   12.236      34.206
2015   11        9    21   4    4.8672   367.8   12.268      34.281
2015   11        9    21  11    4.8807   367.9   12.299      34.358
2015   11        9    21  18    4.8929   368.1   12.330      34.439
2015   11        9    21  25    4.9055   368.2   12.360      34.522
2015   11        9    21  32    4.9181   368.4   12.390      34.607
2015   11        9    21  39    4.9306   368.5   12.419      34.695
2015   11        9    21  47    4.9430   368.7   12.447      34.784
2015   11        9    21  54    4.9558   368.9   12.474      34.875
2015   11        9    22   1    4.9680   369.0   12.501      34.968
2015   11        9    22   8    4.9800   369.2   12.527      35.062
2015   11        9    22  15    4.9914   369.4   12.552      35.157
2015   11        9    22  22    5.0039   369.6   12.576      35.254
2015   11        9    22  29    5.0152   369.8   12.600      35.351
2015   11        9    22  36    5.0271   369.9   12.623      35.448
2015   11        9    22  43    5.0395   370.1   12.646      35.546
2015   11        9    22  50    5.0513   370.3   12.668      35.643
2015   11        9    22  57    5.0632   370.5   12.690      35.740
2015   11        9    23   5    5.0750   370.7   12.712      35.836
2015   11        9    23  12    5.0870   370.9   12.733      35.933
2015   11        9    23  19    5.0984   371.1   12.755      36.030
2015   11        9    23  26    5.1106   371.3   12.776      36.127
2015   11        9    23  33    5.1227   371.5   12.798      36.223
2015   11        9    23  40    5.1351   371.7   12.819      36.321
2015   11        9    23  47    5.1475   371.9   12.841      36.418
2015   11        9    23  54    5.1608   372.1   12.863      36.516
2015   11       10     0   1    5.1730   372.3   12.886      36.615
2015   11       10     0   8    5.1861   372.5   12.909      36.716
2015   11       10     0  15    5.1994   372.7   12.933      36.817
2015   11       10     0  22    5.2131   372.9   12.957      36.921
2015   11       10     0  29    5.2270   373.2   12.983      37.026
2015   11       10     0  37    5.2414   373.4   13.010      37.134
2015   11       10     0  44    5.2560   373.6   13.037      37.243
2015   11       10     0  51    5.2713   373.9   13.067      37.357
2015   11       10     0  58    5.2869   374.1   13.098      37.473
2015   11       10     1   5    5.3031   374.4   13.131      37.592
2015   11       10     1  12    5.3203   374.7   13.166      37.715
2015   11       10     1  19    5.3375   374.9   13.203      37.843
2015   11       10     1  26    5.3551   375.2   13.242      37.976
2015   11       10     1  33    5.3727   375.5   13.284      38.116
2015   11       10     1  40    5.3920   375.8   13.327      38.262
2015   11       10     1  48    5.4107   376.2   13.372      38.414
2015   11       10     1  55    5.4310   376.5   13.420      38.569
2015   11       10     2   2    5.4512   376.8   13.470      38.729
2015   11       10     2   9    5.4716   377.2   13.521      38.895
2015   11       10     2  16    5.4925   377.5   13.574      39.068
2015   11       10     2  23    5.5133   377.9   13.627      39.248
2015   11       10     2  30    5.5337   378.3   13.681      39.434
2015   11       10     2  37    5.5553   378.6   13.735      39.625
2015   11       10     2  44    5.5765   379.0   13.789      39.821
2015   11       10     2  52    5.5974   379.4   13.842      40.017
2015   11       10     2  59    5.6176   379.8   13.894      40.216
2015   11       10     3   6    5.6388   380.2   13.945      40.415
2015   11       10     3  13    5.6586   380.6   13.995      40.617
2015   11       10     3  20    5.6793   381.0   14.042      40.818
2015   11       10     3  27    5.6985   381.3   14.088      41.021
2015   11       10     3  34    5.7179   381.7   14.131      41.221
2015   11       10     3  41    5.7378   382.1   14.173      41.419
2015   11       10     3  49    5.7560   382.5   14.213      41.612
2015   11       10     3  56    5.7746   382.8   14.251      41.804
2015   11       10     4   3    5.7928   383.2   14.287      41.994
2015   11       10     4  10    5.8108   383.6   14.321      42.183
2015   11       10     4  17    5.8284   383.9   14.353      42.370
2015   11       10     4  24    5.8464   384.3   14.383      42.556
2015   11       10     4  31    5.8630   384.7   14.411      42.741
2015   11       10     4  38    5.8804   385.0   14.438      42.926
2015   11       10     4  45    5.8970   385.4   14.463      43.111
2015   11       10     4  53    5.9135   385.8   14.486      43.295
2015   11       10     5   0    5.9297   386.2   14.508      43.479
2015   11       10     5   7    5.9454   386.5   14.528      43.663
2015   11       10     5  14    5.9613   386.9   14.547      43.847
2015   11       10     5  21    5.9771   387.3   14.564      44.031
2015   11       10     5  28    5.9932   387.7   14.579      44.215
2015   11       10     5  35    6.0088   388.1   14.594      44.398
2015   11       10     5  42    6.0241   388.5   14.607      44.581
2015   11       10     5  49    6.0395   388.9   14.620      44.764
2015   11       10     5  56    6.0543   389.3   14.631      44.945
2015   11       10     6   4    6.0695   389.7   14.642      45.126
2015   11       10     6  11    6.0850   390.1   14.652      45.305
2015   11       10     6  18    6.0997   390.5   14.662      45.484
2015   11       10     6  25    6.1150   390.9   14.671      45.661
2015   11       10     6  32    6.1300   391.3   14.680      45.838
2015   11       10     6  39    6.1448   391.8   14.689      46.013
2015   11       10     6  46    6.1597   392.2   14.698      46.189
2015   11       10     6  53    6.1742   392.6   14.706      46.363
2015   11       10     7   0    6.1891   393.0   14.715      46.538
2015   11       10     7   7    6.2040   393.5   14.724      46.712
2015   11       10     7  14    6.2187   393.9   14.734      46.886
2015   11       10     7  21    6.2335   394.3   14.744      47.061
2015   11       10     7  29    6.2484   394.8   14.755      47.236
2015   11       10     7  36    6.2633   395.2   14.766      47.412
2015   11       10     7  43    6.2782   395.7   14.779      47.590
2015   11       10     7  50    6.2930   396.1   14.793      47.769
2015   11       10     7  57    6.3081   396.6   14.809      47.950
2015   11       10     8   4    6.3237   397.0   14.827      48.133
2015   11       10     8  11    6.3392   397.5   14.847      48.320
2015   11       10     8  18    6.3551   398.0   14.870      48.510
2015   11       10     8  25    6.3712   398.5   14.895      48.705
2015   11       10     8  32    6.3877   398.9   14.925      48.903
2015   11       10     8  39    6.4046   399.4   14.959      49.108
2015   11       10     8  46    6.4220   399.9   14.997      49.322
2015   11       10     8  54    6.4400   400.5   15.038      49.549
2015   11       10     9   1    6.4586   401.0   15.083      49.788
2015   11       10     9   8    6.4778   401.6   15.132      50.041
2015   11       10     9  15    6.4976   402.2   15.185      50.302
2015   11       10     9  22    6.5172   402.7   15.242      50.574
2015   11       10     9  29    6.5386   403.3   15.301      50.855
2015   11       10     9  36    6.5598   404.0   15.363      51.157
2015   11       10     9  43    6.5812   404.7   15.426      51.475
2015   11       10     9  50    6.6028   405.4   15.488      51.812
2015   11       10     9  58    6.6243   406.1   15.548      52.161
2015   11       10    10   5    6.6457   406.8   15.606      52.525
2015   11       10    10  12    6.6666   407.6   15.660      52.892
2015   11       10    10  19    6.6872   408.3   15.711      53.264
2015   11       10    10  26    6.7069   409.1   15.758      53.634
2015   11       10    10  33    6.7256   409.8   15.800      54.008
2015   11       10    10  40    6.7440   410.6   15.835      54.382
2015   11       10    10  47    6.7623   411.4   15.865      54.760
2015   11       10    10  55    6.7788   412.2   15.889      55.135
2015   11       10    11   2    6.7951   413.0   15.908      55.503
2015   11       10    11   9    6.8107   413.7   15.922      55.863
2015   11       10    11  16    6.8262   414.5   15.931      56.220
2015   11       10    11  23    6.8407   415.2   15.937      56.571
2015   11       10    11  30    6.8548   415.9   15.939      56.919
2015   11       10    11  37    6.8683   416.7   15.938      57.263
2015   11       10    11  44    6.8821   417.4   15.934      57.606
2015   11       10    11  52    6.8955   418.1   15.927      57.946
2015   11       10    11  59    6.9088   418.9   15.919      58.286
2015   11       10    12   6    6.9219   419.6   15.908      58.623
2015   11       10    12  13    6.9351   420.3   15.895      58.961
2015   11       10    12  20    6.9482   421.0   15.881      59.297
2015   11       10    12  27    6.9612   421.8   15.864      59.633
2015   11       10    12  34    6.9742   422.5   15.847      59.966
2015   11       10    12  41    6.9874   423.3   15.828      60.299
2015   11       10    12  48    7.0003   424.0   15.807      60.629
2015   11       10    12  55    7.0130   424.8   15.786      60.957
2015   11       10    13   3    7.0257   425.5   15.762      61.283
2015   11       10    13  10    7.0384   426.3   15.738      61.605
2015   11       10    13  17    7.0509   427.1   15.712      61.921
2015   11       10    13  24    7.0636   427.9   15.685      62.234
2015   11       10    13  31    7.0758   428.7   15.657      62.542
2015   11       10    13  38    7.0877   429.5   15.627      62.846
2015   11       10    13  45    7.0994   430.4   15.596      63.145
2015   11       10    13  52    7.1107   431.2   15.563      63.442
2015   11       10    13  59    7.1215   432.1   15.528      63.733
2015   11       10    14   6    7.1319   433.0   15.491      64.021
2015   11       10    14  13    7.1417   433.9   15.451      64.304
2015   11       10    14  21    7.1508   434.8   15.408      64.577
2015   11       10    14  28    7.1589   435.8   15.363      64.838
2015   11       10    14  35    7.1664   436.7   15.315      65.093
2015   11       10    14  42    7.1730   437.7   15.265      65.340
2015   11       10    14  49    7.1788   438.7   15.213      65.581
2015   11       10    14  56    7.1837   439.6   15.160      65.817
2015   11       10    15   3    7.1879   440.6   15.102      66.057
2015   11       10    15  10    7.1904   441.6   15.041      66.290
2015   11       10    15  17    7.1928   442.6   14.978      66.503
2015   11       10    15  24    7.1936   443.5   14.915      66.702
2015   11       10    15  31    7.1936   444.4   14.852      66.888
2015   11       10    15  38    7.1933   445.3   14.791      67.058
2015   11       10    15  46    7.1927   446.1   14.734      67.220
2015   11       10    15  53    7.1924   446.8   14.680      67.380
2015   11       10    16   0    7.1921   447.6   14.632      67.545
2015   11       10    16   7    7.1925   448.3   14.588      67.714
2015   11       10    16  14    7.1920   449.1   14.550      67.893
2015   11       10    16  21    7.1949   449.8   14.518      68.082
2015   11       10    16  28    7.1972   450.4   14.494      68.286
2015   11       10    16  35    7.2010   451.1   14.478      68.501
2015   11       10    16  42    7.2059   451.7   14.469      68.739
2015   11       10    16  49    7.2123   452.4   14.467      69.000
2015   11       10    16  57    7.2182   453.1   14.469      69.294
2015   11       10    17   4    7.2281   453.9   14.475      69.619
2015   11       10    17  11    7.2353   454.7   14.483      69.975
2015   11       10    17  18    7.2449   455.5   14.493      70.359
2015   11       10    17  25    7.2563   456.4   14.503      70.782
2015   11       10    17  32    7.2650   457.3   14.512      71.231
2015   11       10    17  39    7.2755   458.3   14.521      71.703
2015   11       10    17  46    7.2878   459.3   14.528      72.186
2015   11       10    17  54    7.2984   460.3   14.532      72.682
2015   11       10    18   1    7.3091   461.4   14.532      73.189
2015   11       10    18   8    7.3194   462.4   14.528      73.704
2015   11       10    18  15    7.3293   463.5   14.520      74.213
2015   11       10    18  22    7.3388   464.6   14.509      74.719
2015   11       10    18  29    7.3480   465.7   14.494      75.219
2015   11       10    18  36    7.3553   466.8   14.476      75.716
2015   11       10    18  43    7.3652   467.9   14.454      76.201
2015   11       10    18  51    7.3717   469.0   14.429      76.675
2015   11       10    18  58    7.3807   470.1   14.401      77.138
2015   11       10    19   5    7.3879   471.3   14.369      77.595
2015   11       10    19  12    7.3944   472.4   14.333      78.041
2015   11       10    19  19    7.3986   473.6   14.294      78.477
2015   11       10    19  26    7.4052   474.7   14.251      78.899
2015   11       10    19  33    7.4093   475.9   14.203      79.313
2015   11       10    19  40    7.4124   477.2   14.148      79.718
2015   11       10    19  47    7.4140   478.5   14.087      80.104
2015   11       10    19  54    7.4144   479.7   14.021      80.467
2015   11       10    20   2    7.4115   481.0   13.949      80.815
2015   11       10    20   9    7.4113   482.3   13.871      81.148
2015   11       10    20  16    7.4055   483.5   13.787      81.460
2015   11       10    20  23    7.4025   484.8   13.697      81.744
2015   11       10    20  30    7.3955   486.1   13.601      82.004
2015   11       10    20  37    7.3847   487.5   13.495      82.250
2015   11       10    20  44    7.3763   488.8   13.381      82.460
2015   11       10    20  51    7.3635   490.1   13.260      82.616
2015   11       10    20  58    7.3459   491.4   13.134      82.724
2015   11       10    21   5    7.3324   492.6   13.006      82.798
2015   11       10    21  12    7.3145   493.8   12.874      82.850
2015   11       10    21  20    7.2961   495.0   12.741      82.873
2015   11       10    21  27    7.2760   496.2   12.605      82.883
2015   11       10    21  34    7.2529   497.5   12.469      82.880
2015   11       10    21  41    7.2337   498.7   12.331      82.862
2015   11       10    21  48    7.2117   500.0   12.195      82.839
2015   11       10    21  55    7.1886   501.2   12.059      82.806
2015   11       10    22   2    7.1655   502.5   11.927      82.764
2015   11       10    22   9    7.1421   503.8   11.798      82.747
2015   11       10    22  16    7.1191   505.1   11.670      82.761
2015   11       10    22  23    7.0955   506.6   11.542      82.804
2015   11       10    22  30    7.0715   508.0   11.414      82.844
2015   11       10    22  37    7.0441   509.5   11.287      82.881
2015   11       10    22  44    7.0216   510.9   11.162      82.914
2015   11       10    22  52    6.9962   512.2   11.040      82.938
2015   11       10    22  59    6.9711   513.5   10.921      82.954
2015   11       10    23   6    6.9436   514.8   10.806      82.968
2015   11       10    23  13    6.9216   516.0   10.697      82.987
2015   11       10    23  20    6.8974   517.1   10.591      83.011
2015   11       10    23  27    6.8740   518.2   10.490      83.038
2015   11       10    23  34    6.8509   519.3   10.393      83.068
2015   11       10    23  41    6.8265   520.3   10.304      83.102
2015   11       10    23  48    6.8074   521.2   10.221      83.139
2015   11       10    23  55    6.7852   522.1   10.145      83.196
2015   11       11     0   3    6.7660   523.0   10.075      83.274
