year    month   day   hour  minute  B_enl V_enl   n_enl       T_enl
[year] [month] [day] [hour][minute] [nT]  [km/s]  [cm-3]      [kK]
2015   11        3     0   1    5.1332   362.1   15.098      38.430
2015   11        3     0   8    5.1450   362.4   15.122      38.535
2015   11        3     0  16    5.1570   362.7   15.147      38.644
2015   11        3     0  23    5.1691   363.0   15.174      38.755
2015   11        3     0  30    5.1816   363.3   15.203      38.871
2015   11        3     0  38    5.1941   363.6   15.235      38.988
2015   11        3     0  45    5.2071   363.9   15.269      39.112
2015   11        3     0  52    5.2203   364.3   15.305      39.242
2015   11        3     1   0    5.2338   364.6   15.343      39.380
2015   11        3     1   7    5.2475   365.0   15.382      39.524
2015   11        3     1  15    5.2613   365.4   15.422      39.677
2015   11        3     1  22    5.2751   365.7   15.462      39.835
2015   11        3     1  29    5.2889   366.2   15.502      40.001
2015   11        3     1  37    5.3026   366.6   15.540      40.171
2015   11        3     1  44    5.3162   367.0   15.577      40.345
2015   11        3     1  51    5.3295   367.4   15.612      40.519
2015   11        3     1  59    5.3425   367.9   15.644      40.697
2015   11        3     2   6    5.3551   368.3   15.672      40.875
2015   11        3     2  14    5.3674   368.8   15.697      41.053
2015   11        3     2  21    5.3791   369.2   15.719      41.228
2015   11        3     2  28    5.3903   369.7   15.737      41.401
2015   11        3     2  36    5.4011   370.2   15.751      41.569
2015   11        3     2  43    5.4116   370.6   15.762      41.735
2015   11        3     2  50    5.4215   371.1   15.770      41.897
2015   11        3     2  58    5.4312   371.5   15.775      42.056
2015   11        3     3   5    5.4404   372.0   15.777      42.210
2015   11        3     3  12    5.4495   372.4   15.777      42.362
2015   11        3     3  20    5.4582   372.8   15.775      42.509
2015   11        3     3  27    5.4668   373.2   15.771      42.656
2015   11        3     3  34    5.4752   373.7   15.765      42.799
2015   11        3     3  42    5.4835   374.1   15.758      42.942
2015   11        3     3  49    5.4917   374.5   15.751      43.082
2015   11        3     3  56    5.4998   374.9   15.741      43.222
2015   11        3     4   4    5.5078   375.3   15.732      43.361
2015   11        3     4  11    5.5159   375.7   15.721      43.500
2015   11        3     4  18    5.5239   376.2   15.709      43.637
2015   11        3     4  26    5.5320   376.6   15.697      43.776
2015   11        3     4  33    5.5399   377.0   15.684      43.912
2015   11        3     4  40    5.5480   377.4   15.670      44.050
2015   11        3     4  48    5.5559   377.8   15.656      44.186
2015   11        3     4  55    5.5639   378.3   15.642      44.324
2015   11        3     5   2    5.5718   378.7   15.627      44.459
2015   11        3     5  10    5.5797   379.1   15.611      44.595
2015   11        3     5  17    5.5875   379.5   15.595      44.730
2015   11        3     5  24    5.5953   380.0   15.578      44.865
2015   11        3     5  31    5.6029   380.4   15.561      44.998
2015   11        3     5  39    5.6106   380.8   15.544      45.132
2015   11        3     5  46    5.6180   381.3   15.527      45.263
2015   11        3     5  53    5.6255   381.7   15.509      45.395
2015   11        3     6   1    5.6327   382.2   15.491      45.524
2015   11        3     6   8    5.6399   382.6   15.473      45.654
2015   11        3     6  15    5.6470   383.0   15.455      45.781
2015   11        3     6  23    5.6540   383.5   15.436      45.909
2015   11        3     6  30    5.6608   383.9   15.418      46.034
2015   11        3     6  37    5.6676   384.4   15.400      46.159
2015   11        3     6  45    5.6743   384.9   15.382      46.282
2015   11        3     6  52    5.6809   385.3   15.363      46.404
2015   11        3     6  59    5.6874   385.8   15.346      46.524
2015   11        3     7   7    5.6937   386.3   15.328      46.645
2015   11        3     7  14    5.7000   386.7   15.311      46.763
2015   11        3     7  21    5.7061   387.2   15.295      46.882
2015   11        3     7  29    5.7121   387.7   15.279      47.001
2015   11        3     7  36    5.7179   388.2   15.264      47.123
2015   11        3     7  43    5.7236   388.7   15.250      47.243
2015   11        3     7  51    5.7290   389.2   15.236      47.364
2015   11        3     7  58    5.7342   389.8   15.223      47.487
2015   11        3     8   6    5.7390   390.3   15.210      47.611
2015   11        3     8  13    5.7434   390.9   15.197      47.734
2015   11        3     8  20    5.7473   391.4   15.184      47.859
2015   11        3     8  28    5.7508   392.0   15.170      47.984
2015   11        3     8  35    5.7537   392.5   15.155      48.111
2015   11        3     8  42    5.7564   393.1   15.140      48.239
2015   11        3     8  50    5.7584   393.7   15.125      48.366
2015   11        3     8  57    5.7602   394.2   15.108      48.493
2015   11        3     9   5    5.7615   394.8   15.090      48.621
2015   11        3     9  12    5.7625   395.4   15.070      48.748
2015   11        3     9  19    5.7630   396.0   15.049      48.876
2015   11        3     9  27    5.7633   396.5   15.025      49.004
2015   11        3     9  34    5.7631   397.1   15.001      49.128
2015   11        3     9  41    5.7629   397.7   14.975      49.250
2015   11        3     9  49    5.7624   398.2   14.948      49.372
2015   11        3     9  56    5.7620   398.8   14.921      49.493
2015   11        3    10   3    5.7614   399.3   14.893      49.614
2015   11        3    10  11    5.7609   399.9   14.864      49.735
2015   11        3    10  18    5.7602   400.4   14.834      49.858
2015   11        3    10  25    5.7596   401.0   14.804      49.982
2015   11        3    10  33    5.7589   401.5   14.773      50.109
2015   11        3    10  40    5.7582   402.0   14.742      50.240
2015   11        3    10  47    5.7574   402.6   14.711      50.379
2015   11        3    10  55    5.7568   403.1   14.680      50.521
2015   11        3    11   2    5.7560   403.7   14.648      50.669
2015   11        3    11   9    5.7554   404.2   14.616      50.821
2015   11        3    11  17    5.7548   404.8   14.584      50.977
2015   11        3    11  24    5.7544   405.3   14.551      51.135
2015   11        3    11  31    5.7538   405.9   14.518      51.296
2015   11        3    11  39    5.7534   406.4   14.485      51.456
2015   11        3    11  46    5.7528   406.9   14.451      51.618
2015   11        3    11  53    5.7524   407.5   14.417      51.780
2015   11        3    12   1    5.7517   408.0   14.382      51.942
2015   11        3    12   8    5.7509   408.6   14.346      52.100
2015   11        3    12  15    5.7499   409.2   14.308      52.258
2015   11        3    12  23    5.7489   409.7   14.270      52.411
2015   11        3    12  30    5.7475   410.3   14.230      52.563
2015   11        3    12  37    5.7460   410.9   14.189      52.709
2015   11        3    12  45    5.7441   411.5   14.146      52.855
2015   11        3    12  52    5.7420   412.1   14.101      52.997
2015   11        3    12  59    5.7393   412.7   14.054      53.140
2015   11        3    13   6    5.7364   413.4   14.005      53.281
2015   11        3    13  14    5.7328   414.1   13.952      53.422
2015   11        3    13  21    5.7287   414.7   13.897      53.556
2015   11        3    13  28    5.7238   415.4   13.837      53.685
2015   11        3    13  36    5.7182   416.1   13.775      53.804
2015   11        3    13  43    5.7115   416.8   13.705      53.922
2015   11        3    13  50    5.7040   417.6   13.631      54.030
2015   11        3    13  58    5.6950   418.3   13.550      54.116
2015   11        3    14   5    5.6851   419.0   13.466      54.178
2015   11        3    14  12    5.6738   419.7   13.378      54.223
2015   11        3    14  20    5.6618   420.3   13.287      54.249
2015   11        3    14  27    5.6487   421.0   13.193      54.260
2015   11        3    14  34    5.6351   421.6   13.098      54.256
2015   11        3    14  42    5.6205   422.3   13.001      54.240
2015   11        3    14  49    5.6057   422.9   12.905      54.217
2015   11        3    14  57    5.5900   423.6   12.806      54.188
2015   11        3    15   4    5.5742   424.2   12.709      54.154
2015   11        3    15  11    5.5576   424.9   12.610      54.120
2015   11        3    15  19    5.5408   425.6   12.512      54.083
2015   11        3    15  26    5.5231   426.2   12.415      54.032
2015   11        3    15  33    5.5055   426.9   12.320      53.985
2015   11        3    15  41    5.4872   427.5   12.225      53.941
2015   11        3    15  48    5.4692   428.2   12.133      53.900
2015   11        3    15  55    5.4505   428.8   12.041      53.858
2015   11        3    16   3    5.4319   429.5   11.951      53.816
2015   11        3    16  10    5.4129   430.1   11.863      53.772
2015   11        3    16  18    5.3941   430.7   11.777      53.730
2015   11        3    16  25    5.3750   431.3   11.692      53.688
2015   11        3    16  32    5.3561   431.9   11.610      53.647
2015   11        3    16  40    5.3369   432.5   11.530      53.604
2015   11        3    16  47    5.3182   433.0   11.453      53.559
2015   11        3    16  54    5.2992   433.5   11.378      53.511
2015   11        3    17   2    5.2809   434.1   11.307      53.468
2015   11        3    17   9    5.2626   434.6   11.237      53.427
2015   11        3    17  16    5.2448   435.0   11.171      53.389
2015   11        3    17  24    5.2270   435.5   11.106      53.355
2015   11        3    17  31    5.2096   436.0   11.045      53.325
2015   11        3    17  39    5.1922   436.4   10.984      53.300
2015   11        3    17  46    5.1753   436.9   10.926      53.282
2015   11        3    17  53    5.1581   437.3   10.869      53.270
2015   11        3    18   1    5.1414   437.7   10.814      53.268
2015   11        3    18   8    5.1245   438.2   10.760      53.276
2015   11        3    18  15    5.1079   438.6   10.707      53.291
2015   11        3    18  23    5.0911   439.1   10.654      53.314
2015   11        3    18  30    5.0748   439.5   10.603      53.342
2015   11        3    18  37    5.0582   440.0   10.552      53.375
2015   11        3    18  44    5.0419   440.4   10.503      53.410
2015   11        3    18  52    5.0254   440.9   10.453      53.446
2015   11        3    18  59    5.0091   441.3   10.404      53.483
2015   11        3    19   6    4.9925   441.7   10.355      53.522
2015   11        3    19  14    4.9761   442.2   10.307      53.559
2015   11        3    19  21    4.9592   442.6   10.258      53.593
2015   11        3    19  28    4.9426   443.1   10.209      53.624
2015   11        3    19  36    4.9256   443.5   10.160      53.651
2015   11        3    19  43    4.9087   444.0   10.111      53.673
2015   11        3    19  50    4.8914   444.4   10.061      53.691
2015   11        3    19  58    4.8742   444.9   10.011      53.704
2015   11        3    20   5    4.8565   445.4    9.959      53.715
2015   11        3    20  12    4.8389   445.9    9.907      53.725
2015   11        3    20  20    4.8207   446.5    9.852      53.735
2015   11        3    20  27    4.8025   447.0    9.797      53.745
2015   11        3    20  34    4.7836   447.6    9.738      53.749
2015   11        3    20  41    4.7645   448.2    9.678      53.746
2015   11        3    20  49    4.7445   448.9    9.614      53.731
2015   11        3    20  56    4.7242   449.5    9.546      53.709
2015   11        3    21   3    4.7029   450.3    9.473      53.683
2015   11        3    21  11    4.6809   450.9    9.396      53.629
2015   11        3    21  18    4.6576   451.6    9.314      53.540
2015   11        3    21  25    4.6338   452.3    9.230      53.423
2015   11        3    21  33    4.6090   452.9    9.143      53.279
2015   11        3    21  40    4.5840   453.5    9.056      53.113
2015   11        3    21  48    4.5581   454.1    8.966      52.919
2015   11        3    21  55    4.5323   454.6    8.878      52.706
2015   11        3    22   2    4.5059   455.1    8.788      52.475
2015   11        3    22  10    4.4798   455.6    8.701      52.236
2015   11        3    22  17    4.4534   456.1    8.614      51.985
2015   11        3    22  24    4.4274   456.6    8.530      51.730
2015   11        3    22  32    4.4012   457.0    8.446      51.468
2015   11        3    22  39    4.3756   457.4    8.368      51.198
2015   11        3    22  46    4.3500   457.8    8.291      50.930
2015   11        3    22  54    4.3253   458.2    8.219      50.679
2015   11        3    23   1    4.3007   458.5    8.149      50.438
2015   11        3    23   8    4.2767   458.9    8.081      50.208
2015   11        3    23  16    4.2528   459.2    8.015      49.985
2015   11        3    23  23    4.2294   459.6    7.952      49.771
2015   11        3    23  31    4.2061   459.9    7.890      49.560
2015   11        3    23  38    4.1832   460.2    7.830      49.356
2015   11        3    23  45    4.1604   460.6    7.771      49.157
2015   11        3    23  53    4.1379   460.9    7.714      48.963
2015   11        4     0   0    4.1155   461.2    7.657      48.772
2015   11        4     0   7    4.0934   461.4    7.603      48.585
2015   11        4     0  15    4.0713   461.7    7.548      48.400
2015   11        4     0  22    4.0496   462.0    7.496      48.218
2015   11        4     0  30    4.0279   462.2    7.443      48.037
2015   11        4     0  37    4.0065   462.5    7.393      47.859
2015   11        4     0  44    3.9851   462.7    7.342      47.681
2015   11        4     0  52    3.9640   462.9    7.294      47.506
2015   11        4     0  59    3.9430   463.1    7.245      47.331
2015   11        4     1   6    3.9222   463.3    7.198      47.158
2015   11        4     1  14    3.9015   463.5    7.152      46.984
2015   11        4     1  21    3.8811   463.7    7.106      46.812
2015   11        4     1  28    3.8606   463.9    7.062      46.639
2015   11        4     1  36    3.8405   464.0    7.018      46.469
2015   11        4     1  43    3.8203   464.2    6.975      46.296
2015   11        4     1  50    3.8005   464.3    6.933      46.126
2015   11        4     1  58    3.7806   464.4    6.892      45.955
2015   11        4     2   5    3.7610   464.6    6.852      45.785
2015   11        4     2  12    3.7414   464.7    6.812      45.613
2015   11        4     2  20    3.7222   464.8    6.773      45.444
2015   11        4     2  27    3.7028   464.9    6.735      45.272
2015   11        4     2  34    3.6838   465.0    6.697      45.103
2015   11        4     2  42    3.6648   465.1    6.660      44.931
2015   11        4     2  49    3.6461   465.1    6.625      44.762
2015   11        4     2  56    3.6273   465.2    6.589      44.591
2015   11        4     3   3    3.6089   465.3    6.555      44.422
2015   11        4     3  11    3.5904   465.3    6.521      44.251
2015   11        4     3  18    3.5723   465.4    6.488      44.082
2015   11        4     3  25    3.5542   465.4    6.455      43.912
2015   11        4     3  33    3.5363   465.4    6.423      43.744
2015   11        4     3  40    3.5185   465.5    6.392      43.574
2015   11        4     3  47    3.5010   465.5    6.362      43.407
2015   11        4     3  55    3.4835   465.5    6.332      43.239
2015   11        4     4   2    3.4664   465.5    6.303      43.073
2015   11        4     4   9    3.4493   465.5    6.275      42.906
2015   11        4     4  17    3.4325   465.5    6.247      42.742
2015   11        4     4  24    3.4159   465.4    6.220      42.577
2015   11        4     4  31    3.3995   465.4    6.194      42.415
2015   11        4     4  39    3.3833   465.4    6.168      42.253
2015   11        4     4  46    3.3674   465.3    6.144      42.094
2015   11        4     4  53    3.3518   465.3    6.119      41.935
2015   11        4     5   1    3.3363   465.2    6.096      41.780
2015   11        4     5   8    3.3212   465.1    6.073      41.626
2015   11        4     5  15    3.3063   465.1    6.051      41.474
2015   11        4     5  23    3.2917   465.0    6.029      41.324
2015   11        4     5  30    3.2773   464.9    6.008      41.178
2015   11        4     5  37    3.2632   464.8    5.988      41.033
2015   11        4     5  45    3.2493   464.7    5.968      40.892
2015   11        4     5  52    3.2357   464.7    5.948      40.753
2015   11        4     5  59    3.2222   464.6    5.929      40.617
2015   11        4     6   7    3.2090   464.5    5.910      40.482
2015   11        4     6  14    3.1960   464.4    5.891      40.351
2015   11        4     6  22    3.1832   464.3    5.873      40.220
2015   11        4     6  29    3.1706   464.2    5.855      40.092
2015   11        4     6  36    3.1581   464.2    5.837      39.964
2015   11        4     6  44    3.1458   464.1    5.819      39.838
2015   11        4     6  51    3.1337   464.0    5.801      39.712
2015   11        4     6  58    3.1216   463.9    5.784      39.588
2015   11        4     7   6    3.1098   463.8    5.767      39.463
2015   11        4     7  13    3.0981   463.7    5.750      39.341
2015   11        4     7  21    3.0865   463.7    5.732      39.219
2015   11        4     7  28    3.0750   463.6    5.715      39.100
2015   11        4     7  35    3.0637   463.5    5.698      38.981
2015   11        4     7  43    3.0525   463.4    5.682      38.864
2015   11        4     7  50    3.0414   463.3    5.665      38.748
2015   11        4     7  57    3.0304   463.2    5.648      38.634
2015   11        4     8   5    3.0196   463.1    5.632      38.520
2015   11        4     8  12    3.0089   463.0    5.615      38.409
2015   11        4     8  19    2.9983   462.9    5.599      38.297
2015   11        4     8  27    2.9879   462.8    5.583      38.188
2015   11        4     8  34    2.9776   462.7    5.567      38.079
2015   11        4     8  41    2.9674   462.6    5.551      37.972
2015   11        4     8  49    2.9573   462.5    5.536      37.865
2015   11        4     8  56    2.9474   462.4    5.521      37.760
2015   11        4     9   3    2.9376   462.3    5.505      37.655
2015   11        4     9  11    2.9280   462.2    5.490      37.552
2015   11        4     9  18    2.9184   462.1    5.475      37.448
2015   11        4     9  25    2.9090   462.0    5.461      37.345
2015   11        4     9  33    2.8997   461.8    5.447      37.242
2015   11        4     9  40    2.8905   461.7    5.432      37.140
2015   11        4     9  47    2.8815   461.6    5.419      37.037
2015   11        4     9  55    2.8726   461.4    5.405      36.935
2015   11        4    10   2    2.8638   461.3    5.392      36.833
2015   11        4    10   9    2.8552   461.1    5.379      36.733
2015   11        4    10  17    2.8467   461.0    5.366      36.631
2015   11        4    10  24    2.8383   460.8    5.354      36.532
2015   11        4    10  31    2.8300   460.7    5.342      36.433
2015   11        4    10  38    2.8219   460.5    5.331      36.336
2015   11        4    10  46    2.8139   460.4    5.319      36.239
2015   11        4    10  53    2.8060   460.2    5.308      36.144
2015   11        4    11   0    2.7983   460.1    5.297      36.049
2015   11        4    11   8    2.7906   459.9    5.287      35.956
2015   11        4    11  15    2.7830   459.8    5.276      35.863
2015   11        4    11  22    2.7756   459.6    5.266      35.772
2015   11        4    11  30    2.7682   459.5    5.255      35.680
2015   11        4    11  37    2.7609   459.3    5.245      35.591
2015   11        4    11  44    2.7537   459.2    5.235      35.500
2015   11        4    11  51    2.7466   459.0    5.225      35.412
2015   11        4    11  59    2.7396   458.9    5.214      35.324
2015   11        4    12   6    2.7327   458.7    5.204      35.236
2015   11        4    12  13    2.7258   458.6    5.194      35.148
2015   11        4    12  21    2.7190   458.4    5.184      35.062
2015   11        4    12  28    2.7122   458.2    5.174      34.974
2015   11        4    12  35    2.7055   458.1    5.164      34.888
2015   11        4    12  43    2.6989   457.9    5.154      34.802
2015   11        4    12  50    2.6924   457.8    5.144      34.718
2015   11        4    12  57    2.6859   457.6    5.134      34.632
2015   11        4    13   5    2.6795   457.4    5.124      34.549
2015   11        4    13  12    2.6731   457.2    5.115      34.465
2015   11        4    13  19    2.6668   457.1    5.105      34.382
2015   11        4    13  27    2.6606   456.9    5.096      34.299
2015   11        4    13  34    2.6544   456.7    5.086      34.218
2015   11        4    13  41    2.6483   456.5    5.077      34.135
2015   11        4    13  49    2.6423   456.3    5.068      34.054
2015   11        4    13  56    2.6362   456.1    5.060      33.972
2015   11        4    14   4    2.6303   455.9    5.051      33.891
2015   11        4    14  11    2.6244   455.7    5.043      33.810
2015   11        4    14  18    2.6186   455.5    5.035      33.730
2015   11        4    14  26    2.6129   455.3    5.027      33.650
2015   11        4    14  33    2.6072   455.1    5.019      33.571
2015   11        4    14  40    2.6016   454.9    5.012      33.492
2015   11        4    14  48    2.5960   454.7    5.004      33.415
2015   11        4    14  55    2.5905   454.5    4.997      33.339
2015   11        4    15   2    2.5850   454.3    4.990      33.264
2015   11        4    15  10    2.5796   454.1    4.984      33.190
2015   11        4    15  17    2.5742   453.9    4.977      33.117
2015   11        4    15  24    2.5689   453.7    4.971      33.044
2015   11        4    15  32    2.5637   453.6    4.964      32.974
2015   11        4    15  39    2.5585   453.4    4.958      32.903
2015   11        4    15  46    2.5534   453.2    4.952      32.834
2015   11        4    15  54    2.5483   453.0    4.946      32.766
2015   11        4    16   1    2.5433   452.8    4.940      32.699
2015   11        4    16   8    2.5383   452.6    4.934      32.632
2015   11        4    16  16    2.5335   452.4    4.928      32.567
2015   11        4    16  23    2.5286   452.2    4.923      32.501
2015   11        4    16  30    2.5239   452.0    4.917      32.437
2015   11        4    16  38    2.5192   451.8    4.912      32.372
2015   11        4    16  45    2.5146   451.6    4.907      32.308
2015   11        4    16  52    2.5100   451.4    4.902      32.243
2015   11        4    17   0    2.5055   451.2    4.897      32.179
2015   11        4    17   7    2.5011   451.0    4.892      32.115
2015   11        4    17  14    2.4967   450.7    4.888      32.051
2015   11        4    17  22    2.4924   450.5    4.884      31.988
2015   11        4    17  29    2.4882   450.3    4.880      31.925
2015   11        4    17  36    2.4840   450.1    4.877      31.862
2015   11        4    17  44    2.4799   449.9    4.873      31.801
2015   11        4    17  51    2.4758   449.7    4.870      31.740
2015   11        4    17  58    2.4718   449.4    4.868      31.681
2015   11        4    18   5    2.4679   449.2    4.865      31.622
2015   11        4    18  13    2.4640   449.0    4.863      31.565
2015   11        4    18  20    2.4601   448.8    4.860      31.508
2015   11        4    18  27    2.4563   448.6    4.858      31.452
2015   11        4    18  35    2.4525   448.4    4.856      31.396
2015   11        4    18  42    2.4487   448.2    4.854      31.340
2015   11        4    18  49    2.4449   448.0    4.851      31.285
2015   11        4    18  57    2.4412   447.8    4.849      31.230
2015   11        4    19   4    2.4375   447.5    4.847      31.175
2015   11        4    19  11    2.4338   447.3    4.844      31.121
2015   11        4    19  19    2.4301   447.1    4.842      31.067
2015   11        4    19  26    2.4265   446.9    4.839      31.012
2015   11        4    19  33    2.4228   446.7    4.837      30.957
2015   11        4    19  40    2.4192   446.5    4.834      30.902
2015   11        4    19  48    2.4156   446.3    4.831      30.846
2015   11        4    19  55    2.4121   446.1    4.829      30.791
2015   11        4    20   2    2.4085   445.8    4.826      30.735
2015   11        4    20  10    2.4050   445.6    4.823      30.680
2015   11        4    20  17    2.4015   445.4    4.820      30.625
2015   11        4    20  24    2.3980   445.2    4.817      30.570
2015   11        4    20  32    2.3946   444.9    4.814      30.514
2015   11        4    20  39    2.3911   444.7    4.812      30.459
2015   11        4    20  47    2.3877   444.5    4.809      30.404
2015   11        4    20  54    2.3843   444.3    4.806      30.350
2015   11        4    21   1    2.3809   444.1    4.803      30.295
2015   11        4    21   9    2.3776   443.8    4.800      30.240
2015   11        4    21  16    2.3743   443.6    4.797      30.186
2015   11        4    21  23    2.3710   443.4    4.794      30.132
2015   11        4    21  31    2.3677   443.2    4.791      30.078
2015   11        4    21  38    2.3644   442.9    4.788      30.024
2015   11        4    21  45    2.3612   442.7    4.785      29.970
2015   11        4    21  53    2.3580   442.5    4.782      29.917
2015   11        4    22   0    2.3548   442.2    4.779      29.863
2015   11        4    22   7    2.3517   442.0    4.776      29.810
2015   11        4    22  15    2.3486   441.8    4.773      29.757
2015   11        4    22  22    2.3455   441.6    4.771      29.705
2015   11        4    22  30    2.3424   441.3    4.768      29.652
2015   11        4    22  37    2.3394   441.1    4.765      29.600
2015   11        4    22  44    2.3364   440.9    4.763      29.548
2015   11        4    22  52    2.3334   440.6    4.760      29.497
2015   11        4    22  59    2.3305   440.4    4.757      29.446
2015   11        4    23   6    2.3276   440.2    4.755      29.395
2015   11        4    23  14    2.3247   439.9    4.753      29.344
2015   11        4    23  21    2.3219   439.7    4.750      29.294
2015   11        4    23  28    2.3190   439.5    4.748      29.244
2015   11        4    23  36    2.3163   439.3    4.746      29.195
2015   11        4    23  43    2.3135   439.0    4.744      29.146
2015   11        4    23  50    2.3108   438.8    4.742      29.098
2015   11        4    23  58    2.3081   438.6    4.740      29.049
2015   11        5     0   5    2.3055   438.4    4.738      29.002
2015   11        5     0  12    2.3029   438.1    4.736      28.954
2015   11        5     0  19    2.3003   437.9    4.735      28.907
2015   11        5     0  27    2.2977   437.7    4.733      28.859
2015   11        5     0  34    2.2952   437.4    4.731      28.813
2015   11        5     0  41    2.2927   437.2    4.730      28.766
2015   11        5     0  49    2.2902   437.0    4.729      28.720
2015   11        5     0  56    2.2877   436.8    4.727      28.674
2015   11        5     1   3    2.2852   436.6    4.726      28.629
2015   11        5     1  11    2.2828   436.3    4.724      28.583
2015   11        5     1  18    2.2804   436.1    4.723      28.537
2015   11        5     1  25    2.2780   435.9    4.722      28.492
2015   11        5     1  33    2.2756   435.7    4.721      28.447
2015   11        5     1  40    2.2732   435.4    4.719      28.401
2015   11        5     1  47    2.2708   435.2    4.718      28.356
2015   11        5     1  54    2.2684   435.0    4.717      28.310
2015   11        5     2   2    2.2660   434.7    4.716      28.265
2015   11        5     2   9    2.2637   434.5    4.715      28.220
2015   11        5     2  16    2.2614   434.3    4.714      28.175
2015   11        5     2  24    2.2590   434.1    4.712      28.129
2015   11        5     2  31    2.2567   433.8    4.711      28.085
2015   11        5     2  38    2.2543   433.6    4.710      28.039
2015   11        5     2  46    2.2520   433.4    4.709      27.994
2015   11        5     2  53    2.2497   433.1    4.708      27.949
2015   11        5     3   0    2.2474   432.9    4.707      27.904
2015   11        5     3   8    2.2452   432.7    4.706      27.859
2015   11        5     3  15    2.2429   432.5    4.705      27.814
2015   11        5     3  22    2.2406   432.2    4.704      27.769
2015   11        5     3  30    2.2384   432.0    4.703      27.724
2015   11        5     3  37    2.2361   431.8    4.702      27.679
2015   11        5     3  44    2.2339   431.5    4.701      27.634
2015   11        5     3  52    2.2316   431.3    4.700      27.589
2015   11        5     3  59    2.2294   431.1    4.699      27.544
2015   11        5     4   6    2.2271   430.8    4.698      27.499
2015   11        5     4  14    2.2249   430.6    4.697      27.454
2015   11        5     4  21    2.2227   430.4    4.696      27.410
2015   11        5     4  28    2.2205   430.1    4.695      27.365
2015   11        5     4  36    2.2183   429.9    4.694      27.320
2015   11        5     4  43    2.2161   429.7    4.693      27.275
2015   11        5     4  51    2.2139   429.4    4.692      27.231
2015   11        5     4  58    2.2117   429.2    4.691      27.186
2015   11        5     5   5    2.2096   428.9    4.690      27.142
2015   11        5     5  13    2.2074   428.7    4.689      27.097
2015   11        5     5  20    2.2053   428.5    4.688      27.053
2015   11        5     5  27    2.2031   428.2    4.688      27.009
2015   11        5     5  35    2.2010   428.0    4.687      26.965
2015   11        5     5  42    2.1989   427.8    4.686      26.922
2015   11        5     5  50    2.1968   427.5    4.685      26.878
2015   11        5     5  57    2.1947   427.3    4.685      26.835
2015   11        5     6   4    2.1926   427.0    4.684      26.792
2015   11        5     6  12    2.1906   426.8    4.684      26.749
2015   11        5     6  19    2.1885   426.6    4.683      26.706
2015   11        5     6  26    2.1865   426.3    4.683      26.664
2015   11        5     6  34    2.1844   426.1    4.682      26.621
2015   11        5     6  41    2.1824   425.9    4.682      26.580
2015   11        5     6  49    2.1804   425.6    4.681      26.537
2015   11        5     6  56    2.1785   425.4    4.681      26.496
2015   11        5     7   3    2.1765   425.1    4.681      26.454
2015   11        5     7  11    2.1745   424.9    4.680      26.413
2015   11        5     7  18    2.1725   424.7    4.680      26.372
2015   11        5     7  25    2.1706   424.4    4.679      26.331
2015   11        5     7  33    2.1686   424.2    4.679      26.290
2015   11        5     7  40    2.1667   423.9    4.679      26.250
2015   11        5     7  47    2.1648   423.7    4.678      26.209
2015   11        5     7  55    2.1629   423.4    4.678      26.168
2015   11        5     8   2    2.1610   423.2    4.677      26.127
2015   11        5     8   9    2.1591   423.0    4.677      26.087
2015   11        5     8  17    2.1572   422.7    4.676      26.046
2015   11        5     8  24    2.1553   422.5    4.675      26.006
2015   11        5     8  31    2.1534   422.2    4.675      25.965
2015   11        5     8  39    2.1516   422.0    4.674      25.925
2015   11        5     8  46    2.1497   421.7    4.673      25.884
2015   11        5     8  53    2.1479   421.5    4.673      25.844
2015   11        5     9   1    2.1460   421.3    4.672      25.803
2015   11        5     9   8    2.1442   421.0    4.671      25.763
2015   11        5     9  15    2.1424   420.8    4.671      25.722
2015   11        5     9  23    2.1406   420.5    4.670      25.682
2015   11        5     9  30    2.1387   420.3    4.669      25.642
2015   11        5     9  37    2.1370   420.0    4.669      25.602
2015   11        5     9  45    2.1352   419.8    4.668      25.562
2015   11        5     9  52    2.1334   419.6    4.667      25.523
2015   11        5     9  59    2.1316   419.3    4.667      25.483
2015   11        5    10   7    2.1299   419.1    4.666      25.444
2015   11        5    10  14    2.1281   418.8    4.666      25.404
2015   11        5    10  21    2.1264   418.6    4.665      25.365
2015   11        5    10  29    2.1247   418.4    4.664      25.326
2015   11        5    10  36    2.1229   418.1    4.664      25.288
2015   11        5    10  43    2.1212   417.9    4.663      25.249
2015   11        5    10  51    2.1195   417.6    4.663      25.210
2015   11        5    10  58    2.1178   417.4    4.663      25.172
2015   11        5    11   5    2.1161   417.2    4.662      25.134
2015   11        5    11  13    2.1144   416.9    4.662      25.095
2015   11        5    11  20    2.1127   416.7    4.661      25.057
2015   11        5    11  28    2.1110   416.4    4.661      25.019
2015   11        5    11  35    2.1093   416.2    4.660      24.981
2015   11        5    11  42    2.1076   416.0    4.660      24.943
2015   11        5    11  50    2.1060   415.7    4.659      24.905
2015   11        5    11  57    2.1043   415.5    4.659      24.867
2015   11        5    12   4    2.1026   415.2    4.659      24.829
2015   11        5    12  12    2.1009   415.0    4.658      24.791
2015   11        5    12  19    2.0992   414.8    4.658      24.753
2015   11        5    12  27    2.0976   414.5    4.657      24.715
2015   11        5    12  34    2.0959   414.3    4.657      24.678
2015   11        5    12  41    2.0942   414.0    4.657      24.640
2015   11        5    12  49    2.0926   413.8    4.657      24.603
2015   11        5    12  56    2.0909   413.6    4.656      24.565
2015   11        5    13   3    2.0892   413.3    4.656      24.528
2015   11        5    13  11    2.0876   413.1    4.656      24.490
2015   11        5    13  18    2.0859   412.8    4.656      24.453
2015   11        5    13  26    2.0843   412.6    4.656      24.416
2015   11        5    13  33    2.0827   412.4    4.655      24.380
2015   11        5    13  40    2.0810   412.1    4.655      24.343
2015   11        5    13  48    2.0794   411.9    4.655      24.306
2015   11        5    13  55    2.0778   411.7    4.655      24.270
2015   11        5    14   2    2.0762   411.4    4.655      24.234
2015   11        5    14  10    2.0746   411.2    4.655      24.198
2015   11        5    14  17    2.0730   411.0    4.656      24.162
2015   11        5    14  24    2.0714   410.7    4.656      24.126
2015   11        5    14  32    2.0698   410.5    4.656      24.091
2015   11        5    14  39    2.0682   410.2    4.656      24.055
2015   11        5    14  46    2.0667   410.0    4.656      24.021
2015   11        5    14  54    2.0651   409.8    4.656      23.985
2015   11        5    15   1    2.0636   409.5    4.657      23.951
2015   11        5    15   9    2.0620   409.3    4.657      23.916
2015   11        5    15  16    2.0605   409.0    4.657      23.881
2015   11        5    15  23    2.0590   408.8    4.657      23.846
2015   11        5    15  30    2.0575   408.6    4.657      23.812
2015   11        5    15  38    2.0560   408.3    4.657      23.777
2015   11        5    15  45    2.0545   408.1    4.658      23.743
2015   11        5    15  53    2.0530   407.9    4.658      23.709
2015   11        5    16   0    2.0515   407.6    4.658      23.674
2015   11        5    16   7    2.0501   407.4    4.658      23.640
2015   11        5    16  15    2.0486   407.1    4.659      23.606
2015   11        5    16  22    2.0472   406.9    4.659      23.572
2015   11        5    16  29    2.0457   406.7    4.659      23.538
2015   11        5    16  37    2.0443   406.4    4.660      23.504
2015   11        5    16  44    2.0429   406.2    4.660      23.470
2015   11        5    16  51    2.0415   405.9    4.660      23.436
2015   11        5    16  59    2.0401   405.7    4.661      23.403
2015   11        5    17   6    2.0387   405.5    4.661      23.370
2015   11        5    17  13    2.0373   405.2    4.662      23.337
2015   11        5    17  21    2.0359   405.0    4.662      23.303
2015   11        5    17  28    2.0346   404.8    4.663      23.271
2015   11        5    17  35    2.0332   404.5    4.663      23.238
2015   11        5    17  43    2.0318   404.3    4.664      23.206
2015   11        5    17  50    2.0305   404.0    4.665      23.173
2015   11        5    17  57    2.0291   403.8    4.665      23.141
2015   11        5    18   5    2.0278   403.6    4.666      23.108
2015   11        5    18  12    2.0264   403.3    4.667      23.076
2015   11        5    18  19    2.0251   403.1    4.667      23.044
2015   11        5    18  27    2.0237   402.8    4.668      23.013
2015   11        5    18  34    2.0224   402.6    4.669      22.981
2015   11        5    18  41    2.0210   402.4    4.670      22.949
2015   11        5    18  49    2.0197   402.1    4.670      22.918
2015   11        5    18  56    2.0184   401.9    4.671      22.887
2015   11        5    19   3    2.0171   401.6    4.672      22.855
2015   11        5    19  11    2.0158   401.4    4.673      22.824
2015   11        5    19  18    2.0144   401.2    4.674      22.793
2015   11        5    19  26    2.0131   400.9    4.675      22.762
2015   11        5    19  33    2.0118   400.7    4.676      22.731
2015   11        5    19  40    2.0105   400.4    4.677      22.701
2015   11        5    19  48    2.0093   400.2    4.678      22.670
2015   11        5    19  55    2.0080   400.0    4.679      22.640
2015   11        5    20   2    2.0067   399.7    4.680      22.609
2015   11        5    20  10    2.0054   399.5    4.681      22.579
2015   11        5    20  17    2.0042   399.2    4.682      22.549
2015   11        5    20  24    2.0029   399.0    4.683      22.519
2015   11        5    20  32    2.0016   398.8    4.684      22.489
2015   11        5    20  39    2.0004   398.5    4.685      22.460
2015   11        5    20  47    1.9991   398.3    4.686      22.430
2015   11        5    20  54    1.9979   398.0    4.687      22.400
2015   11        5    21   1    1.9967   397.8    4.688      22.371
2015   11        5    21   9    1.9954   397.6    4.690      22.341
2015   11        5    21  16    1.9942   397.3    4.691      22.312
2015   11        5    21  23    1.9930   397.1    4.692      22.283
2015   11        5    21  31    1.9918   396.8    4.693      22.253
2015   11        5    21  38    1.9906   396.6    4.694      22.224
2015   11        5    21  45    1.9894   396.4    4.695      22.195
2015   11        5    21  53    1.9882   396.1    4.696      22.166
2015   11        5    22   0    1.9870   395.9    4.697      22.137
2015   11        5    22   7    1.9858   395.7    4.698      22.108
2015   11        5    22  15    1.9847   395.4    4.699      22.079
2015   11        5    22  22    1.9835   395.2    4.700      22.050
2015   11        5    22  30    1.9824   394.9    4.702      22.021
2015   11        5    22  37    1.9812   394.7    4.703      21.993
2015   11        5    22  44    1.9801   394.5    4.704      21.964
2015   11        5    22  51    1.9790   394.2    4.705      21.936
2015   11        5    22  59    1.9779   394.0    4.706      21.907
2015   11        5    23   6    1.9768   393.7    4.707      21.878
2015   11        5    23  14    1.9757   393.5    4.708      21.850
2015   11        5    23  21    1.9747   393.3    4.710      21.821
2015   11        5    23  28    1.9736   393.0    4.711      21.793
2015   11        5    23  35    1.9726   392.8    4.712      21.764
2015   11        5    23  43    1.9715   392.6    4.713      21.736
2015   11        5    23  50    1.9705   392.3    4.714      21.707
2015   11        5    23  58    1.9695   392.1    4.716      21.679
2015   11        6     0   5    1.9685   391.8    4.717      21.651
2015   11        6     0  12    1.9674   391.6    4.718      21.622
2015   11        6     0  19    1.9665   391.4    4.719      21.594
2015   11        6     0  27    1.9654   391.1    4.721      21.566
2015   11        6     0  34    1.9645   390.9    4.722      21.538
2015   11        6     0  42    1.9635   390.6    4.723      21.510
2015   11        6     0  49    1.9625   390.4    4.724      21.482
2015   11        6     0  56    1.9615   390.2    4.726      21.453
2015   11        6     1   3    1.9605   389.9    4.727      21.426
2015   11        6     1  11    1.9595   389.7    4.728      21.397
2015   11        6     1  18    1.9585   389.4    4.730      21.369
2015   11        6     1  26    1.9576   389.2    4.731      21.341
2015   11        6     1  33    1.9566   389.0    4.732      21.313
2015   11        6     1  40    1.9556   388.7    4.734      21.285
2015   11        6     1  48    1.9547   388.5    4.735      21.257
2015   11        6     1  55    1.9537   388.2    4.737      21.229
2015   11        6     2   2    1.9527   388.0    4.738      21.201
2015   11        6     2  10    1.9518   387.7    4.740      21.173
2015   11        6     2  17    1.9509   387.5    4.742      21.145
2015   11        6     2  24    1.9499   387.3    4.743      21.117
2015   11        6     2  32    1.9490   387.0    4.745      21.090
2015   11        6     2  39    1.9481   386.8    4.747      21.062
2015   11        6     2  46    1.9472   386.5    4.749      21.035
2015   11        6     2  54    1.9463   386.3    4.751      21.007
2015   11        6     3   1    1.9455   386.0    4.753      20.980
2015   11        6     3   9    1.9446   385.8    4.755      20.953
2015   11        6     3  16    1.9438   385.5    4.758      20.927
2015   11        6     3  23    1.9430   385.3    4.760      20.900
2015   11        6     3  31    1.9422   385.0    4.762      20.874
2015   11        6     3  38    1.9414   384.8    4.765      20.848
2015   11        6     3  45    1.9406   384.5    4.768      20.822
2015   11        6     3  53    1.9399   384.3    4.770      20.797
2015   11        6     4   0    1.9392   384.0    4.773      20.771
2015   11        6     4   8    1.9385   383.8    4.776      20.746
2015   11        6     4  15    1.9378   383.5    4.779      20.721
2015   11        6     4  22    1.9372   383.3    4.782      20.697
2015   11        6     4  30    1.9365   383.0    4.786      20.673
2015   11        6     4  37    1.9359   382.8    4.789      20.649
2015   11        6     4  44    1.9354   382.5    4.793      20.625
2015   11        6     4  52    1.9348   382.3    4.796      20.602
2015   11        6     4  59    1.9343   382.1    4.800      20.579
2015   11        6     5   6    1.9338   381.8    4.804      20.556
2015   11        6     5  14    1.9334   381.6    4.808      20.534
2015   11        6     5  21    1.9329   381.3    4.812      20.511
2015   11        6     5  28    1.9325   381.1    4.816      20.490
2015   11        6     5  36    1.9322   380.8    4.821      20.468
2015   11        6     5  43    1.9318   380.6    4.825      20.447
2015   11        6     5  50    1.9315   380.3    4.830      20.426
2015   11        6     5  58    1.9312   380.1    4.834      20.405
2015   11        6     6   5    1.9310   379.8    4.839      20.385
2015   11        6     6  12    1.9307   379.6    4.844      20.364
2015   11        6     6  20    1.9305   379.3    4.849      20.344
2015   11        6     6  27    1.9303   379.1    4.854      20.325
2015   11        6     6  34    1.9302   378.8    4.859      20.305
2015   11        6     6  42    1.9301   378.6    4.864      20.286
2015   11        6     6  49    1.9300   378.4    4.869      20.267
2015   11        6     6  56    1.9299   378.1    4.874      20.248
2015   11        6     7   4    1.9298   377.9    4.879      20.229
2015   11        6     7  11    1.9298   377.6    4.885      20.210
2015   11        6     7  18    1.9297   377.4    4.890      20.192
2015   11        6     7  26    1.9297   377.1    4.895      20.174
2015   11        6     7  33    1.9297   376.9    4.901      20.155
2015   11        6     7  40    1.9298   376.6    4.906      20.137
2015   11        6     7  48    1.9298   376.4    4.912      20.119
2015   11        6     7  55    1.9298   376.2    4.917      20.102
2015   11        6     8   2    1.9299   375.9    4.923      20.084
2015   11        6     8  10    1.9300   375.7    4.928      20.066
2015   11        6     8  17    1.9301   375.4    4.933      20.048
2015   11        6     8  24    1.9302   375.2    4.939      20.030
2015   11        6     8  32    1.9303   374.9    4.944      20.012
2015   11        6     8  39    1.9304   374.7    4.950      19.994
2015   11        6     8  46    1.9306   374.5    4.955      19.976
2015   11        6     8  54    1.9307   374.2    4.961      19.958
2015   11        6     9   1    1.9309   374.0    4.966      19.940
2015   11        6     9   8    1.9311   373.7    4.971      19.922
2015   11        6     9  16    1.9313   373.5    4.977      19.903
2015   11        6     9  23    1.9315   373.2    4.982      19.885
2015   11        6     9  30    1.9317   373.0    4.987      19.866
2015   11        6     9  38    1.9319   372.7    4.993      19.848
2015   11        6     9  45    1.9322   372.5    4.998      19.829
2015   11        6     9  53    1.9325   372.2    5.004      19.810
2015   11        6    10   0    1.9328   372.0    5.009      19.791
2015   11        6    10   7    1.9331   371.7    5.014      19.773
2015   11        6    10  15    1.9334   371.5    5.020      19.754
2015   11        6    10  22    1.9337   371.2    5.025      19.735
2015   11        6    10  29    1.9341   371.0    5.031      19.716
2015   11        6    10  37    1.9345   370.7    5.037      19.697
2015   11        6    10  44    1.9349   370.5    5.042      19.678
2015   11        6    10  52    1.9354   370.2    5.048      19.660
2015   11        6    10  59    1.9359   370.0    5.054      19.641
2015   11        6    11   6    1.9364   369.8    5.059      19.623
2015   11        6    11  14    1.9369   369.5    5.065      19.604
2015   11        6    11  21    1.9374   369.3    5.071      19.586
2015   11        6    11  28    1.9381   369.0    5.078      19.567
2015   11        6    11  36    1.9387   368.8    5.084      19.550
2015   11        6    11  43    1.9394   368.5    5.090      19.532
2015   11        6    11  50    1.9401   368.3    5.097      19.514
2015   11        6    11  58    1.9408   368.0    5.103      19.497
2015   11        6    12   5    1.9416   367.8    5.110      19.480
2015   11        6    12  12    1.9424   367.5    5.117      19.462
2015   11        6    12  20    1.9432   367.3    5.124      19.446
2015   11        6    12  27    1.9442   367.1    5.131      19.430
2015   11        6    12  34    1.9451   366.8    5.138      19.414
2015   11        6    12  42    1.9461   366.6    5.146      19.398
2015   11        6    12  49    1.9471   366.3    5.153      19.383
2015   11        6    12  56    1.9482   366.1    5.161      19.367
2015   11        6    13   4    1.9492   365.9    5.169      19.353
2015   11        6    13  11    1.9504   365.6    5.177      19.338
2015   11        6    13  18    1.9516   365.4    5.185      19.325
2015   11        6    13  26    1.9528   365.2    5.194      19.311
2015   11        6    13  33    1.9541   364.9    5.202      19.298
2015   11        6    13  40    1.9554   364.7    5.211      19.285
2015   11        6    13  48    1.9567   364.5    5.220      19.273
2015   11        6    13  55    1.9582   364.2    5.229      19.260
2015   11        6    14   2    1.9596   364.0    5.238      19.249
2015   11        6    14  10    1.9610   363.8    5.248      19.237
2015   11        6    14  17    1.9625   363.6    5.257      19.226
2015   11        6    14  24    1.9641   363.3    5.267      19.215
2015   11        6    14  32    1.9656   363.1    5.277      19.205
2015   11        6    14  39    1.9673   362.9    5.287      19.195
2015   11        6    14  46    1.9689   362.7    5.297      19.185
2015   11        6    14  54    1.9706   362.4    5.307      19.176
2015   11        6    15   1    1.9723   362.2    5.317      19.167
2015   11        6    15   8    1.9740   362.0    5.328      19.158
2015   11        6    15  16    1.9758   361.8    5.338      19.149
2015   11        6    15  23    1.9776   361.6    5.349      19.140
2015   11        6    15  30    1.9794   361.3    5.359      19.132
2015   11        6    15  38    1.9812   361.1    5.370      19.124
2015   11        6    15  45    1.9831   360.9    5.381      19.116
2015   11        6    15  52    1.9850   360.7    5.392      19.108
2015   11        6    16   0    1.9869   360.5    5.403      19.101
2015   11        6    16   7    1.9889   360.3    5.414      19.093
2015   11        6    16  14    1.9909   360.1    5.425      19.086
2015   11        6    16  22    1.9929   359.8    5.436      19.079
2015   11        6    16  29    1.9949   359.6    5.447      19.072
2015   11        6    16  36    1.9970   359.4    5.459      19.064
2015   11        6    16  44    1.9990   359.2    5.470      19.058
2015   11        6    16  51    2.0011   359.0    5.481      19.051
2015   11        6    16  59    2.0032   358.8    5.492      19.044
2015   11        6    17   6    2.0054   358.6    5.504      19.037
2015   11        6    17  13    2.0075   358.4    5.515      19.030
2015   11        6    17  21    2.0097   358.1    5.527      19.023
2015   11        6    17  28    2.0119   357.9    5.538      19.016
2015   11        6    17  35    2.0141   357.7    5.549      19.009
2015   11        6    17  43    2.0163   357.5    5.561      19.003
2015   11        6    17  50    2.0186   357.3    5.572      18.996
2015   11        6    17  57    2.0209   357.1    5.584      18.989
2015   11        6    18   5    2.0232   356.9    5.595      18.983
2015   11        6    18  12    2.0255   356.7    5.606      18.976
2015   11        6    18  20    2.0278   356.5    5.618      18.969
2015   11        6    18  27    2.0301   356.3    5.629      18.962
2015   11        6    18  34    2.0325   356.1    5.640      18.955
2015   11        6    18  42    2.0349   355.9    5.652      18.948
2015   11        6    18  49    2.0373   355.7    5.663      18.942
2015   11        6    18  56    2.0397   355.5    5.674      18.935
2015   11        6    19   4    2.0422   355.2    5.686      18.928
2015   11        6    19  11    2.0446   355.0    5.697      18.921
2015   11        6    19  18    2.0471   354.8    5.708      18.914
2015   11        6    19  26    2.0496   354.6    5.719      18.907
2015   11        6    19  33    2.0521   354.4    5.731      18.900
2015   11        6    19  40    2.0547   354.2    5.742      18.893
2015   11        6    19  48    2.0572   354.0    5.753      18.887
2015   11        6    19  55    2.0598   353.8    5.765      18.880
2015   11        6    20   2    2.0624   353.6    5.776      18.873
2015   11        6    20  10    2.0650   353.4    5.787      18.866
2015   11        6    20  17    2.0677   353.2    5.799      18.860
2015   11        6    20  24    2.0704   353.0    5.810      18.853
2015   11        6    20  32    2.0731   352.8    5.821      18.846
2015   11        6    20  39    2.0758   352.6    5.833      18.840
2015   11        6    20  46    2.0786   352.4    5.844      18.834
2015   11        6    20  54    2.0814   352.2    5.856      18.827
2015   11        6    21   1    2.0842   352.0    5.867      18.821
2015   11        6    21   8    2.0870   351.8    5.879      18.815
2015   11        6    21  16    2.0899   351.6    5.891      18.809
2015   11        6    21  23    2.0928   351.4    5.902      18.804
2015   11        6    21  30    2.0957   351.2    5.914      18.798
2015   11        6    21  38    2.0987   351.1    5.926      18.793
2015   11        6    21  45    2.1017   350.9    5.938      18.788
2015   11        6    21  52    2.1047   350.7    5.950      18.783
2015   11        6    22   0    2.1078   350.5    5.963      18.778
2015   11        6    22   7    2.1109   350.3    5.975      18.773
2015   11        6    22  14    2.1140   350.1    5.987      18.769
2015   11        6    22  22    2.1172   349.9    6.000      18.765
2015   11        6    22  29    2.1204   349.7    6.013      18.761
2015   11        6    22  36    2.1236   349.5    6.025      18.758
2015   11        6    22  44    2.1269   349.3    6.038      18.754
2015   11        6    22  51    2.1302   349.2    6.051      18.751
2015   11        6    22  58    2.1336   349.0    6.064      18.748
2015   11        6    23   6    2.1369   348.8    6.078      18.746
2015   11        6    23  13    2.1404   348.6    6.091      18.744
2015   11        6    23  20    2.1438   348.4    6.105      18.742
2015   11        6    23  28    2.1473   348.2    6.118      18.740
2015   11        6    23  35    2.1508   348.1    6.132      18.739
2015   11        6    23  42    2.1543   347.9    6.146      18.738
2015   11        6    23  50    2.1579   347.7    6.160      18.737
2015   11        6    23  57    2.1615   347.5    6.175      18.736
2015   11        7     0   4    2.1652   347.3    6.189      18.736
2015   11        7     0  12    2.1689   347.2    6.203      18.736
2015   11        7     0  19    2.1726   347.0    6.218      18.736
2015   11        7     0  26    2.1763   346.8    6.233      18.736
2015   11        7     0  34    2.1801   346.6    6.248      18.737
2015   11        7     0  41    2.1839   346.5    6.263      18.738
2015   11        7     0  49    2.1877   346.3    6.278      18.739
2015   11        7     0  56    2.1915   346.1    6.293      18.740
2015   11        7     1   3    2.1954   346.0    6.308      18.742
2015   11        7     1  11    2.1993   345.8    6.324      18.744
2015   11        7     1  18    2.2032   345.6    6.339      18.745
2015   11        7     1  25    2.2072   345.5    6.355      18.748
2015   11        7     1  33    2.2111   345.3    6.370      18.750
2015   11        7     1  40    2.2152   345.1    6.386      18.753
2015   11        7     1  47    2.2192   345.0    6.402      18.755
2015   11        7     1  55    2.2232   344.8    6.418      18.758
2015   11        7     2   2    2.2273   344.6    6.434      18.761
2015   11        7     2  10    2.2314   344.5    6.450      18.765
2015   11        7     2  17    2.2355   344.3    6.466      18.768
2015   11        7     2  24    2.2396   344.1    6.482      18.771
2015   11        7     2  32    2.2437   344.0    6.498      18.775
2015   11        7     2  39    2.2479   343.8    6.515      18.779
2015   11        7     2  46    2.2521   343.7    6.531      18.783
2015   11        7     2  54    2.2563   343.5    6.548      18.787
2015   11        7     3   1    2.2605   343.3    6.564      18.792
2015   11        7     3   8    2.2648   343.2    6.581      18.796
2015   11        7     3  16    2.2691   343.0    6.598      18.801
2015   11        7     3  23    2.2734   342.9    6.614      18.806
2015   11        7     3  30    2.2777   342.7    6.631      18.811
2015   11        7     3  38    2.2821   342.6    6.648      18.816
2015   11        7     3  45    2.2864   342.4    6.665      18.822
2015   11        7     3  52    2.2908   342.2    6.683      18.827
2015   11        7     3  59    2.2952   342.1    6.700      18.833
2015   11        7     4   7    2.2997   341.9    6.717      18.839
2015   11        7     4  14    2.3042   341.8    6.735      18.845
2015   11        7     4  21    2.3087   341.6    6.753      18.852
2015   11        7     4  29    2.3132   341.5    6.770      18.858
2015   11        7     4  36    2.3178   341.3    6.788      18.865
2015   11        7     4  43    2.3224   341.2    6.806      18.873
2015   11        7     4  51    2.3270   341.0    6.824      18.880
2015   11        7     4  58    2.3316   340.9    6.842      18.888
2015   11        7     5   5    2.3364   340.7    6.860      18.896
2015   11        7     5  13    2.3411   340.6    6.879      18.904
2015   11        7     5  20    2.3458   340.4    6.897      18.913
2015   11        7     5  27    2.3506   340.3    6.916      18.921
2015   11        7     5  35    2.3555   340.1    6.935      18.930
2015   11        7     5  42    2.3603   340.0    6.954      18.940
2015   11        7     5  49    2.3652   339.9    6.973      18.950
2015   11        7     5  57    2.3701   339.7    6.992      18.959
2015   11        7     6   4    2.3751   339.6    7.011      18.970
2015   11        7     6  11    2.3801   339.4    7.031      18.980
2015   11        7     6  19    2.3851   339.3    7.050      18.991
2015   11        7     6  26    2.3901   339.2    7.070      19.002
2015   11        7     6  33    2.3952   339.0    7.089      19.014
2015   11        7     6  41    2.4003   338.9    7.109      19.025
2015   11        7     6  48    2.4055   338.8    7.129      19.037
2015   11        7     6  55    2.4107   338.6    7.149      19.050
2015   11        7     7   3    2.4159   338.5    7.169      19.062
2015   11        7     7  10    2.4211   338.4    7.190      19.075
2015   11        7     7  17    2.4265   338.2    7.210      19.088
2015   11        7     7  25    2.4318   338.1    7.230      19.102
2015   11        7     7  32    2.4371   338.0    7.251      19.116
2015   11        7     7  40    2.4425   337.9    7.271      19.130
2015   11        7     7  47    2.4479   337.7    7.292      19.144
2015   11        7     7  54    2.4533   337.6    7.313      19.159
2015   11        7     8   2    2.4588   337.5    7.334      19.174
2015   11        7     8   9    2.4643   337.4    7.354      19.189
2015   11        7     8  16    2.4698   337.2    7.375      19.204
2015   11        7     8  24    2.4753   337.1    7.396      19.220
2015   11        7     8  31    2.4809   337.0    7.417      19.236
2015   11        7     8  38    2.4865   336.9    7.438      19.252
2015   11        7     8  46    2.4921   336.8    7.460      19.268
2015   11        7     8  53    2.4977   336.7    7.481      19.285
2015   11        7     9   1    2.5034   336.6    7.502      19.302
2015   11        7     9   8    2.5091   336.4    7.523      19.319
2015   11        7     9  15    2.5148   336.3    7.545      19.337
2015   11        7     9  23    2.5205   336.2    7.566      19.355
2015   11        7     9  30    2.5263   336.1    7.588      19.373
2015   11        7     9  37    2.5321   336.0    7.609      19.391
2015   11        7     9  45    2.5379   335.9    7.631      19.410
2015   11        7     9  52    2.5438   335.8    7.653      19.429
2015   11        7     9  59    2.5497   335.7    7.675      19.448
2015   11        7    10   7    2.5555   335.6    7.697      19.467
2015   11        7    10  14    2.5615   335.5    7.719      19.487
2015   11        7    10  21    2.5674   335.4    7.741      19.507
2015   11        7    10  29    2.5734   335.3    7.763      19.528
2015   11        7    10  36    2.5794   335.2    7.785      19.548
2015   11        7    10  43    2.5855   335.1    7.808      19.569
2015   11        7    10  50    2.5915   335.0    7.830      19.590
2015   11        7    10  58    2.5977   334.9    7.853      19.612
2015   11        7    11   5    2.6037   334.8    7.876      19.633
2015   11        7    11  12    2.6100   334.7    7.899      19.655
2015   11        7    11  20    2.6161   334.7    7.922      19.678
2015   11        7    11  27    2.6224   334.6    7.945      19.700
2015   11        7    11  34    2.6286   334.5    7.969      19.723
2015   11        7    11  42    2.6349   334.4    7.992      19.746
2015   11        7    11  49    2.6412   334.3    8.016      19.770
2015   11        7    11  56    2.6476   334.2    8.040      19.793
2015   11        7    12   4    2.6540   334.1    8.064      19.817
2015   11        7    12  11    2.6604   334.1    8.088      19.841
2015   11        7    12  18    2.6669   334.0    8.113      19.866
2015   11        7    12  26    2.6734   333.9    8.137      19.891
2015   11        7    12  33    2.6798   333.8    8.162      19.916
2015   11        7    12  40    2.6864   333.7    8.187      19.942
2015   11        7    12  48    2.6929   333.7    8.211      19.968
2015   11        7    12  55    2.6995   333.6    8.237      19.994
2015   11        7    13   2    2.7061   333.5    8.261      20.021
2015   11        7    13  10    2.7127   333.4    8.287      20.048
2015   11        7    13  17    2.7193   333.4    8.312      20.075
2015   11        7    13  24    2.7260   333.3    8.337      20.103
2015   11        7    13  32    2.7326   333.2    8.362      20.131
2015   11        7    13  39    2.7393   333.2    8.388      20.160
2015   11        7    13  46    2.7460   333.1    8.413      20.189
2015   11        7    13  54    2.7527   333.0    8.438      20.218
2015   11        7    14   1    2.7594   333.0    8.463      20.247
2015   11        7    14   8    2.7662   332.9    8.489      20.277
2015   11        7    14  16    2.7729   332.9    8.514      20.307
2015   11        7    14  23    2.7797   332.8    8.539      20.337
2015   11        7    14  30    2.7865   332.7    8.564      20.368
2015   11        7    14  38    2.7933   332.7    8.589      20.399
2015   11        7    14  45    2.8001   332.6    8.614      20.430
2015   11        7    14  52    2.8069   332.6    8.640      20.461
2015   11        7    15   0    2.8137   332.5    8.664      20.492
2015   11        7    15   7    2.8205   332.5    8.689      20.524
2015   11        7    15  15    2.8273   332.4    8.714      20.556
2015   11        7    15  22    2.8341   332.4    8.738      20.588
2015   11        7    15  29    2.8409   332.3    8.763      20.619
2015   11        7    15  37    2.8478   332.3    8.787      20.652
2015   11        7    15  44    2.8546   332.2    8.811      20.684
2015   11        7    15  51    2.8614   332.2    8.835      20.716
2015   11        7    15  59    2.8682   332.1    8.859      20.748
2015   11        7    16   6    2.8751   332.1    8.883      20.781
2015   11        7    16  13    2.8819   332.0    8.906      20.813
2015   11        7    16  21    2.8887   332.0    8.930      20.845
2015   11        7    16  28    2.8956   331.9    8.953      20.877
2015   11        7    16  35    2.9024   331.9    8.977      20.910
2015   11        7    16  43    2.9093   331.9    9.000      20.942
2015   11        7    16  50    2.9162   331.8    9.023      20.974
2015   11        7    16  57    2.9230   331.8    9.046      21.006
2015   11        7    17   5    2.9299   331.7    9.069      21.038
2015   11        7    17  12    2.9368   331.7    9.092      21.070
2015   11        7    17  19    2.9437   331.7    9.115      21.102
2015   11        7    17  27    2.9506   331.6    9.137      21.134
2015   11        7    17  34    2.9576   331.6    9.160      21.166
2015   11        7    17  41    2.9645   331.5    9.183      21.197
2015   11        7    17  49    2.9716   331.5    9.206      21.229
2015   11        7    17  56    2.9785   331.5    9.229      21.261
2015   11        7    18   3    2.9856   331.4    9.251      21.293
2015   11        7    18  11    2.9926   331.4    9.274      21.325
2015   11        7    18  18    2.9997   331.4    9.297      21.357
2015   11        7    18  25    3.0068   331.3    9.320      21.388
2015   11        7    18  33    3.0140   331.3    9.343      21.421
2015   11        7    18  40    3.0211   331.3    9.366      21.452
2015   11        7    18  47    3.0283   331.3    9.389      21.485
2015   11        7    18  55    3.0355   331.2    9.412      21.517
2015   11        7    19   2    3.0429   331.2    9.436      21.549
2015   11        7    19   9    3.0501   331.2    9.459      21.582
2015   11        7    19  17    3.0575   331.1    9.483      21.615
2015   11        7    19  24    3.0648   331.1    9.507      21.647
2015   11        7    19  31    3.0723   331.1    9.531      21.680
2015   11        7    19  38    3.0796   331.1    9.555      21.713
2015   11        7    19  46    3.0871   331.1    9.580      21.747
2015   11        7    19  53    3.0945   331.0    9.604      21.781
2015   11        7    20   0    3.1020   331.0    9.629      21.816
2015   11        7    20   8    3.1095   331.0    9.653      21.851
2015   11        7    20  15    3.1170   331.0    9.678      21.887
2015   11        7    20  22    3.1244   331.0    9.702      21.923
2015   11        7    20  30    3.1320   331.0    9.727      21.960
2015   11        7    20  37    3.1394   331.0    9.751      21.997
2015   11        7    20  44    3.1469   331.0    9.775      22.035
2015   11        7    20  52    3.1543   331.0    9.799      22.074
2015   11        7    20  59    3.1618   331.0    9.823      22.113
2015   11        7    21   6    3.1692   331.0    9.847      22.152
2015   11        7    21  14    3.1767   331.0    9.871      22.192
2015   11        7    21  21    3.1841   331.0    9.895      22.231
2015   11        7    21  28    3.1916   331.0    9.919      22.272
2015   11        7    21  36    3.1990   331.0    9.942      22.312
2015   11        7    21  43    3.2064   331.0    9.966      22.353
2015   11        7    21  51    3.2138   331.0    9.989      22.393
2015   11        7    21  58    3.2213   331.0   10.012      22.435
2015   11        7    22   5    3.2286   331.0   10.035      22.475
2015   11        7    22  13    3.2361   331.0   10.058      22.517
2015   11        7    22  20    3.2434   331.0   10.080      22.558
2015   11        7    22  27    3.2508   331.0   10.103      22.599
2015   11        7    22  35    3.2582   331.0   10.125      22.640
2015   11        7    22  42    3.2656   331.0   10.148      22.681
2015   11        7    22  49    3.2729   331.0   10.170      22.722
2015   11        7    22  57    3.2803   331.0   10.192      22.763
2015   11        7    23   4    3.2876   331.0   10.214      22.803
2015   11        7    23  12    3.2950   331.0   10.236      22.845
2015   11        7    23  19    3.3023   331.0   10.257      22.885
2015   11        7    23  26    3.3097   331.0   10.279      22.926
2015   11        7    23  34    3.3171   331.0   10.300      22.966
2015   11        7    23  41    3.3245   331.0   10.322      23.007
2015   11        7    23  48    3.3318   331.1   10.343      23.047
2015   11        7    23  56    3.3392   331.1   10.365      23.087
2015   11        8     0   3    3.3466   331.1   10.386      23.127
2015   11        8     0  10    3.3541   331.1   10.407      23.166
2015   11        8     0  18    3.3615   331.1   10.429      23.206
2015   11        8     0  25    3.3689   331.1   10.450      23.245
2015   11        8     0  32    3.3763   331.1   10.471      23.285
2015   11        8     0  40    3.3838   331.1   10.493      23.324
2015   11        8     0  47    3.3912   331.1   10.514      23.363
2015   11        8     0  54    3.3988   331.2   10.535      23.403
2015   11        8     1   2    3.4062   331.2   10.557      23.443
2015   11        8     1   9    3.4137   331.2   10.578      23.483
2015   11        8     1  16    3.4212   331.2   10.599      23.523
2015   11        8     1  24    3.4287   331.2   10.621      23.564
2015   11        8     1  31    3.4362   331.3   10.642      23.604
2015   11        8     1  38    3.4438   331.3   10.663      23.645
2015   11        8     1  45    3.4513   331.3   10.685      23.686
2015   11        8     1  53    3.4589   331.3   10.706      23.727
2015   11        8     2   0    3.4664   331.4   10.727      23.767
2015   11        8     2   7    3.4741   331.4   10.749      23.808
2015   11        8     2  15    3.4817   331.4   10.770      23.849
2015   11        8     2  22    3.4894   331.4   10.792      23.891
2015   11        8     2  29    3.4970   331.5   10.814      23.932
2015   11        8     2  37    3.5048   331.5   10.836      23.973
2015   11        8     2  44    3.5125   331.5   10.858      24.014
2015   11        8     2  51    3.5203   331.6   10.881      24.055
2015   11        8     2  58    3.5280   331.6   10.903      24.096
2015   11        8     3   6    3.5359   331.6   10.926      24.138
2015   11        8     3  13    3.5437   331.7   10.948      24.181
2015   11        8     3  20    3.5516   331.7   10.971      24.224
2015   11        8     3  28    3.5593   331.8   10.994      24.267
2015   11        8     3  35    3.5672   331.8   11.017      24.312
2015   11        8     3  42    3.5750   331.8   11.039      24.357
2015   11        8     3  50    3.5829   331.9   11.062      24.402
2015   11        8     3  57    3.5906   331.9   11.084      24.448
2015   11        8     4   4    3.5984   332.0   11.106      24.494
2015   11        8     4  12    3.6061   332.0   11.128      24.540
2015   11        8     4  19    3.6139   332.1   11.149      24.586
2015   11        8     4  26    3.6215   332.1   11.171      24.632
2015   11        8     4  34    3.6292   332.2   11.192      24.679
2015   11        8     4  41    3.6368   332.2   11.212      24.725
2015   11        8     4  49    3.6444   332.3   11.233      24.772
2015   11        8     4  56    3.6520   332.3   11.253      24.817
2015   11        8     5   3    3.6596   332.4   11.273      24.863
2015   11        8     5  11    3.6671   332.4   11.293      24.909
2015   11        8     5  18    3.6747   332.5   11.312      24.954
2015   11        8     5  25    3.6822   332.5   11.332      24.998
2015   11        8     5  33    3.6897   332.6   11.351      25.043
2015   11        8     5  40    3.6972   332.7   11.370      25.087
2015   11        8     5  47    3.7047   332.7   11.389      25.131
2015   11        8     5  55    3.7122   332.8   11.408      25.175
2015   11        8     6   2    3.7198   332.8   11.427      25.218
2015   11        8     6   9    3.7273   332.9   11.446      25.262
2015   11        8     6  17    3.7349   332.9   11.465      25.305
2015   11        8     6  24    3.7425   333.0   11.484      25.348
2015   11        8     6  32    3.7502   333.0   11.503      25.392
2015   11        8     6  39    3.7578   333.1   11.523      25.435
2015   11        8     6  46    3.7656   333.1   11.542      25.478
2015   11        8     6  54    3.7733   333.2   11.562      25.521
2015   11        8     7   1    3.7812   333.3   11.582      25.564
2015   11        8     7   8    3.7891   333.3   11.602      25.608
2015   11        8     7  16    3.7970   333.4   11.622      25.653
2015   11        8     7  23    3.8050   333.4   11.643      25.698
2015   11        8     7  30    3.8130   333.5   11.663      25.743
2015   11        8     7  38    3.8210   333.6   11.683      25.789
2015   11        8     7  45    3.8291   333.7   11.703      25.836
2015   11        8     7  52    3.8372   333.7   11.723      25.884
2015   11        8     8   0    3.8453   333.8   11.743      25.932
2015   11        8     8   7    3.8533   333.9   11.763      25.980
2015   11        8     8  14    3.8614   334.0   11.783      26.028
2015   11        8     8  21    3.8693   334.0   11.802      26.077
2015   11        8     8  29    3.8774   334.1   11.821      26.126
2015   11        8     8  36    3.8853   334.2   11.839      26.175
2015   11        8     8  43    3.8932   334.3   11.857      26.224
2015   11        8     8  51    3.9010   334.4   11.875      26.273
2015   11        8     8  58    3.9089   334.5   11.892      26.322
2015   11        8     9   5    3.9166   334.5   11.909      26.369
2015   11        8     9  13    3.9243   334.6   11.926      26.417
2015   11        8     9  20    3.9320   334.7   11.942      26.464
2015   11        8     9  27    3.9397   334.8   11.958      26.512
2015   11        8     9  35    3.9473   334.9   11.974      26.558
2015   11        8     9  42    3.9550   335.0   11.990      26.604
2015   11        8     9  49    3.9625   335.1   12.006      26.650
2015   11        8     9  56    3.9702   335.1   12.022      26.696
2015   11        8    10   4    3.9778   335.2   12.037      26.741
2015   11        8    10  11    3.9855   335.3   12.053      26.786
2015   11        8    10  18    3.9931   335.4   12.069      26.831
2015   11        8    10  26    4.0008   335.5   12.085      26.876
2015   11        8    10  33    4.0084   335.6   12.101      26.920
2015   11        8    10  40    4.0161   335.7   12.117      26.965
2015   11        8    10  48    4.0238   335.8   12.133      27.010
2015   11        8    10  55    4.0315   335.8   12.150      27.055
2015   11        8    11   2    4.0392   335.9   12.167      27.100
2015   11        8    11  10    4.0469   336.0   12.183      27.146
2015   11        8    11  17    4.0545   336.1   12.200      27.193
2015   11        8    11  24    4.0621   336.2   12.217      27.241
2015   11        8    11  32    4.0697   336.3   12.233      27.288
2015   11        8    11  39    4.0772   336.4   12.250      27.337
2015   11        8    11  46    4.0847   336.5   12.266      27.386
2015   11        8    11  54    4.0922   336.6   12.283      27.435
2015   11        8    12   1    4.0996   336.7   12.299      27.484
2015   11        8    12   8    4.1069   336.8   12.315      27.534
2015   11        8    12  16    4.1142   336.9   12.330      27.583
2015   11        8    12  23    4.1214   337.0   12.346      27.633
2015   11        8    12  30    4.1285   337.2   12.360      27.682
2015   11        8    12  38    4.1357   337.3   12.375      27.732
2015   11        8    12  45    4.1427   337.4   12.390      27.781
2015   11        8    12  53    4.1497   337.5   12.404      27.830
2015   11        8    13   0    4.1567   337.6   12.418      27.878
2015   11        8    13   7    4.1636   337.7   12.431      27.926
2015   11        8    13  15    4.1705   337.8   12.445      27.973
2015   11        8    13  22    4.1774   337.9   12.459      28.021
2015   11        8    13  29    4.1842   338.0   12.472      28.067
2015   11        8    13  37    4.1911   338.1   12.485      28.114
2015   11        8    13  44    4.1979   338.3   12.499      28.160
2015   11        8    13  51    4.2048   338.4   12.513      28.206
2015   11        8    13  59    4.2117   338.5   12.526      28.252
2015   11        8    14   6    4.2187   338.6   12.540      28.298
2015   11        8    14  13    4.2256   338.7   12.554      28.344
2015   11        8    14  21    4.2327   338.8   12.569      28.390
2015   11        8    14  28    4.2397   338.9   12.584      28.435
2015   11        8    14  35    4.2468   339.0   12.600      28.481
2015   11        8    14  43    4.2539   339.2   12.615      28.527
2015   11        8    14  50    4.2610   339.3   12.632      28.575
2015   11        8    14  57    4.2682   339.4   12.648      28.623
2015   11        8    15   5    4.2754   339.5   12.665      28.671
2015   11        8    15  12    4.2826   339.6   12.683      28.720
2015   11        8    15  19    4.2899   339.8   12.701      28.771
2015   11        8    15  27    4.2970   339.9   12.719      28.823
2015   11        8    15  34    4.3043   340.0   12.737      28.877
2015   11        8    15  41    4.3114   340.1   12.755      28.931
2015   11        8    15  49    4.3185   340.3   12.773      28.987
2015   11        8    15  56    4.3255   340.4   12.791      29.043
2015   11        8    16   3    4.3324   340.6   12.809      29.101
2015   11        8    16  11    4.3393   340.7   12.827      29.159
2015   11        8    16  18    4.3462   340.9   12.844      29.218
2015   11        8    16  25    4.3529   341.0   12.861      29.277
2015   11        8    16  32    4.3595   341.1   12.878      29.336
2015   11        8    16  40    4.3660   341.3   12.894      29.395
2015   11        8    16  47    4.3725   341.4   12.910      29.454
2015   11        8    16  54    4.3788   341.6   12.925      29.514
2015   11        8    17   2    4.3851   341.7   12.939      29.574
2015   11        8    17   9    4.3912   341.9   12.953      29.633
2015   11        8    17  16    4.3972   342.1   12.967      29.693
2015   11        8    17  24    4.4032   342.2   12.980      29.752
2015   11        8    17  31    4.4090   342.4   12.992      29.811
2015   11        8    17  38    4.4147   342.5   13.004      29.869
2015   11        8    17  45    4.4204   342.7   13.014      29.928
2015   11        8    17  53    4.4259   342.8   13.025      29.985
2015   11        8    18   0    4.4313   343.0   13.034      30.042
2015   11        8    18   7    4.4366   343.2   13.043      30.098
2015   11        8    18  15    4.4418   343.3   13.051      30.154
2015   11        8    18  22    4.4469   343.5   13.058      30.208
2015   11        8    18  29    4.4520   343.7   13.065      30.262
2015   11        8    18  37    4.4569   343.8   13.071      30.314
2015   11        8    18  44    4.4618   344.0   13.076      30.366
2015   11        8    18  51    4.4666   344.1   13.081      30.416
2015   11        8    18  59    4.4714   344.3   13.086      30.466
2015   11        8    19   6    4.4760   344.4   13.089      30.514
2015   11        8    19  13    4.4806   344.6   13.093      30.561
2015   11        8    19  21    4.4852   344.8   13.096      30.607
2015   11        8    19  28    4.4898   344.9   13.098      30.652
2015   11        8    19  35    4.4942   345.1   13.100      30.696
2015   11        8    19  43    4.4987   345.2   13.102      30.740
2015   11        8    19  50    4.5031   345.4   13.104      30.782
2015   11        8    19  58    4.5076   345.5   13.105      30.824
2015   11        8    20   5    4.5120   345.7   13.106      30.865
2015   11        8    20  12    4.5163   345.8   13.107      30.906
2015   11        8    20  20    4.5207   346.0   13.107      30.946
2015   11        8    20  27    4.5251   346.2   13.108      30.985
2015   11        8    20  34    4.5294   346.3   13.109      31.023
2015   11        8    20  42    4.5338   346.5   13.109      31.062
2015   11        8    20  49    4.5381   346.6   13.109      31.099
2015   11        8    20  56    4.5424   346.8   13.110      31.137
2015   11        8    21   4    4.5468   346.9   13.110      31.174
2015   11        8    21  11    4.5512   347.1   13.111      31.211
2015   11        8    21  18    4.5555   347.2   13.111      31.247
2015   11        8    21  26    4.5599   347.4   13.112      31.284
2015   11        8    21  33    4.5643   347.5   13.113      31.320
2015   11        8    21  40    4.5688   347.7   13.114      31.356
2015   11        8    21  48    4.5733   347.8   13.115      31.392
2015   11        8    21  55    4.5778   348.0   13.117      31.427
2015   11        8    22   2    4.5824   348.1   13.119      31.463
2015   11        8    22  10    4.5870   348.3   13.122      31.499
2015   11        8    22  17    4.5917   348.4   13.125      31.536
2015   11        8    22  24    4.5965   348.6   13.128      31.574
2015   11        8    22  32    4.6013   348.7   13.131      31.612
2015   11        8    22  39    4.6063   348.9   13.135      31.651
2015   11        8    22  46    4.6114   349.0   13.139      31.691
2015   11        8    22  54    4.6165   349.2   13.143      31.732
2015   11        8    23   1    4.6218   349.4   13.148      31.773
2015   11        8    23   8    4.6271   349.5   13.152      31.815
2015   11        8    23  16    4.6325   349.7   13.157      31.857
2015   11        8    23  23    4.6380   349.8   13.163      31.899
2015   11        8    23  30    4.6436   350.0   13.168      31.943
2015   11        8    23  38    4.6493   350.2   13.174      31.987
2015   11        8    23  45    4.6551   350.3   13.179      32.032
2015   11        8    23  52    4.6610   350.5   13.186      32.078
2015   11        8    23  59    4.6670   350.6   13.193      32.124
2015   11        9     0   7    4.6731   350.8   13.200      32.170
2015   11        9     0  14    4.6792   351.0   13.208      32.217
2015   11        9     0  21    4.6855   351.2   13.216      32.267
2015   11        9     0  29    4.6918   351.3   13.224      32.317
2015   11        9     0  36    4.6981   351.5   13.233      32.369
2015   11        9     0  43    4.7044   351.7   13.242      32.423
2015   11        9     0  51    4.7107   351.9   13.250      32.478
2015   11        9     0  58    4.7169   352.1   13.259      32.534
2015   11        9     1   5    4.7231   352.3   13.267      32.592
2015   11        9     1  13    4.7291   352.5   13.275      32.650
2015   11        9     1  20    4.7351   352.7   13.283      32.710
2015   11        9     1  27    4.7409   352.9   13.289      32.769
2015   11        9     1  35    4.7466   353.1   13.296      32.830
2015   11        9     1  42    4.7520   353.3   13.301      32.890
2015   11        9     1  49    4.7572   353.5   13.305      32.951
2015   11        9     1  56    4.7622   353.7   13.308      33.010
2015   11        9     2   4    4.7671   354.0   13.310      33.068
2015   11        9     2  11    4.7717   354.2   13.312      33.125
2015   11        9     2  19    4.7762   354.4   13.312      33.181
2015   11        9     2  26    4.7804   354.6   13.312      33.236
2015   11        9     2  33    4.7845   354.8   13.310      33.290
2015   11        9     2  41    4.7884   355.0   13.308      33.342
2015   11        9     2  48    4.7922   355.2   13.306      33.393
2015   11        9     2  55    4.7959   355.5   13.302      33.442
2015   11        9     3   3    4.7994   355.7   13.298      33.491
2015   11        9     3  10    4.8029   355.9   13.294      33.538
2015   11        9     3  17    4.8062   356.1   13.289      33.584
2015   11        9     3  25    4.8094   356.3   13.283      33.630
2015   11        9     3  32    4.8126   356.5   13.278      33.674
2015   11        9     3  39    4.8157   356.7   13.272      33.718
2015   11        9     3  47    4.8188   356.9   13.266      33.761
2015   11        9     3  54    4.8218   357.1   13.259      33.804
2015   11        9     4   2    4.8248   357.3   13.253      33.846
2015   11        9     4   9    4.8277   357.5   13.246      33.887
2015   11        9     4  16    4.8306   357.7   13.240      33.929
2015   11        9     4  24    4.8334   357.9   13.233      33.969
2015   11        9     4  31    4.8363   358.1   13.226      34.010
2015   11        9     4  38    4.8391   358.3   13.219      34.050
2015   11        9     4  46    4.8419   358.5   13.212      34.090
2015   11        9     4  53    4.8447   358.7   13.205      34.130
2015   11        9     5   0    4.8475   358.9   13.198      34.169
2015   11        9     5   8    4.8502   359.1   13.192      34.209
2015   11        9     5  15    4.8529   359.3   13.185      34.248
2015   11        9     5  22    4.8557   359.5   13.178      34.286
2015   11        9     5  30    4.8584   359.7   13.172      34.325
2015   11        9     5  37    4.8611   359.9   13.165      34.364
2015   11        9     5  44    4.8638   360.1   13.159      34.402
2015   11        9     5  52    4.8664   360.3   13.153      34.440
2015   11        9     5  59    4.8691   360.5   13.147      34.478
2015   11        9     6   6    4.8717   360.7   13.141      34.516
2015   11        9     6  14    4.8744   360.9   13.136      34.553
2015   11        9     6  21    4.8770   361.1   13.130      34.591
2015   11        9     6  28    4.8796   361.3   13.125      34.629
2015   11        9     6  35    4.8823   361.5   13.121      34.666
2015   11        9     6  43    4.8849   361.7   13.117      34.704
2015   11        9     6  50    4.8876   361.9   13.113      34.742
2015   11        9     6  57    4.8904   362.1   13.110      34.779
2015   11        9     7   5    4.8931   362.3   13.108      34.818
2015   11        9     7  12    4.8959   362.4   13.106      34.858
2015   11        9     7  19    4.8987   362.6   13.104      34.900
2015   11        9     7  27    4.9016   362.8   13.103      34.943
2015   11        9     7  34    4.9045   363.0   13.103      34.987
2015   11        9     7  41    4.9074   363.2   13.102      35.033
2015   11        9     7  48    4.9104   363.4   13.102      35.079
2015   11        9     7  56    4.9133   363.6   13.102      35.128
2015   11        9     8   3    4.9162   363.8   13.101      35.176
2015   11        9     8  10    4.9191   364.0   13.101      35.225
2015   11        9     8  18    4.9220   364.2   13.100      35.275
2015   11        9     8  25    4.9247   364.4   13.099      35.325
2015   11        9     8  32    4.9273   364.6   13.097      35.374
2015   11        9     8  40    4.9299   364.8   13.094      35.425
2015   11        9     8  47    4.9322   365.0   13.090      35.474
2015   11        9     8  54    4.9345   365.2   13.085      35.523
2015   11        9     9   2    4.9366   365.4   13.080      35.569
2015   11        9     9   9    4.9385   365.6   13.073      35.614
2015   11        9     9  16    4.9403   365.9   13.066      35.658
2015   11        9     9  24    4.9418   366.1   13.058      35.700
2015   11        9     9  31    4.9433   366.3   13.049      35.741
2015   11        9     9  38    4.9445   366.5   13.038      35.780
2015   11        9     9  46    4.9456   366.7   13.027      35.817
2015   11        9     9  53    4.9465   367.0   13.015      35.853
2015   11        9    10   0    4.9473   367.2   13.003      35.887
2015   11        9    10   8    4.9479   367.4   12.990      35.920
2015   11        9    10  15    4.9484   367.6   12.976      35.951
2015   11        9    10  22    4.9488   367.8   12.962      35.981
2015   11        9    10  30    4.9492   368.0   12.947      36.009
2015   11        9    10  37    4.9494   368.3   12.932      36.037
2015   11        9    10  44    4.9495   368.5   12.917      36.063
2015   11        9    10  52    4.9495   368.7   12.901      36.089
2015   11        9    10  59    4.9495   368.9   12.886      36.113
2015   11        9    11   7    4.9494   369.1   12.869      36.137
2015   11        9    11  14    4.9493   369.3   12.853      36.160
2015   11        9    11  21    4.9490   369.5   12.837      36.183
2015   11        9    11  29    4.9488   369.7   12.820      36.205
2015   11        9    11  36    4.9484   369.9   12.804      36.226
2015   11        9    11  43    4.9481   370.1   12.787      36.247
2015   11        9    11  51    4.9476   370.3   12.770      36.269
2015   11        9    11  58    4.9471   370.5   12.753      36.290
2015   11        9    12   5    4.9465   370.7   12.736      36.310
2015   11        9    12  13    4.9458   370.9   12.718      36.331
2015   11        9    12  20    4.9451   371.1   12.700      36.350
2015   11        9    12  27    4.9443   371.4   12.682      36.370
2015   11        9    12  35    4.9433   371.6   12.664      36.390
2015   11        9    12  42    4.9423   371.8   12.646      36.409
2015   11        9    12  49    4.9412   372.0   12.627      36.428
2015   11        9    12  57    4.9400   372.2   12.609      36.446
2015   11        9    13   4    4.9387   372.4   12.590      36.463
2015   11        9    13  11    4.9374   372.6   12.571      36.479
2015   11        9    13  19    4.9360   372.9   12.553      36.495
2015   11        9    13  26    4.9347   373.1   12.534      36.510
2015   11        9    13  33    4.9333   373.2   12.516      36.524
2015   11        9    13  41    4.9319   373.4   12.498      36.538
2015   11        9    13  48    4.9304   373.6   12.480      36.551
2015   11        9    13  55    4.9291   373.8   12.463      36.564
2015   11        9    14   3    4.9277   374.0   12.446      36.577
2015   11        9    14  10    4.9264   374.1   12.430      36.591
2015   11        9    14  17    4.9251   374.3   12.414      36.605
2015   11        9    14  24    4.9240   374.5   12.399      36.622
2015   11        9    14  32    4.9229   374.7   12.385      36.641
2015   11        9    14  39    4.9219   374.8   12.371      36.662
2015   11        9    14  46    4.9210   375.0   12.357      36.685
2015   11        9    14  54    4.9201   375.2   12.344      36.709
2015   11        9    15   1    4.9192   375.4   12.331      36.735
2015   11        9    15   8    4.9183   375.7   12.318      36.762
2015   11        9    15  16    4.9173   375.9   12.305      36.790
2015   11        9    15  23    4.9162   376.1   12.291      36.817
2015   11        9    15  30    4.9150   376.3   12.277      36.844
2015   11        9    15  37    4.9138   376.5   12.263      36.870
2015   11        9    15  45    4.9123   376.8   12.248      36.896
2015   11        9    15  52    4.9108   377.0   12.233      36.921
2015   11        9    15  59    4.9090   377.2   12.217      36.944
2015   11        9    16   7    4.9071   377.4   12.201      36.965
2015   11        9    16  14    4.9050   377.7   12.183      36.983
2015   11        9    16  21    4.9028   377.9   12.165      37.000
2015   11        9    16  29    4.9003   378.1   12.147      37.015
2015   11        9    16  36    4.8978   378.3   12.128      37.029
2015   11        9    16  43    4.8950   378.5   12.108      37.041
2015   11        9    16  51    4.8921   378.7   12.087      37.052
2015   11        9    16  58    4.8891   379.0   12.066      37.061
2015   11        9    17   5    4.8860   379.2   12.045      37.069
2015   11        9    17  13    4.8826   379.4   12.023      37.076
2015   11        9    17  20    4.8793   379.6   12.001      37.081
2015   11        9    17  27    4.8757   379.8   11.979      37.084
2015   11        9    17  35    4.8721   380.0   11.956      37.086
2015   11        9    17  42    4.8683   380.2   11.934      37.086
2015   11        9    17  50    4.8645   380.4   11.911      37.085
2015   11        9    17  57    4.8605   380.6   11.888      37.082
2015   11        9    18   4    4.8565   380.8   11.865      37.079
2015   11        9    18  12    4.8525   381.0   11.842      37.074
2015   11        9    18  19    4.8483   381.2   11.820      37.069
2015   11        9    18  26    4.8441   381.3   11.797      37.063
2015   11        9    18  34    4.8399   381.5   11.774      37.057
2015   11        9    18  41    4.8356   381.7   11.752      37.051
2015   11        9    18  48    4.8313   381.9   11.729      37.045
2015   11        9    18  56    4.8270   382.1   11.707      37.039
2015   11        9    19   3    4.8228   382.3   11.685      37.033
2015   11        9    19  10    4.8185   382.4   11.663      37.027
2015   11        9    19  18    4.8142   382.6   11.641      37.021
2015   11        9    19  25    4.8099   382.8   11.619      37.015
2015   11        9    19  32    4.8056   383.0   11.596      37.009
2015   11        9    19  40    4.8012   383.2   11.574      37.003
2015   11        9    19  47    4.7968   383.4   11.551      36.996
2015   11        9    19  54    4.7923   383.7   11.529      36.989
2015   11        9    20   2    4.7877   383.9   11.506      36.981
2015   11        9    20   9    4.7831   384.1   11.482      36.973
2015   11        9    20  16    4.7785   384.3   11.459      36.963
2015   11        9    20  24    4.7737   384.5   11.435      36.952
2015   11        9    20  31    4.7690   384.7   11.411      36.941
2015   11        9    20  38    4.7641   384.9   11.387      36.930
2015   11        9    20  46    4.7593   385.1   11.363      36.918
2015   11        9    20  53    4.7544   385.4   11.338      36.905
2015   11        9    21   0    4.7495   385.6   11.313      36.891
2015   11        9    21   8    4.7446   385.8   11.288      36.876
2015   11        9    21  15    4.7398   386.0   11.264      36.861
2015   11        9    21  22    4.7350   386.1   11.240      36.844
2015   11        9    21  30    4.7303   386.3   11.216      36.826
2015   11        9    21  37    4.7258   386.5   11.193      36.808
2015   11        9    21  44    4.7214   386.7   11.170      36.789
2015   11        9    21  51    4.7171   386.8   11.148      36.771
2015   11        9    21  59    4.7130   387.0   11.127      36.753
2015   11        9    22   6    4.7090   387.1   11.107      36.735
2015   11        9    22  13    4.7052   387.2   11.087      36.718
2015   11        9    22  21    4.7016   387.3   11.069      36.701
2015   11        9    22  28    4.6981   387.5   11.051      36.686
2015   11        9    22  35    4.6947   387.6   11.034      36.673
2015   11        9    22  43    4.6915   387.7   11.018      36.664
2015   11        9    22  50    4.6884   387.8   11.003      36.657
2015   11        9    22  57    4.6855   388.0   10.989      36.652
2015   11        9    23   5    4.6826   388.1   10.975      36.650
2015   11        9    23  12    4.6799   388.2   10.962      36.649
2015   11        9    23  19    4.6771   388.4   10.950      36.650
2015   11        9    23  26    4.6745   388.6   10.939      36.652
2015   11        9    23  34    4.6718   388.7   10.927      36.655
2015   11        9    23  41    4.6692   388.9   10.916      36.659
2015   11        9    23  48    4.6665   389.0   10.905      36.663
2015   11        9    23  56    4.6639   389.2   10.894      36.667
2015   11       10     0   3    4.6613   389.3   10.883      36.672
2015   11       10     0  10    4.6586   389.5   10.872      36.676
2015   11       10     0  18    4.6560   389.7   10.861      36.678
2015   11       10     0  25    4.6533   389.8   10.850      36.680
2015   11       10     0  33    4.6506   390.0   10.839      36.681
2015   11       10     0  40    4.6478   390.1   10.827      36.681
2015   11       10     0  47    4.6451   390.3   10.815      36.680
2015   11       10     0  55    4.6423   390.4   10.803      36.679
2015   11       10     1   2    4.6395   390.6   10.791      36.676
2015   11       10     1   9    4.6366   390.8   10.779      36.673
2015   11       10     1  17    4.6338   390.9   10.766      36.669
2015   11       10     1  24    4.6309   391.1   10.753      36.665
2015   11       10     1  31    4.6281   391.2   10.741      36.660
2015   11       10     1  39    4.6253   391.3   10.728      36.654
2015   11       10     1  46    4.6226   391.5   10.715      36.648
2015   11       10     1  53    4.6198   391.6   10.703      36.642
2015   11       10     2   1    4.6171   391.8   10.690      36.635
2015   11       10     2   8    4.6145   391.9   10.678      36.627
2015   11       10     2  16    4.6120   392.0   10.665      36.620
2015   11       10     2  23    4.6095   392.2   10.653      36.612
2015   11       10     2  30    4.6071   392.3   10.641      36.605
2015   11       10     2  38    4.6047   392.4   10.629      36.597
2015   11       10     2  45    4.6025   392.6   10.618      36.590
2015   11       10     2  52    4.6003   392.7   10.606      36.584
2015   11       10     3   0    4.5983   392.8   10.595      36.579
2015   11       10     3   7    4.5963   393.0   10.584      36.574
2015   11       10     3  14    4.5944   393.1   10.574      36.569
2015   11       10     3  22    4.5925   393.2   10.563      36.565
2015   11       10     3  29    4.5907   393.4   10.553      36.561
2015   11       10     3  36    4.5890   393.5   10.543      36.558
2015   11       10     3  44    4.5874   393.7   10.533      36.554
2015   11       10     3  51    4.5857   393.8   10.523      36.551
2015   11       10     3  58    4.5842   393.9   10.514      36.548
2015   11       10     4   5    4.5827   394.1   10.504      36.546
2015   11       10     4  13    4.5814   394.2   10.495      36.543
2015   11       10     4  20    4.5800   394.4   10.486      36.540
2015   11       10     4  27    4.5788   394.5   10.477      36.537
2015   11       10     4  35    4.5775   394.6   10.468      36.535
2015   11       10     4  42    4.5764   394.8   10.460      36.532
2015   11       10     4  49    4.5753   394.9   10.451      36.529
2015   11       10     4  57    4.5743   395.0   10.443      36.526
2015   11       10     5   4    4.5734   395.1   10.435      36.524
2015   11       10     5  11    4.5726   395.2   10.427      36.522
2015   11       10     5  18    4.5719   395.4   10.420      36.520
2015   11       10     5  26    4.5713   395.5   10.413      36.518
2015   11       10     5  33    4.5707   395.6   10.407      36.517
2015   11       10     5  40    4.5703   395.7   10.400      36.515
2015   11       10     5  48    4.5700   395.8   10.395      36.515
2015   11       10     5  55    4.5698   395.9   10.389      36.514
2015   11       10     6   2    4.5697   396.0   10.384      36.515
2015   11       10     6  10    4.5697   396.0   10.380      36.516
2015   11       10     6  17    4.5699   396.1   10.377      36.517
2015   11       10     6  24    4.5702   396.2   10.374      36.519
2015   11       10     6  32    4.5707   396.3   10.371      36.522
2015   11       10     6  39    4.5714   396.4   10.369      36.526
2015   11       10     6  46    4.5722   396.4   10.368      36.530
2015   11       10     6  54    4.5733   396.5   10.368      36.536
2015   11       10     7   1    4.5745   396.6   10.369      36.543
2015   11       10     7   8    4.5761   396.6   10.370      36.551
2015   11       10     7  16    4.5778   396.7   10.372      36.560
2015   11       10     7  23    4.5799   396.8   10.375      36.571
2015   11       10     7  30    4.5822   396.8   10.379      36.583
2015   11       10     7  38    4.5849   396.9   10.384      36.596
2015   11       10     7  45    4.5877   397.0   10.389      36.611
2015   11       10     7  52    4.5910   397.1   10.396      36.627
2015   11       10     8   0    4.5945   397.1   10.403      36.644
2015   11       10     8   7    4.5983   397.2   10.410      36.664
2015   11       10     8  14    4.6023   397.3   10.418      36.687
2015   11       10     8  22    4.6066   397.4   10.426      36.712
2015   11       10     8  29    4.6109   397.5   10.435      36.740
2015   11       10     8  36    4.6155   397.6   10.444      36.770
2015   11       10     8  44    4.6202   397.7   10.452      36.802
2015   11       10     8  51    4.6250   397.8   10.461      36.837
2015   11       10     8  59    4.6297   397.9   10.469      36.872
2015   11       10     9   6    4.6346   398.1   10.476      36.909
2015   11       10     9  13    4.6393   398.2   10.484      36.948
2015   11       10     9  21    4.6442   398.3   10.490      36.987
2015   11       10     9  28    4.6489   398.4   10.497      37.028
2015   11       10     9  35    4.6537   398.6   10.502      37.068
2015   11       10     9  43    4.6583   398.7   10.508      37.107
2015   11       10     9  50    4.6630   398.8   10.513      37.147
2015   11       10     9  57    4.6676   399.0   10.517      37.186
2015   11       10    10   5    4.6722   399.1   10.521      37.225
2015   11       10    10  12    4.6767   399.2   10.525      37.263
2015   11       10    10  19    4.6812   399.4   10.528      37.301
2015   11       10    10  27    4.6857   399.5   10.531      37.339
2015   11       10    10  34    4.6902   399.6   10.534      37.376
2015   11       10    10  41    4.6947   399.8   10.537      37.413
2015   11       10    10  49    4.6992   399.9   10.540      37.449
2015   11       10    10  56    4.7037   400.0   10.543      37.486
2015   11       10    11   3    4.7082   400.2   10.545      37.522
2015   11       10    11  11    4.7127   400.3   10.548      37.558
2015   11       10    11  18    4.7173   400.4   10.550      37.594
2015   11       10    11  25    4.7219   400.6   10.553      37.630
2015   11       10    11  33    4.7265   400.7   10.556      37.666
2015   11       10    11  40    4.7311   400.8   10.558      37.702
2015   11       10    11  47    4.7358   401.0   10.561      37.739
2015   11       10    11  54    4.7405   401.1   10.564      37.775
2015   11       10    12   2    4.7452   401.3   10.566      37.811
2015   11       10    12   9    4.7500   401.4   10.569      37.847
2015   11       10    12  16    4.7548   401.5   10.573      37.884
2015   11       10    12  24    4.7597   401.7   10.576      37.922
2015   11       10    12  31    4.7647   401.8   10.579      37.959
2015   11       10    12  38    4.7697   402.0   10.583      37.997
2015   11       10    12  46    4.7749   402.1   10.587      38.036
2015   11       10    12  53    4.7801   402.2   10.592      38.076
2015   11       10    13   0    4.7855   402.4   10.597      38.117
2015   11       10    13   7    4.7911   402.5   10.603      38.158
2015   11       10    13  15    4.7968   402.7   10.609      38.201
2015   11       10    13  22    4.8027   402.8   10.615      38.245
2015   11       10    13  29    4.8089   403.0   10.623      38.290
2015   11       10    13  37    4.8152   403.2   10.632      38.337
2015   11       10    13  44    4.8220   403.3   10.641      38.386
2015   11       10    13  51    4.8289   403.5   10.652      38.437
2015   11       10    13  59    4.8363   403.6   10.664      38.490
2015   11       10    14   6    4.8439   403.8   10.677      38.546
2015   11       10    14  13    4.8521   404.0   10.691      38.604
2015   11       10    14  21    4.8607   404.2   10.708      38.665
2015   11       10    14  28    4.8699   404.3   10.727      38.728
2015   11       10    14  35    4.8795   404.5   10.747      38.795
2015   11       10    14  43    4.8898   404.8   10.769      38.868
2015   11       10    14  50    4.9006   405.0   10.793      38.947
2015   11       10    14  57    4.9120   405.2   10.819      39.034
2015   11       10    15   5    4.9238   405.5   10.846      39.127
2015   11       10    15  12    4.9363   405.7   10.874      39.227
2015   11       10    15  19    4.9489   406.0   10.904      39.332
2015   11       10    15  27    4.9622   406.3   10.934      39.444
2015   11       10    15  34    4.9755   406.6   10.965      39.560
2015   11       10    15  41    4.9893   406.9   10.996      39.685
2015   11       10    15  49    5.0030   407.2   11.026      39.815
2015   11       10    15  56    5.0169   407.5   11.055      39.953
2015   11       10    16   4    5.0305   407.9   11.083      40.095
2015   11       10    16  11    5.0442   408.2   11.110      40.240
2015   11       10    16  18    5.0575   408.5   11.136      40.384
2015   11       10    16  26    5.0708   408.9   11.159      40.530
2015   11       10    16  33    5.0835   409.2   11.181      40.675
2015   11       10    16  40    5.0962   409.6   11.200      40.822
2015   11       10    16  48    5.1083   409.9   11.217      40.966
2015   11       10    16  55    5.1202   410.3   11.232      41.109
2015   11       10    17   2    5.1316   410.6   11.246      41.248
2015   11       10    17  10    5.1429   410.9   11.257      41.385
2015   11       10    17  17    5.1537   411.3   11.266      41.517
2015   11       10    17  24    5.1643   411.6   11.274      41.647
2015   11       10    17  32    5.1746   411.9   11.280      41.772
2015   11       10    17  39    5.1847   412.3   11.285      41.894
2015   11       10    17  46    5.1944   412.6   11.288      42.012
2015   11       10    17  54    5.2041   412.9   11.290      42.127
2015   11       10    18   1    5.2134   413.2   11.291      42.239
2015   11       10    18   8    5.2228   413.5   11.291      42.348
2015   11       10    18  16    5.2318   413.8   11.290      42.453
2015   11       10    18  23    5.2409   414.1   11.289      42.557
2015   11       10    18  30    5.2497   414.4   11.287      42.656
2015   11       10    18  38    5.2586   414.8   11.284      42.754
2015   11       10    18  45    5.2673   415.1   11.280      42.849
2015   11       10    18  52    5.2761   415.4   11.277      42.942
2015   11       10    19   0    5.2847   415.7   11.272      43.032
2015   11       10    19   7    5.2934   416.0   11.268      43.120
2015   11       10    19  14    5.3019   416.3   11.263      43.206
2015   11       10    19  21    5.3106   416.6   11.258      43.291
2015   11       10    19  29    5.3193   416.9   11.253      43.373
2015   11       10    19  36    5.3280   417.2   11.248      43.456
2015   11       10    19  43    5.3367   417.5   11.243      43.536
2015   11       10    19  51    5.3455   417.8   11.239      43.616
2015   11       10    19  58    5.3543   418.1   11.234      43.695
2015   11       10    20   5    5.3632   418.4   11.230      43.775
2015   11       10    20  13    5.3721   418.7   11.225      43.853
2015   11       10    20  20    5.3812   419.0   11.222      43.933
2015   11       10    20  27    5.3903   419.3   11.219      44.012
2015   11       10    20  34    5.3996   419.6   11.216      44.092
2015   11       10    20  42    5.4090   419.9   11.214      44.173
2015   11       10    20  49    5.4185   420.2   11.212      44.255
2015   11       10    20  56    5.4282   420.5   11.212      44.337
2015   11       10    21   4    5.4381   420.9   11.213      44.421
2015   11       10    21  11    5.4480   421.2   11.214      44.505
2015   11       10    21  18    5.4583   421.5   11.218      44.592
2015   11       10    21  26    5.4687   421.8   11.223      44.681
2015   11       10    21  33    5.4794   422.2   11.230      44.773
2015   11       10    21  40    5.4903   422.5   11.239      44.866
2015   11       10    21  48    5.5016   422.8   11.251      44.964
2015   11       10    21  55    5.5133   423.2   11.266      45.065
2015   11       10    22   2    5.5254   423.5   11.284      45.174
2015   11       10    22  10    5.5380   423.9   11.305      45.291
2015   11       10    22  17    5.5511   424.3   11.330      45.421
2015   11       10    22  24    5.5648   424.6   11.358      45.562
2015   11       10    22  32    5.5790   425.0   11.391      45.716
2015   11       10    22  39    5.5939   425.4   11.428      45.878
2015   11       10    22  47    5.6096   425.8   11.469      46.054
2015   11       10    22  54    5.6259   426.3   11.513      46.252
2015   11       10    23   1    5.6427   426.8   11.560      46.474
2015   11       10    23   9    5.6600   427.3   11.609      46.713
2015   11       10    23  16    5.6776   427.9   11.659      46.971
2015   11       10    23  23    5.6952   428.5   11.708      47.248
2015   11       10    23  31    5.7128   429.1   11.757      47.539
2015   11       10    23  38    5.7299   429.7   11.804      47.836
2015   11       10    23  45    5.7468   430.4   11.848      48.141
2015   11       10    23  53    5.7629   431.0   11.888      48.448
2015   11       11     0   0    5.7784   431.7   11.922      48.762
2015   11       11     0   7    5.7928   432.4   11.951      49.073
2015   11       11     0  15    5.8065   433.1   11.975      49.377
2015   11       11     0  22    5.8192   433.8   11.994      49.670
2015   11       11     0  29    5.8311   434.5   12.008      49.958
2015   11       11     0  37    5.8420   435.2   12.016      50.235
2015   11       11     0  44    5.8524   435.8   12.020      50.504
2015   11       11     0  51    5.8620   436.5   12.020      50.761
2015   11       11     0  59    5.8712   437.1   12.016      51.010
2015   11       11     1   6    5.8798   437.8   12.010      51.250
2015   11       11     1  13    5.8881   438.4   12.001      51.484
2015   11       11     1  21    5.8961   439.0   11.989      51.710
2015   11       11     1  28    5.9040   439.6   11.976      51.932
2015   11       11     1  35    5.9117   440.2   11.961      52.147
2015   11       11     1  43    5.9194   440.8   11.945      52.359
2015   11       11     1  50    5.9270   441.4   11.928      52.564
2015   11       11     1  57    5.9348   442.0   11.910      52.767
2015   11       11     2   5    5.9425   442.6   11.891      52.965
2015   11       11     2  12    5.9504   443.2   11.870      53.160
2015   11       11     2  19    5.9583   443.8   11.850      53.349
2015   11       11     2  27    5.9664   444.4   11.828      53.536
2015   11       11     2  34    5.9745   445.0   11.807      53.718
2015   11       11     2  41    5.9828   445.6   11.784      53.897
2015   11       11     2  48    5.9910   446.2   11.761      54.069
2015   11       11     2  56    5.9994   446.8   11.737      54.239
2015   11       11     3   3    6.0077   447.4   11.713      54.402
2015   11       11     3  10    6.0160   448.1   11.688      54.562
2015   11       11     3  18    6.0242   448.7   11.663      54.717
2015   11       11     3  25    6.0323   449.3   11.637      54.868
2015   11       11     3  32    6.0403   450.0   11.611      55.012
2015   11       11     3  40    6.0482   450.6   11.585      55.153
2015   11       11     3  47    6.0559   451.3   11.557      55.289
2015   11       11     3  54    6.0636   452.0   11.529      55.423
2015   11       11     4   1    6.0709   452.7   11.500      55.553
2015   11       11     4   9    6.0780   453.5   11.470      55.685
2015   11       11     4  16    6.0846   454.2   11.438      55.813
2015   11       11     4  23    6.0907   455.1   11.404      55.946
2015   11       11     4  31    6.0961   455.9   11.367      56.074
2015   11       11     4  38    6.1005   456.7   11.329      56.193
2015   11       11     4  45    6.1041   457.5   11.290      56.299
2015   11       11     4  53    6.1068   458.3   11.249      56.398
2015   11       11     5   0    6.1091   459.0   11.210      56.488
2015   11       11     5   7    6.1109   459.7   11.172      56.573
2015   11       11     5  15    6.1126   460.4   11.136      56.655
2015   11       11     5  22    6.1141   461.0   11.102      56.736
2015   11       11     5  29    6.1160   461.6   11.073      56.816
2015   11       11     5  37    6.1179   462.1   11.048      56.901
2015   11       11     5  44    6.1206   462.6   11.029      56.989
2015   11       11     5  52    6.1237   463.0   11.016      57.081
2015   11       11     5  59    6.1281   463.4   11.012      57.190
2015   11       11     6   6    6.1335   463.9   11.013      57.326
2015   11       11     6  14    6.1399   464.3   11.021      57.497
2015   11       11     6  21    6.1470   464.8   11.033      57.701
2015   11       11     6  28    6.1549   465.4   11.051      57.936
2015   11       11     6  36    6.1632   466.0   11.072      58.209
2015   11       11     6  43    6.1719   466.6   11.095      58.516
2015   11       11     6  50    6.1804   467.4   11.119      58.850
2015   11       11     6  58    6.1889   468.1   11.143      59.201
2015   11       11     7   5    6.1968   468.9   11.165      59.570
2015   11       11     7  12    6.2044   469.7   11.184      59.949
2015   11       11     7  20    6.2111   470.5   11.199      60.336
2015   11       11     7  27    6.2171   471.4   11.210      60.719
2015   11       11     7  35    6.2222   472.2   11.217      61.097
2015   11       11     7  42    6.2267   473.1   11.220      61.464
2015   11       11     7  49    6.2304   474.0   11.218      61.826
2015   11       11     7  57    6.2335   474.9   11.212      62.170
2015   11       11     8   4    6.2359   475.8   11.202      62.503
2015   11       11     8  11    6.2380   476.6   11.188      62.821
2015   11       11     8  19    6.2397   477.5   11.172      63.130
2015   11       11     8  26    6.2411   478.4   11.153      63.426
2015   11       11     8  33    6.2424   479.3   11.132      63.715
2015   11       11     8  40    6.2436   480.1   11.110      63.995
2015   11       11     8  48    6.2447   481.0   11.086      64.270
2015   11       11     8  55    6.2458   481.9   11.061      64.536
2015   11       11     9   2    6.2467   482.8   11.034      64.797
2015   11       11     9  10    6.2477   483.7   11.007      65.049
2015   11       11     9  17    6.2485   484.6   10.978      65.298
2015   11       11     9  24    6.2494   485.5   10.949      65.540
2015   11       11     9  32    6.2502   486.4   10.917      65.782
2015   11       11     9  39    6.2508   487.4   10.885      66.019
2015   11       11     9  46    6.2510   488.4   10.850      66.258
2015   11       11     9  54    6.2510   489.4   10.814      66.492
2015   11       11    10   1    6.2503   490.5   10.774      66.726
2015   11       11    10   8    6.2491   491.6   10.732      66.953
2015   11       11    10  16    6.2468   492.7   10.686      67.174
2015   11       11    10  23    6.2437   493.8   10.637      67.381
2015   11       11    10  30    6.2392   494.9   10.582      67.576
2015   11       11    10  37    6.2336   496.0   10.523      67.760
2015   11       11    10  45    6.2261   497.1   10.458      67.915
2015   11       11    10  52    6.2177   498.2   10.390      68.038
2015   11       11    10  59    6.2078   499.2   10.318      68.138
2015   11       11    11   7    6.1973   500.2   10.244      68.214
2015   11       11    11  14    6.1854   501.3   10.167      68.270
2015   11       11    11  21    6.1733   502.3   10.089      68.311
2015   11       11    11  29    6.1600   503.4   10.008      68.343
2015   11       11    11  36    6.1466   504.5    9.926      68.368
2015   11       11    11  43    6.1322   505.6    9.842      68.393
2015   11       11    11  51    6.1175   506.8    9.757      68.414
2015   11       11    11  58    6.1016   507.9    9.671      68.419
2015   11       11    12   5    6.0856   509.1    9.586      68.425
2015   11       11    12  13    6.0687   510.2    9.499      68.427
2015   11       11    12  20    6.0516   511.3    9.414      68.421
2015   11       11    12  27    6.0339   512.4    9.330      68.409
2015   11       11    12  35    6.0164   513.4    9.248      68.394
2015   11       11    12  42    5.9985   514.4    9.168      68.376
2015   11       11    12  49    5.9810   515.3    9.092      68.356
2015   11       11    12  57    5.9634   516.2    9.018      68.336
2015   11       11    13   4    5.9465   517.0    8.949      68.316
2015   11       11    13  11    5.9297   517.8    8.885      68.297
2015   11       11    13  19    5.9140   518.5    8.825      68.296
2015   11       11    13  26    5.8986   519.2    8.770      68.316
2015   11       11    13  33    5.8839   519.9    8.719      68.359
2015   11       11    13  41    5.8694   520.6    8.670      68.425
2015   11       11    13  48    5.8555   521.3    8.625      68.513
2015   11       11    13  55    5.8415   522.1    8.583      68.632
2015   11       11    14   3    5.8280   522.8    8.544      68.776
2015   11       11    14  10    5.8142   523.6    8.506      68.943
2015   11       11    14  18    5.8008   524.4    8.471      69.126
2015   11       11    14  25    5.7871   525.3    8.436      69.325
2015   11       11    14  32    5.7735   526.1    8.403      69.532
2015   11       11    14  40    5.7595   526.9    8.370      69.743
2015   11       11    14  47    5.7457   527.8    8.338      69.952
2015   11       11    14  54    5.7314   528.6    8.306      70.160
2015   11       11    15   2    5.7173   529.5    8.274      70.364
2015   11       11    15   9    5.7029   530.3    8.243      70.569
2015   11       11    15  16    5.6887   531.2    8.211      70.760
2015   11       11    15  24    5.6740   532.0    8.179      70.942
2015   11       11    15  31    5.6596   532.9    8.146      71.114
2015   11       11    15  38    5.6449   533.8    8.113      71.280
2015   11       11    15  46    5.6304   534.6    8.080      71.439
2015   11       11    15  53    5.6155   535.5    8.047      71.592
2015   11       11    16   0    5.6010   536.4    8.013      71.739
2015   11       11    16   8    5.5860   537.3    7.978      71.881
2015   11       11    16  15    5.5711   538.2    7.943      72.016
2015   11       11    16  22    5.5557   539.2    7.906      72.143
2015   11       11    16  29    5.5403   540.1    7.868      72.260
2015   11       11    16  37    5.5241   541.1    7.829      72.369
2015   11       11    16  44    5.5079   542.1    7.789      72.466
2015   11       11    16  51    5.4909   543.1    7.747      72.555
2015   11       11    16  59    5.4738   544.1    7.704      72.637
2015   11       11    17   6    5.4559   545.2    7.659      72.716
2015   11       11    17  13    5.4378   546.2    7.612      72.790
2015   11       11    17  21    5.4188   547.4    7.563      72.863
2015   11       11    17  28    5.3995   548.5    7.512      72.931
2015   11       11    17  35    5.3790   549.7    7.458      72.991
2015   11       11    17  43    5.3582   550.9    7.402      73.041
2015   11       11    17  50    5.3361   552.1    7.342      73.081
2015   11       11    17  57    5.3135   553.4    7.278      73.115
2015   11       11    18   4    5.2893   554.6    7.210      73.114
2015   11       11    18  12    5.2646   555.9    7.140      73.080
2015   11       11    18  19    5.2388   557.1    7.067      73.016
2015   11       11    18  26    5.2129   558.2    6.994      72.925
2015   11       11    18  34    5.1862   559.4    6.920      72.806
2015   11       11    18  41    5.1597   560.5    6.846      72.665
2015   11       11    18  48    5.1327   561.6    6.772      72.507
2015   11       11    18  56    5.1062   562.6    6.700      72.339
2015   11       11    19   3    5.0795   563.7    6.628      72.159
2015   11       11    19  10    5.0534   564.7    6.559      71.969
2015   11       11    19  18    5.0275   565.7    6.492      71.767
2015   11       11    19  25    5.0023   566.6    6.428      71.581
2015   11       11    19  32    4.9772   567.6    6.364      71.397
2015   11       11    19  40    4.9527   568.6    6.304      71.219
2015   11       11    19  47    4.9283   569.5    6.244      71.040
2015   11       11    19  54    4.9044   570.4    6.187      70.864
2015   11       11    20   2    4.8807   571.3    6.132      70.690
2015   11       11    20   9    4.8574   572.2    6.078      70.522
2015   11       11    20  16    4.8343   573.0    6.027      70.359
2015   11       11    20  24    4.8117   573.9    5.977      70.203
2015   11       11    20  31    4.7893   574.7    5.929      70.051
2015   11       11    20  38    4.7672   575.5    5.883      69.907
2015   11       11    20  46    4.7453   576.2    5.838      69.768
2015   11       11    20  53    4.7238   577.0    5.795      69.636
2015   11       11    21   1    4.7023   577.8    5.754      69.509
2015   11       11    21   8    4.6813   578.5    5.714      69.388
2015   11       11    21  15    4.6603   579.2    5.676      69.272
2015   11       11    21  23    4.6396   579.9    5.639      69.162
2015   11       11    21  30    4.6189   580.6    5.603      69.055
2015   11       11    21  37    4.5986   581.2    5.569      68.953
2015   11       11    21  45    4.5783   581.9    5.535      68.854
2015   11       11    21  52    4.5582   582.5    5.503      68.760
2015   11       11    21  59    4.5381   583.1    5.472      68.668
2015   11       11    22   7    4.5183   583.7    5.441      68.580
2015   11       11    22  14    4.4984   584.4    5.411      68.493
2015   11       11    22  21    4.4787   585.0    5.382      68.409
2015   11       11    22  29    4.4590   585.6    5.353      68.326
2015   11       11    22  36    4.4394   586.2    5.325      68.245
2015   11       11    22  43    4.4197   586.8    5.296      68.161
2015   11       11    22  51    4.4002   587.4    5.267      68.076
2015   11       11    22  58    4.3806   588.0    5.238      67.988
2015   11       11    23   5    4.3611   588.6    5.210      67.898
2015   11       11    23  13    4.3415   589.2    5.181      67.805
2015   11       11    23  20    4.3220   589.8    5.152      67.711
2015   11       11    23  27    4.3024   590.4    5.123      67.612
2015   11       11    23  35    4.2829   591.0    5.093      67.511
2015   11       11    23  42    4.2631   591.7    5.063      67.403
2015   11       11    23  49    4.2434   592.3    5.033      67.289
2015   11       11    23  57    4.2234   592.9    5.001      67.161
2015   11       12     0   4    4.2034   593.5    4.970      67.020
2015   11       12     0  11    4.1831   594.0    4.937      66.863
2015   11       12     0  18    4.1630   594.6    4.905      66.694
2015   11       12     0  26    4.1427   595.1    4.872      66.510
2015   11       12     0  33    4.1227   595.6    4.840      66.320
2015   11       12     0  40    4.1026   596.0    4.807      66.118
2015   11       12     0  48    4.0829   596.4    4.776      65.914
2015   11       12     0  55    4.0633   596.8    4.745      65.703
2015   11       12     1   2    4.0441   597.2    4.716      65.496
2015   11       12     1  10    4.0253   597.5    4.687      65.290
2015   11       12     1  17    4.0069   597.9    4.659      65.093
2015   11       12     1  24    3.9888   598.2    4.632      64.898
2015   11       12     1  31    3.9712   598.4    4.607      64.712
2015   11       12     1  39    3.9540   598.7    4.583      64.528
2015   11       12     1  46    3.9372   598.9    4.560      64.353
2015   11       12     1  53    3.9209   599.2    4.537      64.183
2015   11       12     2   1    3.9049   599.4    4.517      64.020
2015   11       12     2   8    3.8894   599.6    4.496      63.861
2015   11       12     2  15    3.8742   599.8    4.478      63.709
2015   11       12     2  23    3.8594   600.0    4.459      63.561
2015   11       12     2  30    3.8449   600.2    4.442      63.418
2015   11       12     2  37    3.8307   600.4    4.425      63.278
2015   11       12     2  45    3.8168   600.6    4.409      63.142
2015   11       12     2  52    3.8032   600.8    4.393      63.008
2015   11       12     2  59    3.7898   601.0    4.378      62.877
2015   11       12     3   7    3.7766   601.2    4.363      62.748
2015   11       12     3  14    3.7635   601.4    4.348      62.622
2015   11       12     3  21    3.7507   601.6    4.333      62.498
2015   11       12     3  29    3.7380   601.8    4.319      62.376
2015   11       12     3  36    3.7254   602.1    4.304      62.256
2015   11       12     3  43    3.7130   602.3    4.290      62.140
2015   11       12     3  51    3.7009   602.5    4.276      62.025
2015   11       12     3  58    3.6888   602.7    4.262      61.913
2015   11       12     4   6    3.6769   602.9    4.248      61.805
2015   11       12     4  13    3.6652   603.0    4.235      61.699
2015   11       12     4  20    3.6536   603.2    4.221      61.595
2015   11       12     4  28    3.6422   603.4    4.208      61.494
2015   11       12     4  35    3.6310   603.6    4.195      61.394
2015   11       12     4  42    3.6199   603.8    4.183      61.296
2015   11       12     4  50    3.6089   604.0    4.170      61.199
2015   11       12     4  57    3.5980   604.2    4.158      61.105
2015   11       12     5   4    3.5873   604.4    4.145      61.010
2015   11       12     5  12    3.5766   604.6    4.133      60.918
2015   11       12     5  19    3.5661   604.8    4.121      60.827
2015   11       12     5  26    3.5556   605.0    4.109      60.737
2015   11       12     5  34    3.5452   605.2    4.097      60.646
2015   11       12     5  41    3.5348   605.4    4.085      60.557
2015   11       12     5  48    3.5246   605.6    4.073      60.467
2015   11       12     5  56    3.5143   605.8    4.061      60.377
2015   11       12     6   3    3.5041   606.1    4.049      60.281
2015   11       12     6  10    3.4940   606.3    4.036      60.181
2015   11       12     6  18    3.4840   606.5    4.023      60.078
2015   11       12     6  25    3.4740   606.7    4.010      59.972
2015   11       12     6  32    3.4641   606.9    3.997      59.862
2015   11       12     6  40    3.4544   607.1    3.984      59.752
2015   11       12     6  47    3.4447   607.2    3.971      59.638
2015   11       12     6  54    3.4352   607.4    3.958      59.525
2015   11       12     7   2    3.4257   607.6    3.945      59.410
2015   11       12     7   9    3.4163   607.7    3.932      59.294
2015   11       12     7  16    3.4071   607.9    3.919      59.176
2015   11       12     7  24    3.3980   608.0    3.906      59.060
2015   11       12     7  31    3.3890   608.2    3.893      58.942
2015   11       12     7  38    3.3801   608.3    3.881      58.825
2015   11       12     7  46    3.3713   608.4    3.868      58.706
2015   11       12     7  53    3.3626   608.6    3.855      58.588
2015   11       12     8   0    3.3541   608.7    3.843      58.469
2015   11       12     8   7    3.3457   608.8    3.831      58.353
2015   11       12     8  15    3.3374   608.9    3.818      58.236
2015   11       12     8  22    3.3293   609.0    3.806      58.122
2015   11       12     8  29    3.3214   609.1    3.794      58.009
2015   11       12     8  37    3.3136   609.2    3.783      57.898
2015   11       12     8  44    3.3059   609.2    3.771      57.789
2015   11       12     8  51    3.2984   609.3    3.760      57.683
2015   11       12     8  59    3.2910   609.4    3.749      57.578
2015   11       12     9   6    3.2837   609.4    3.739      57.477
2015   11       12     9  13    3.2765   609.5    3.728      57.378
2015   11       12     9  20    3.2695   609.5    3.718      57.283
2015   11       12     9  28    3.2625   609.6    3.708      57.189
2015   11       12     9  35    3.2556   609.6    3.698      57.098
2015   11       12     9  42    3.2487   609.7    3.689      57.008
2015   11       12     9  50    3.2419   609.7    3.679      56.919
2015   11       12     9  57    3.2352   609.8    3.670      56.830
2015   11       12    10   4    3.2285   609.9    3.661      56.741
2015   11       12    10  12    3.2218   610.0    3.651      56.651
2015   11       12    10  19    3.2151   610.0    3.642      56.561
2015   11       12    10  26    3.2084   610.1    3.633      56.468
2015   11       12    10  34    3.2017   610.2    3.624      56.376
2015   11       12    10  41    3.1950   610.3    3.615      56.281
2015   11       12    10  48    3.1884   610.3    3.606      56.187
2015   11       12    10  56    3.1817   610.4    3.597      56.092
2015   11       12    11   3    3.1751   610.4    3.589      55.998
2015   11       12    11  11    3.1685   610.5    3.580      55.904
2015   11       12    11  18    3.1620   610.5    3.571      55.811
2015   11       12    11  25    3.1555   610.6    3.563      55.717
2015   11       12    11  33    3.1491   610.6    3.555      55.625
2015   11       12    11  40    3.1428   610.6    3.547      55.533
2015   11       12    11  47    3.1366   610.6    3.539      55.443
2015   11       12    11  55    3.1304   610.6    3.532      55.353
2015   11       12    12   2    3.1244   610.7    3.524      55.266
2015   11       12    12   9    3.1184   610.7    3.517      55.179
2015   11       12    12  17    3.1125   610.7    3.511      55.094
2015   11       12    12  24    3.1067   610.7    3.504      55.009
2015   11       12    12  31    3.1010   610.7    3.498      54.927
2015   11       12    12  39    3.0954   610.7    3.492      54.846
2015   11       12    12  46    3.0899   610.6    3.486      54.768
2015   11       12    12  54    3.0844   610.6    3.481      54.690
2015   11       12    13   1    3.0791   610.6    3.476      54.616
2015   11       12    13   8    3.0737   610.6    3.471      54.543
2015   11       12    13  15    3.0685   610.6    3.466      54.472
2015   11       12    13  23    3.0633   610.5    3.461      54.402
2015   11       12    13  30    3.0583   610.5    3.457      54.335
2015   11       12    13  37    3.0532   610.5    3.452      54.267
2015   11       12    13  45    3.0482   610.5    3.448      54.201
2015   11       12    13  52    3.0433   610.4    3.443      54.134
2015   11       12    13  59    3.0384   610.4    3.438      54.068
2015   11       12    14   7    3.0336   610.4    3.434      54.001
2015   11       12    14  14    3.0288   610.4    3.429      53.935
2015   11       12    14  21    3.0240   610.4    3.424      53.867
2015   11       12    14  29    3.0193   610.3    3.420      53.799
2015   11       12    14  36    3.0146   610.3    3.415      53.729
2015   11       12    14  43    3.0100   610.3    3.410      53.660
2015   11       12    14  51    3.0054   610.2    3.405      53.590
2015   11       12    14  58    3.0008   610.2    3.399      53.519
2015   11       12    15   5    2.9963   610.2    3.394      53.448
2015   11       12    15  12    2.9918   610.1    3.389      53.377
2015   11       12    15  20    2.9873   610.1    3.384      53.304
2015   11       12    15  27    2.9830   610.1    3.379      53.232
2015   11       12    15  34    2.9786   610.0    3.373      53.159
2015   11       12    15  42    2.9743   610.0    3.368      53.087
2015   11       12    15  49    2.9701   609.9    3.363      53.014
2015   11       12    15  56    2.9659   609.9    3.357      52.942
2015   11       12    16   4    2.9618   609.9    3.352      52.868
2015   11       12    16  11    2.9577   609.8    3.347      52.796
2015   11       12    16  18    2.9536   609.8    3.342      52.723
2015   11       12    16  25    2.9497   609.7    3.336      52.651
2015   11       12    16  33    2.9457   609.7    3.331      52.578
2015   11       12    16  40    2.9418   609.6    3.326      52.506
2015   11       12    16  47    2.9379   609.5    3.321      52.434
2015   11       12    16  55    2.9341   609.5    3.316      52.363
2015   11       12    17   2    2.9303   609.4    3.311      52.291
2015   11       12    17   9    2.9266   609.3    3.306      52.221
2015   11       12    17  17    2.9229   609.3    3.302      52.151
2015   11       12    17  24    2.9192   609.2    3.297      52.082
2015   11       12    17  31    2.9156   609.1    3.292      52.013
2015   11       12    17  39    2.9120   609.0    3.288      51.945
2015   11       12    17  46    2.9084   608.9    3.283      51.876
2015   11       12    17  53    2.9049   608.8    3.279      51.810
2015   11       12    18   1    2.9014   608.8    3.275      51.743
2015   11       12    18   8    2.8979   608.7    3.271      51.677
2015   11       12    18  16    2.8945   608.6    3.267      51.611
2015   11       12    18  23    2.8911   608.5    3.263      51.547
2015   11       12    18  30    2.8878   608.4    3.259      51.483
2015   11       12    18  38    2.8845   608.2    3.256      51.419
2015   11       12    18  45    2.8812   608.1    3.252      51.356
2015   11       12    18  52    2.8779   608.0    3.249      51.294
2015   11       12    19   0    2.8747   607.9    3.245      51.231
2015   11       12    19   7    2.8716   607.8    3.242      51.170
2015   11       12    19  14    2.8684   607.7    3.239      51.109
2015   11       12    19  22    2.8653   607.6    3.236      51.048
2015   11       12    19  29    2.8622   607.5    3.233      50.988
2015   11       12    19  36    2.8592   607.3    3.230      50.928
2015   11       12    19  44    2.8563   607.2    3.228      50.869
2015   11       12    19  51    2.8533   607.1    3.225      50.810
2015   11       12    19  59    2.8504   607.0    3.222      50.752
2015   11       12    20   6    2.8476   606.8    3.220      50.695
2015   11       12    20  13    2.8447   606.7    3.218      50.637
2015   11       12    20  21    2.8420   606.6    3.215      50.581
2015   11       12    20  28    2.8392   606.5    3.213      50.525
2015   11       12    20  35    2.8365   606.4    3.211      50.469
2015   11       12    20  43    2.8337   606.3    3.209      50.414
2015   11       12    20  50    2.8310   606.1    3.207      50.360
2015   11       12    20  57    2.8283   606.0    3.205      50.305
2015   11       12    21   4    2.8257   605.9    3.203      50.252
2015   11       12    21  12    2.8230   605.8    3.201      50.198
2015   11       12    21  19    2.8204   605.7    3.199      50.145
2015   11       12    21  26    2.8177   605.5    3.197      50.092
2015   11       12    21  34    2.8151   605.4    3.195      50.040
2015   11       12    21  41    2.8124   605.3    3.193      49.987
2015   11       12    21  48    2.8098   605.2    3.191      49.935
2015   11       12    21  56    2.8072   605.1    3.190      49.883
2015   11       12    22   3    2.8046   604.9    3.188      49.831
2015   11       12    22  10    2.8020   604.8    3.186      49.780
2015   11       12    22  18    2.7995   604.7    3.184      49.729
2015   11       12    22  25    2.7970   604.6    3.183      49.679
2015   11       12    22  32    2.7946   604.4    3.181      49.629
2015   11       12    22  40    2.7921   604.3    3.180      49.580
2015   11       12    22  47    2.7898   604.2    3.178      49.532
2015   11       12    22  54    2.7874   604.0    3.177      49.485
2015   11       12    23   1    2.7852   603.9    3.176      49.439
2015   11       12    23   9    2.7829   603.8    3.175      49.393
2015   11       12    23  16    2.7808   603.7    3.174      49.350
2015   11       12    23  23    2.7787   603.5    3.173      49.306
2015   11       12    23  31    2.7767   603.4    3.173      49.265
2015   11       12    23  38    2.7748   603.3    3.172      49.224
2015   11       12    23  45    2.7729   603.2    3.172      49.185
2015   11       12    23  53    2.7710   603.1    3.172      49.148
2015   11       13     0   0    2.7691   602.9    3.172      49.113
