year    month   day   hour  minute  B_enl V_enl   n_enl       T_enl
[year] [month] [day] [hour][minute] [nT]  [km/s]  [cm-3]      [kK]
2015   11       18     0   3    5.1585   446.2    9.687      49.535
2015   11       18     0  10    5.1626   446.6    9.670      49.633
2015   11       18     0  17    5.1667   447.1    9.653      49.729
2015   11       18     0  24    5.1707   447.5    9.635      49.823
2015   11       18     0  31    5.1746   448.0    9.618      49.915
2015   11       18     0  38    5.1784   448.4    9.600      50.005
2015   11       18     0  45    5.1822   448.9    9.583      50.094
2015   11       18     0  52    5.1860   449.3    9.565      50.182
2015   11       18     0  59    5.1896   449.8    9.547      50.268
2015   11       18     1   6    5.1932   450.2    9.529      50.352
2015   11       18     1  13    5.1966   450.7    9.511      50.436
2015   11       18     1  20    5.1999   451.1    9.493      50.518
2015   11       18     1  27    5.2030   451.6    9.474      50.599
2015   11       18     1  34    5.2059   452.1    9.455      50.679
2015   11       18     1  41    5.2086   452.5    9.437      50.755
2015   11       18     1  48    5.2110   453.0    9.418      50.828
2015   11       18     1  55    5.2132   453.5    9.400      50.900
2015   11       18     2   2    5.2153   453.9    9.382      50.969
2015   11       18     2   9    5.2170   454.3    9.364      51.036
2015   11       18     2  16    5.2186   454.8    9.347      51.102
2015   11       18     2  23    5.2199   455.2    9.331      51.167
2015   11       18     2  30    5.2212   455.6    9.315      51.231
2015   11       18     2  37    5.2222   456.1    9.300      51.295
2015   11       18     2  44    5.2233   456.5    9.287      51.358
2015   11       18     2  51    5.2244   456.9    9.275      51.419
2015   11       18     2  58    5.2256   457.2    9.265      51.481
2015   11       18     3   5    5.2270   457.6    9.257      51.544
2015   11       18     3  12    5.2286   458.0    9.252      51.610
2015   11       18     3  19    5.2305   458.3    9.249      51.680
2015   11       18     3  26    5.2328   458.6    9.248      51.754
2015   11       18     3  33    5.2353   459.0    9.250      51.835
2015   11       18     3  40    5.2384   459.3    9.255      51.929
2015   11       18     3  47    5.2417   459.6    9.261      52.035
2015   11       18     3  54    5.2455   460.0    9.268      52.153
2015   11       18     4   2    5.2494   460.3    9.276      52.285
2015   11       18     4   9    5.2537   460.7    9.285      52.427
2015   11       18     4  16    5.2579   461.1    9.294      52.581
2015   11       18     4  23    5.2623   461.6    9.303      52.742
2015   11       18     4  30    5.2664   462.0    9.311      52.909
2015   11       18     4  37    5.2705   462.5    9.318      53.081
2015   11       18     4  44    5.2742   463.0    9.324      53.256
2015   11       18     4  51    5.2778   463.5    9.328      53.433
2015   11       18     4  58    5.2810   464.0    9.330      53.611
2015   11       18     5   5    5.2838   464.5    9.330      53.786
2015   11       18     5  12    5.2861   465.0    9.328      53.956
2015   11       18     5  19    5.2881   465.6    9.324      54.122
2015   11       18     5  26    5.2896   466.1    9.318      54.282
2015   11       18     5  33    5.2909   466.7    9.310      54.437
2015   11       18     5  40    5.2917   467.2    9.301      54.587
2015   11       18     5  47    5.2923   467.8    9.290      54.731
2015   11       18     5  54    5.2926   468.3    9.277      54.872
2015   11       18     6   1    5.2926   468.9    9.263      55.007
2015   11       18     6   8    5.2922   469.4    9.248      55.139
2015   11       18     6  15    5.2917   470.0    9.232      55.266
2015   11       18     6  22    5.2909   470.6    9.214      55.389
2015   11       18     6  29    5.2899   471.1    9.196      55.508
2015   11       18     6  36    5.2886   471.7    9.177      55.623
2015   11       18     6  43    5.2873   472.3    9.157      55.734
2015   11       18     6  50    5.2856   472.9    9.136      55.841
2015   11       18     6  57    5.2839   473.4    9.115      55.945
2015   11       18     7   4    5.2820   474.0    9.093      56.046
2015   11       18     7  12    5.2799   474.6    9.071      56.144
2015   11       18     7  19    5.2777   475.2    9.048      56.239
2015   11       18     7  26    5.2753   475.8    9.025      56.332
2015   11       18     7  33    5.2727   476.4    9.001      56.423
2015   11       18     7  40    5.2699   477.0    8.976      56.514
2015   11       18     7  47    5.2669   477.6    8.951      56.602
2015   11       18     7  54    5.2637   478.2    8.924      56.688
2015   11       18     8   1    5.2601   478.9    8.896      56.773
2015   11       18     8   8    5.2562   479.5    8.867      56.853
2015   11       18     8  15    5.2518   480.2    8.837      56.929
2015   11       18     8  22    5.2469   480.8    8.804      57.000
2015   11       18     8  29    5.2415   481.5    8.770      57.065
2015   11       18     8  36    5.2356   482.1    8.735      57.125
2015   11       18     8  43    5.2290   482.8    8.697      57.177
2015   11       18     8  50    5.2217   483.4    8.657      57.223
2015   11       18     8  57    5.2136   484.1    8.614      57.261
2015   11       18     9   4    5.2048   484.7    8.570      57.284
2015   11       18     9  11    5.1951   485.3    8.524      57.295
2015   11       18     9  18    5.1850   485.9    8.476      57.296
2015   11       18     9  25    5.1742   486.5    8.428      57.286
2015   11       18     9  32    5.1630   487.1    8.379      57.268
2015   11       18     9  39    5.1513   487.6    8.330      57.243
2015   11       18     9  46    5.1394   488.2    8.281      57.216
2015   11       18     9  53    5.1273   488.8    8.232      57.184
2015   11       18    10   0    5.1152   489.3    8.184      57.150
2015   11       18    10   7    5.1029   489.8    8.137      57.108
2015   11       18    10  14    5.0910   490.3    8.092      57.066
2015   11       18    10  21    5.0791   490.8    8.048      57.026
2015   11       18    10  28    5.0675   491.3    8.005      56.989
2015   11       18    10  35    5.0560   491.8    7.964      56.953
2015   11       18    10  42    5.0448   492.2    7.924      56.920
2015   11       18    10  49    5.0338   492.7    7.886      56.891
2015   11       18    10  56    5.0231   493.1    7.849      56.865
2015   11       18    11   3    5.0124   493.5    7.814      56.843
2015   11       18    11  10    5.0021   493.9    7.780      56.824
2015   11       18    11  17    4.9918   494.4    7.747      56.812
2015   11       18    11  24    4.9817   494.8    7.715      56.804
2015   11       18    11  31    4.9716   495.2    7.684      56.801
2015   11       18    11  38    4.9618   495.6    7.655      56.803
2015   11       18    11  45    4.9519   496.1    7.626      56.807
2015   11       18    11  52    4.9421   496.5    7.599      56.816
2015   11       18    11  59    4.9323   496.9    7.572      56.826
2015   11       18    12   7    4.9226   497.3    7.545      56.836
2015   11       18    12  14    4.9127   497.7    7.519      56.847
2015   11       18    12  21    4.9029   498.1    7.494      56.858
2015   11       18    12  28    4.8930   498.5    7.469      56.869
2015   11       18    12  35    4.8833   498.9    7.445      56.882
2015   11       18    12  42    4.8735   499.3    7.420      56.892
2015   11       18    12  49    4.8637   499.7    7.397      56.901
2015   11       18    12  56    4.8539   500.1    7.373      56.910
2015   11       18    13   3    4.8443   500.5    7.350      56.918
2015   11       18    13  10    4.8345   500.9    7.327      56.925
2015   11       18    13  17    4.8249   501.3    7.305      56.933
2015   11       18    13  24    4.8152   501.6    7.283      56.941
2015   11       18    13  31    4.8056   502.0    7.261      56.948
2015   11       18    13  38    4.7960   502.4    7.239      56.955
2015   11       18    13  45    4.7865   502.8    7.218      56.962
2015   11       18    13  52    4.7769   503.2    7.197      56.969
2015   11       18    13  59    4.7674   503.6    7.176      56.975
2015   11       18    14   6    4.7578   504.0    7.156      56.980
2015   11       18    14  13    4.7484   504.4    7.135      56.985
2015   11       18    14  20    4.7388   504.8    7.115      56.989
2015   11       18    14  27    4.7292   505.2    7.095      56.992
2015   11       18    14  34    4.7195   505.6    7.074      56.995
2015   11       18    14  41    4.7098   506.0    7.054      56.998
2015   11       18    14  48    4.6998   506.5    7.033      57.000
2015   11       18    14  55    4.6899   506.9    7.011      57.002
2015   11       18    15   2    4.6796   507.4    6.989      57.004
2015   11       18    15   9    4.6692   507.9    6.967      57.004
2015   11       18    15  16    4.6585   508.4    6.943      57.004
2015   11       18    15  24    4.6475   508.9    6.918      56.999
2015   11       18    15  31    4.6359   509.4    6.892      56.989
2015   11       18    15  38    4.6241   509.9    6.864      56.972
2015   11       18    15  45    4.6117   510.4    6.835      56.949
2015   11       18    15  52    4.5988   511.0    6.804      56.917
2015   11       18    15  59    4.5854   511.5    6.772      56.875
2015   11       18    16   6    4.5715   512.0    6.738      56.825
2015   11       18    16  13    4.5570   512.5    6.702      56.768
2015   11       18    16  20    4.5420   513.0    6.664      56.694
2015   11       18    16  27    4.5265   513.5    6.626      56.607
2015   11       18    16  34    4.5107   513.9    6.586      56.506
2015   11       18    16  41    4.4947   514.4    6.545      56.394
2015   11       18    16  48    4.4784   514.8    6.505      56.273
2015   11       18    16  55    4.4622   515.2    6.464      56.145
2015   11       18    17   2    4.4460   515.5    6.424      56.013
2015   11       18    17   9    4.4299   515.9    6.385      55.878
2015   11       18    17  16    4.4140   516.3    6.346      55.740
2015   11       18    17  23    4.3983   516.6    6.308      55.600
2015   11       18    17  30    4.3829   517.0    6.272      55.458
2015   11       18    17  37    4.3677   517.3    6.237      55.321
2015   11       18    17  44    4.3529   517.6    6.204      55.188
2015   11       18    17  51    4.3383   518.0    6.171      55.060
2015   11       18    17  58    4.3240   518.3    6.140      54.937
2015   11       18    18   5    4.3099   518.6    6.109      54.817
2015   11       18    18  12    4.2961   518.9    6.080      54.701
2015   11       18    18  19    4.2824   519.2    6.051      54.589
2015   11       18    18  26    4.2690   519.5    6.023      54.480
2015   11       18    18  33    4.2557   519.8    5.996      54.373
2015   11       18    18  40    4.2426   520.1    5.970      54.270
2015   11       18    18  47    4.2297   520.4    5.944      54.168
2015   11       18    18  54    4.2169   520.7    5.919      54.069
2015   11       18    19   1    4.2043   520.9    5.895      53.971
2015   11       18    19   8    4.1918   521.2    5.871      53.875
2015   11       18    19  15    4.1795   521.4    5.847      53.779
2015   11       18    19  22    4.1673   521.6    5.824      53.684
2015   11       18    19  29    4.1553   521.9    5.802      53.590
2015   11       18    19  36    4.1435   522.1    5.780      53.496
2015   11       18    19  43    4.1318   522.3    5.759      53.403
2015   11       18    19  50    4.1202   522.5    5.738      53.311
2015   11       18    19  57    4.1088   522.7    5.718      53.219
2015   11       18    20   5    4.0975   522.8    5.698      53.129
2015   11       18    20  12    4.0863   523.0    5.679      53.040
2015   11       18    20  19    4.0753   523.2    5.660      52.952
2015   11       18    20  26    4.0644   523.4    5.642      52.866
2015   11       18    20  33    4.0537   523.5    5.624      52.781
2015   11       18    20  40    4.0430   523.7    5.607      52.697
2015   11       18    20  47    4.0325   523.8    5.590      52.615
2015   11       18    20  54    4.0221   524.0    5.574      52.535
2015   11       18    21   1    4.0119   524.1    5.558      52.457
2015   11       18    21   8    4.0017   524.2    5.543      52.380
2015   11       18    21  15    3.9917   524.3    5.528      52.305
2015   11       18    21  22    3.9817   524.5    5.513      52.231
2015   11       18    21  29    3.9719   524.6    5.499      52.159
2015   11       18    21  36    3.9621   524.7    5.485      52.089
2015   11       18    21  43    3.9524   524.8    5.472      52.020
2015   11       18    21  50    3.9427   524.9    5.459      51.952
2015   11       18    21  57    3.9331   525.0    5.446      51.885
2015   11       18    22   4    3.9235   525.1    5.434      51.819
2015   11       18    22  11    3.9140   525.2    5.421      51.753
2015   11       18    22  18    3.9045   525.4    5.409      51.689
2015   11       18    22  25    3.8950   525.5    5.397      51.625
2015   11       18    22  32    3.8856   525.6    5.385      51.560
2015   11       18    22  39    3.8761   525.7    5.374      51.497
2015   11       18    22  46    3.8667   525.8    5.362      51.432
2015   11       18    22  53    3.8572   525.9    5.350      51.366
2015   11       18    23   0    3.8477   526.0    5.338      51.298
2015   11       18    23   7    3.8382   526.2    5.326      51.230
2015   11       18    23  14    3.8287   526.3    5.314      51.160
2015   11       18    23  21    3.8191   526.4    5.303      51.090
2015   11       18    23  28    3.8097   526.5    5.291      51.019
2015   11       18    23  35    3.8003   526.5    5.280      50.948
2015   11       18    23  42    3.7910   526.6    5.268      50.877
2015   11       18    23  50    3.7817   526.7    5.257      50.806
2015   11       18    23  57    3.7727   526.7    5.246      50.736
2015   11       19     0   4    3.7638   526.8    5.235      50.667
2015   11       19     0  11    3.7551   526.9    5.224      50.599
2015   11       19     0  18    3.7464   526.9    5.213      50.532
2015   11       19     0  25    3.7381   527.0    5.203      50.466
2015   11       19     0  32    3.7299   527.0    5.192      50.400
2015   11       19     0  39    3.7219   527.1    5.182      50.334
2015   11       19     0  46    3.7140   527.1    5.173      50.269
2015   11       19     0  53    3.7063   527.2    5.163      50.204
2015   11       19     1   0    3.6987   527.2    5.154      50.139
2015   11       19     1   7    3.6913   527.3    5.144      50.076
2015   11       19     1  14    3.6839   527.4    5.135      50.013
2015   11       19     1  21    3.6768   527.4    5.126      49.952
2015   11       19     1  28    3.6696   527.5    5.117      49.892
2015   11       19     1  35    3.6627   527.6    5.108      49.833
2015   11       19     1  42    3.6557   527.6    5.099      49.776
2015   11       19     1  49    3.6490   527.7    5.090      49.719
2015   11       19     1  56    3.6422   527.8    5.081      49.663
2015   11       19     2   3    3.6356   527.9    5.071      49.609
2015   11       19     2  10    3.6290   527.9    5.062      49.555
2015   11       19     2  17    3.6225   528.0    5.053      49.502
2015   11       19     2  24    3.6160   528.1    5.043      49.449
2015   11       19     2  31    3.6097   528.1    5.034      49.395
2015   11       19     2  38    3.6034   528.2    5.025      49.342
2015   11       19     2  45    3.5972   528.3    5.015      49.288
2015   11       19     2  52    3.5910   528.3    5.006      49.234
2015   11       19     2  59    3.5849   528.4    4.997      49.181
2015   11       19     3   6    3.5788   528.5    4.988      49.127
2015   11       19     3  13    3.5729   528.5    4.978      49.073
2015   11       19     3  20    3.5669   528.6    4.969      49.019
2015   11       19     3  27    3.5611   528.6    4.960      48.965
2015   11       19     3  34    3.5553   528.7    4.951      48.911
2015   11       19     3  41    3.5495   528.8    4.943      48.857
2015   11       19     3  48    3.5438   528.8    4.934      48.803
2015   11       19     3  56    3.5382   528.9    4.925      48.749
2015   11       19     4   3    3.5326   528.9    4.917      48.695
2015   11       19     4  10    3.5271   529.0    4.908      48.641
2015   11       19     4  17    3.5217   529.0    4.900      48.588
2015   11       19     4  24    3.5163   529.1    4.892      48.535
2015   11       19     4  31    3.5109   529.1    4.884      48.482
2015   11       19     4  38    3.5056   529.2    4.876      48.429
2015   11       19     4  45    3.5004   529.2    4.868      48.377
2015   11       19     4  52    3.4952   529.3    4.860      48.325
2015   11       19     4  59    3.4901   529.3    4.853      48.274
2015   11       19     5   6    3.4850   529.3    4.845      48.224
2015   11       19     5  13    3.4800   529.4    4.838      48.174
2015   11       19     5  20    3.4751   529.4    4.831      48.125
2015   11       19     5  27    3.4702   529.5    4.824      48.076
2015   11       19     5  34    3.4653   529.5    4.818      48.028
2015   11       19     5  41    3.4605   529.5    4.811      47.981
2015   11       19     5  48    3.4558   529.6    4.805      47.935
2015   11       19     5  55    3.4511   529.6    4.798      47.889
2015   11       19     6   2    3.4464   529.6    4.792      47.843
2015   11       19     6   9    3.4418   529.7    4.786      47.799
2015   11       19     6  16    3.4372   529.7    4.780      47.755
2015   11       19     6  23    3.4327   529.7    4.774      47.711
2015   11       19     6  30    3.4282   529.8    4.768      47.667
2015   11       19     6  37    3.4237   529.8    4.762      47.625
2015   11       19     6  44    3.4193   529.8    4.756      47.582
2015   11       19     6  51    3.4149   529.8    4.750      47.540
2015   11       19     6  58    3.4106   529.9    4.745      47.498
2015   11       19     7   5    3.4063   529.9    4.739      47.457
2015   11       19     7  12    3.4020   529.9    4.733      47.416
2015   11       19     7  19    3.3978   529.9    4.727      47.375
2015   11       19     7  26    3.3936   529.9    4.722      47.334
2015   11       19     7  33    3.3894   530.0    4.716      47.294
2015   11       19     7  40    3.3853   530.0    4.710      47.254
2015   11       19     7  47    3.3812   530.0    4.705      47.214
2015   11       19     7  54    3.3771   530.0    4.699      47.173
2015   11       19     8   1    3.3731   530.0    4.693      47.133
2015   11       19     8   8    3.3691   530.0    4.688      47.093
2015   11       19     8  15    3.3651   530.0    4.682      47.054
2015   11       19     8  22    3.3612   530.1    4.676      47.014
2015   11       19     8  29    3.3573   530.1    4.671      46.974
2015   11       19     8  36    3.3534   530.1    4.665      46.934
2015   11       19     8  44    3.3495   530.1    4.660      46.895
2015   11       19     8  51    3.3457   530.1    4.654      46.855
2015   11       19     8  58    3.3419   530.1    4.649      46.816
2015   11       19     9   5    3.3381   530.1    4.643      46.776
2015   11       19     9  12    3.3344   530.1    4.638      46.737
2015   11       19     9  19    3.3306   530.1    4.633      46.697
2015   11       19     9  26    3.3270   530.1    4.627      46.658
2015   11       19     9  33    3.3233   530.1    4.622      46.619
2015   11       19     9  40    3.3196   530.1    4.617      46.581
2015   11       19     9  47    3.3160   530.1    4.612      46.542
2015   11       19     9  54    3.3124   530.1    4.607      46.504
2015   11       19    10   1    3.3089   530.1    4.601      46.465
2015   11       19    10   8    3.3053   530.1    4.597      46.427
2015   11       19    10  15    3.3018   530.1    4.592      46.390
2015   11       19    10  22    3.2983   530.1    4.587      46.352
2015   11       19    10  29    3.2949   530.1    4.582      46.315
2015   11       19    10  36    3.2914   530.1    4.577      46.278
2015   11       19    10  43    3.2880   530.1    4.573      46.241
2015   11       19    10  50    3.2846   530.1    4.568      46.205
2015   11       19    10  57    3.2813   530.1    4.564      46.169
2015   11       19    11   4    3.2779   530.1    4.560      46.134
2015   11       19    11  11    3.2746   530.1    4.555      46.098
2015   11       19    11  18    3.2713   530.1    4.551      46.064
2015   11       19    11  25    3.2681   530.1    4.547      46.029
2015   11       19    11  32    3.2648   530.1    4.543      45.995
2015   11       19    11  39    3.2616   530.1    4.539      45.962
2015   11       19    11  46    3.2584   530.0    4.536      45.928
2015   11       19    11  53    3.2553   530.0    4.532      45.895
2015   11       19    12   1    3.2522   530.0    4.528      45.863
2015   11       19    12   8    3.2491   530.0    4.525      45.831
2015   11       19    12  15    3.2460   530.0    4.521      45.799
2015   11       19    12  22    3.2429   530.0    4.518      45.767
2015   11       19    12  29    3.2399   530.0    4.515      45.736
2015   11       19    12  36    3.2369   530.0    4.511      45.705
2015   11       19    12  43    3.2339   530.0    4.508      45.674
2015   11       19    12  50    3.2310   529.9    4.505      45.643
2015   11       19    12  57    3.2280   529.9    4.501      45.612
2015   11       19    13   4    3.2251   529.9    4.498      45.582
2015   11       19    13  11    3.2222   529.9    4.495      45.551
2015   11       19    13  18    3.2193   529.9    4.492      45.521
2015   11       19    13  25    3.2165   529.9    4.488      45.491
2015   11       19    13  32    3.2136   529.9    4.485      45.460
2015   11       19    13  39    3.2108   529.8    4.482      45.430
2015   11       19    13  46    3.2079   529.8    4.479      45.400
2015   11       19    13  53    3.2051   529.8    4.476      45.369
2015   11       19    14   0    3.2023   529.8    4.472      45.339
2015   11       19    14   7    3.1995   529.8    4.469      45.308
2015   11       19    14  14    3.1968   529.8    4.466      45.277
2015   11       19    14  21    3.1940   529.7    4.462      45.246
2015   11       19    14  28    3.1913   529.7    4.459      45.215
2015   11       19    14  35    3.1885   529.7    4.456      45.184
2015   11       19    14  42    3.1858   529.7    4.453      45.153
2015   11       19    14  49    3.1831   529.6    4.449      45.122
2015   11       19    14  56    3.1804   529.6    4.446      45.090
2015   11       19    15   3    3.1777   529.6    4.443      45.059
2015   11       19    15  10    3.1750   529.6    4.439      45.028
2015   11       19    15  17    3.1723   529.5    4.436      44.996
2015   11       19    15  24    3.1696   529.5    4.433      44.964
2015   11       19    15  31    3.1670   529.5    4.430      44.933
2015   11       19    15  38    3.1644   529.5    4.426      44.901
2015   11       19    15  45    3.1618   529.4    4.423      44.870
2015   11       19    15  52    3.1592   529.4    4.420      44.838
2015   11       19    15  59    3.1566   529.4    4.417      44.806
2015   11       19    16   6    3.1540   529.3    4.414      44.775
2015   11       19    16  13    3.1515   529.3    4.411      44.744
2015   11       19    16  20    3.1489   529.3    4.408      44.713
2015   11       19    16  27    3.1464   529.2    4.405      44.682
2015   11       19    16  34    3.1439   529.2    4.402      44.651
2015   11       19    16  41    3.1414   529.2    4.399      44.620
2015   11       19    16  49    3.1390   529.1    4.397      44.590
2015   11       19    16  56    3.1365   529.1    4.394      44.560
2015   11       19    17   3    3.1341   529.1    4.391      44.530
2015   11       19    17  10    3.1317   529.0    4.389      44.500
2015   11       19    17  17    3.1293   529.0    4.386      44.470
2015   11       19    17  24    3.1269   529.0    4.384      44.441
2015   11       19    17  31    3.1246   528.9    4.381      44.412
2015   11       19    17  38    3.1222   528.9    4.379      44.383
2015   11       19    17  45    3.1199   528.8    4.376      44.355
2015   11       19    17  52    3.1176   528.8    4.374      44.327
2015   11       19    17  59    3.1153   528.8    4.372      44.299
2015   11       19    18   6    3.1130   528.7    4.369      44.271
2015   11       19    18  13    3.1107   528.7    4.367      44.243
2015   11       19    18  20    3.1085   528.6    4.365      44.216
2015   11       19    18  27    3.1062   528.6    4.363      44.189
2015   11       19    18  34    3.1040   528.5    4.361      44.162
2015   11       19    18  41    3.1018   528.5    4.359      44.135
2015   11       19    18  48    3.0996   528.4    4.357      44.108
2015   11       19    18  55    3.0974   528.4    4.355      44.082
2015   11       19    19   2    3.0952   528.3    4.353      44.055
2015   11       19    19   9    3.0930   528.3    4.351      44.029
2015   11       19    19  16    3.0908   528.3    4.349      44.003
2015   11       19    19  23    3.0886   528.2    4.347      43.977
2015   11       19    19  30    3.0865   528.2    4.345      43.951
2015   11       19    19  37    3.0843   528.1    4.343      43.925
2015   11       19    19  44    3.0821   528.1    4.341      43.899
2015   11       19    19  51    3.0800   528.0    4.339      43.873
2015   11       19    19  58    3.0778   528.0    4.337      43.847
2015   11       19    20   6    3.0756   527.9    4.335      43.821
2015   11       19    20  13    3.0735   527.9    4.333      43.795
2015   11       19    20  20    3.0713   527.8    4.331      43.769
2015   11       19    20  27    3.0691   527.8    4.329      43.742
2015   11       19    20  34    3.0670   527.7    4.327      43.716
2015   11       19    20  41    3.0648   527.7    4.325      43.689
2015   11       19    20  48    3.0627   527.6    4.323      43.663
2015   11       19    20  55    3.0605   527.6    4.321      43.636
2015   11       19    21   2    3.0584   527.5    4.319      43.609
2015   11       19    21   9    3.0562   527.5    4.317      43.581
2015   11       19    21  16    3.0541   527.4    4.315      43.554
2015   11       19    21  23    3.0519   527.4    4.313      43.526
2015   11       19    21  30    3.0498   527.3    4.311      43.498
2015   11       19    21  37    3.0476   527.3    4.308      43.470
2015   11       19    21  44    3.0455   527.2    4.306      43.442
2015   11       19    21  51    3.0434   527.1    4.304      43.414
2015   11       19    21  58    3.0412   527.1    4.302      43.385
2015   11       19    22   5    3.0391   527.0    4.300      43.356
2015   11       19    22  12    3.0370   527.0    4.298      43.328
2015   11       19    22  18    3.0353   526.9    4.296      43.307
2015   11       19    22  24    3.0335   526.9    4.294      43.286
2015   11       19    22  29    3.0318   526.8    4.292      43.265
2015   11       19    22  35    3.0301   526.8    4.290      43.245
2015   11       19    22  41    3.0284   526.7    4.289      43.224
2015   11       19    22  47    3.0267   526.7    4.287      43.204
2015   11       19    22  52    3.0250   526.6    4.285      43.184
2015   11       19    22  58    3.0234   526.6    4.284      43.165
2015   11       19    23   3    3.0218   526.5    4.282      43.146
2015   11       19    23   9    3.0202   526.5    4.281      43.127
2015   11       19    23  15    3.0186   526.4    4.279      43.109
2015   11       19    23  20    3.0170   526.4    4.278      43.090
2015   11       19    23  26    3.0155   526.3    4.276      43.072
2015   11       19    23  31    3.0139   526.3    4.275      43.054
2015   11       19    23  37    3.0124   526.2    4.274      43.036
2015   11       19    23  42    3.0108   526.2    4.273      43.018
2015   11       19    23  48    3.0093   526.1    4.271      43.001
2015   11       19    23  53    3.0078   526.1    4.270      42.983
2015   11       19    23  59    3.0063   526.0    4.269      42.966
2015   11       20     0   5    3.0048   526.0    4.268      42.949
2015   11       20     0  10    3.0033   525.9    4.267      42.931
2015   11       20     0  16    3.0018   525.9    4.266      42.914
2015   11       20     0  22    3.0003   525.8    4.265      42.896
2015   11       20     0  27    2.9988   525.8    4.264      42.879
2015   11       20     0  33    2.9973   525.7    4.263      42.862
2015   11       20     0  39    2.9958   525.7    4.262      42.845
2015   11       20     0  44    2.9943   525.6    4.261      42.828
2015   11       20     0  50    2.9929   525.6    4.260      42.812
2015   11       20     0  56    2.9914   525.5    4.259      42.795
2015   11       20     1   1    2.9900   525.4    4.259      42.779
2015   11       20     1   7    2.9885   525.4    4.258      42.762
2015   11       20     1  13    2.9871   525.3    4.257      42.746
2015   11       20     1  19    2.9856   525.3    4.256      42.729
2015   11       20     1  24    2.9842   525.2    4.256      42.712
2015   11       20     1  30    2.9827   525.2    4.255      42.696
2015   11       20     1  36    2.9813   525.1    4.254      42.679
2015   11       20     1  42    2.9798   525.0    4.253      42.662
2015   11       20     1  48    2.9783   525.0    4.253      42.645
2015   11       20     1  54    2.9769   524.9    4.252      42.627
2015   11       20     2   0    2.9754   524.9    4.251      42.610
2015   11       20     2   6    2.9739   524.8    4.251      42.592
2015   11       20     2  12    2.9724   524.7    4.250      42.574
2015   11       20     2  18    2.9709   524.7    4.249      42.556
2015   11       20     2  24    2.9694   524.6    4.248      42.537
2015   11       20     2  30    2.9678   524.5    4.247      42.519
2015   11       20     2  36    2.9663   524.5    4.247      42.499
2015   11       20     2  42    2.9648   524.4    4.246      42.480
2015   11       20     2  48    2.9632   524.3    4.245      42.460
2015   11       20     2  55    2.9616   524.3    4.244      42.440
2015   11       20     3   1    2.9601   524.2    4.243      42.420
2015   11       20     3   7    2.9585   524.1    4.242      42.400
2015   11       20     3  14    2.9569   524.0    4.241      42.378
2015   11       20     3  20    2.9553   524.0    4.240      42.357
2015   11       20     3  26    2.9537   523.9    4.239      42.336
2015   11       20     3  33    2.9520   523.8    4.238      42.313
2015   11       20     3  40    2.9504   523.7    4.237      42.291
2015   11       20     3  46    2.9488   523.7    4.236      42.268
2015   11       20     3  53    2.9471   523.6    4.234      42.244
2015   11       20     4   0    2.9454   523.5    4.233      42.221
2015   11       20     4   6    2.9438   523.4    4.232      42.197
2015   11       20     4  13    2.9421   523.3    4.230      42.172
2015   11       20     4  20    2.9404   523.3    4.229      42.147
2015   11       20     4  26    2.9388   523.2    4.228      42.122
2015   11       20     4  33    2.9371   523.1    4.226      42.096
2015   11       20     4  40    2.9354   523.0    4.225      42.070
2015   11       20     4  47    2.9337   522.9    4.223      42.044
2015   11       20     4  54    2.9320   522.9    4.222      42.017
2015   11       20     5   1    2.9303   522.8    4.220      41.989
2015   11       20     5   8    2.9286   522.7    4.219      41.961
2015   11       20     5  15    2.9269   522.6    4.217      41.933
2015   11       20     5  22    2.9251   522.5    4.216      41.904
2015   11       20     5  29    2.9234   522.4    4.214      41.876
2015   11       20     5  36    2.9217   522.3    4.213      41.847
2015   11       20     5  43    2.9201   522.2    4.211      41.819
2015   11       20     5  50    2.9184   522.1    4.210      41.790
2015   11       20     5  57    2.9167   522.0    4.208      41.762
2015   11       20     6   4    2.9150   522.0    4.207      41.733
2015   11       20     6  11    2.9134   521.9    4.205      41.705
2015   11       20     6  18    2.9118   521.8    4.204      41.677
2015   11       20     6  25    2.9101   521.7    4.203      41.649
2015   11       20     6  32    2.9085   521.6    4.201      41.622
2015   11       20     6  39    2.9069   521.5    4.200      41.594
2015   11       20     6  46    2.9053   521.4    4.199      41.567
2015   11       20     6  53    2.9037   521.3    4.198      41.540
2015   11       20     7   0    2.9022   521.2    4.197      41.514
2015   11       20     7   7    2.9006   521.1    4.196      41.488
2015   11       20     7  14    2.8991   521.0    4.196      41.462
2015   11       20     7  21    2.8975   520.9    4.195      41.436
2015   11       20     7  28    2.8960   520.8    4.194      41.411
2015   11       20     7  35    2.8945   520.7    4.193      41.386
2015   11       20     7  42    2.8930   520.6    4.193      41.361
2015   11       20     7  49    2.8914   520.5    4.192      41.337
2015   11       20     7  56    2.8899   520.4    4.192      41.312
2015   11       20     8   3    2.8884   520.3    4.192      41.288
2015   11       20     8  10    2.8869   520.2    4.191      41.264
2015   11       20     8  17    2.8854   520.1    4.191      41.240
2015   11       20     8  24    2.8839   520.0    4.191      41.216
2015   11       20     8  32    2.8824   520.0    4.190      41.192
2015   11       20     8  39    2.8809   519.9    4.190      41.168
2015   11       20     8  46    2.8794   519.8    4.190      41.144
2015   11       20     8  53    2.8779   519.7    4.190      41.120
2015   11       20     9   0    2.8764   519.6    4.189      41.096
2015   11       20     9   7    2.8749   519.5    4.189      41.072
2015   11       20     9  14    2.8734   519.4    4.189      41.048
2015   11       20     9  21    2.8719   519.2    4.189      41.024
2015   11       20     9  28    2.8704   519.1    4.189      40.999
2015   11       20     9  35    2.8689   519.0    4.188      40.975
2015   11       20     9  42    2.8674   518.9    4.188      40.950
2015   11       20     9  49    2.8658   518.8    4.188      40.926
2015   11       20     9  56    2.8643   518.7    4.187      40.901
2015   11       20    10   3    2.8628   518.6    4.187      40.876
2015   11       20    10  10    2.8613   518.5    4.187      40.851
2015   11       20    10  17    2.8598   518.4    4.187      40.826
2015   11       20    10  24    2.8583   518.3    4.186      40.801
2015   11       20    10  31    2.8568   518.2    4.186      40.776
2015   11       20    10  38    2.8554   518.1    4.185      40.751
2015   11       20    10  45    2.8539   518.0    4.185      40.726
2015   11       20    10  52    2.8524   517.9    4.185      40.701
2015   11       20    10  59    2.8509   517.8    4.184      40.676
2015   11       20    11   6    2.8495   517.6    4.184      40.650
2015   11       20    11  13    2.8480   517.5    4.184      40.625
2015   11       20    11  20    2.8466   517.4    4.183      40.599
2015   11       20    11  27    2.8451   517.3    4.183      40.574
2015   11       20    11  34    2.8436   517.2    4.182      40.548
2015   11       20    11  41    2.8422   517.1    4.182      40.522
2015   11       20    11  48    2.8407   517.0    4.181      40.495
2015   11       20    11  56    2.8393   516.9    4.181      40.469
2015   11       20    12   3    2.8378   516.8    4.180      40.443
2015   11       20    12  10    2.8364   516.6    4.179      40.416
2015   11       20    12  17    2.8349   516.5    4.179      40.389
2015   11       20    12  24    2.8335   516.4    4.178      40.362
2015   11       20    12  31    2.8320   516.3    4.177      40.335
2015   11       20    12  38    2.8306   516.2    4.177      40.307
2015   11       20    12  45    2.8291   516.1    4.176      40.280
2015   11       20    12  52    2.8277   516.0    4.175      40.252
2015   11       20    12  59    2.8262   515.8    4.175      40.224
2015   11       20    13   6    2.8248   515.7    4.174      40.197
2015   11       20    13  13    2.8233   515.6    4.173      40.169
2015   11       20    13  20    2.8219   515.5    4.173      40.141
2015   11       20    13  27    2.8205   515.4    4.172      40.112
2015   11       20    13  34    2.8190   515.3    4.171      40.084
2015   11       20    13  41    2.8176   515.1    4.171      40.056
2015   11       20    13  48    2.8162   515.0    4.170      40.029
2015   11       20    13  55    2.8148   514.9    4.169      40.001
2015   11       20    14   2    2.8134   514.8    4.169      39.973
2015   11       20    14   9    2.8120   514.7    4.168      39.945
2015   11       20    14  16    2.8106   514.5    4.168      39.917
2015   11       20    14  23    2.8092   514.4    4.167      39.889
2015   11       20    14  30    2.8078   514.3    4.167      39.862
2015   11       20    14  37    2.8064   514.2    4.166      39.834
2015   11       20    14  44    2.8051   514.1    4.166      39.807
2015   11       20    14  51    2.8037   513.9    4.165      39.780
2015   11       20    14  58    2.8024   513.8    4.165      39.752
2015   11       20    15   5    2.8010   513.7    4.165      39.725
2015   11       20    15  12    2.7996   513.6    4.164      39.698
2015   11       20    15  19    2.7983   513.4    4.164      39.670
2015   11       20    15  26    2.7969   513.3    4.164      39.643
2015   11       20    15  33    2.7956   513.2    4.163      39.616
2015   11       20    15  40    2.7943   513.1    4.163      39.588
2015   11       20    15  47    2.7929   513.0    4.163      39.561
2015   11       20    15  54    2.7916   512.8    4.163      39.533
2015   11       20    16   1    2.7902   512.7    4.163      39.506
2015   11       20    16   8    2.7889   512.6    4.162      39.478
2015   11       20    16  15    2.7876   512.5    4.162      39.450
2015   11       20    16  22    2.7862   512.3    4.162      39.422
2015   11       20    16  29    2.7849   512.2    4.162      39.395
2015   11       20    16  36    2.7836   512.1    4.162      39.367
2015   11       20    16  43    2.7822   511.9    4.162      39.339
2015   11       20    16  50    2.7809   511.8    4.162      39.311
2015   11       20    16  57    2.7796   511.7    4.161      39.283
2015   11       20    17   5    2.7783   511.6    4.161      39.255
2015   11       20    17  12    2.7769   511.4    4.161      39.227
2015   11       20    17  19    2.7756   511.3    4.161      39.199
2015   11       20    17  26    2.7743   511.2    4.161      39.171
2015   11       20    17  33    2.7730   511.0    4.161      39.143
2015   11       20    17  40    2.7717   510.9    4.161      39.115
2015   11       20    17  47    2.7704   510.8    4.161      39.088
2015   11       20    17  54    2.7690   510.6    4.161      39.060
2015   11       20    18   1    2.7677   510.5    4.161      39.033
2015   11       20    18   8    2.7664   510.4    4.161      39.005
2015   11       20    18  15    2.7651   510.3    4.161      38.978
2015   11       20    18  22    2.7638   510.1    4.161      38.950
2015   11       20    18  29    2.7625   510.0    4.161      38.923
2015   11       20    18  36    2.7612   509.9    4.161      38.896
2015   11       20    18  43    2.7599   509.7    4.161      38.868
2015   11       20    18  50    2.7586   509.6    4.161      38.841
2015   11       20    18  57    2.7573   509.5    4.161      38.814
2015   11       20    19   4    2.7560   509.3    4.161      38.787
2015   11       20    19  11    2.7547   509.2    4.161      38.760
2015   11       20    19  18    2.7534   509.1    4.161      38.733
2015   11       20    19  25    2.7521   508.9    4.161      38.706
2015   11       20    19  32    2.7508   508.8    4.161      38.678
2015   11       20    19  39    2.7495   508.7    4.161      38.651
2015   11       20    19  46    2.7482   508.5    4.161      38.624
2015   11       20    19  53    2.7469   508.4    4.161      38.597
2015   11       20    20   0    2.7456   508.3    4.161      38.570
2015   11       20    20   7    2.7443   508.1    4.161      38.543
2015   11       20    20  14    2.7431   508.0    4.161      38.516
2015   11       20    20  21    2.7418   507.9    4.161      38.489
2015   11       20    20  28    2.7405   507.7    4.161      38.462
2015   11       20    20  35    2.7392   507.6    4.161      38.435
2015   11       20    20  42    2.7380   507.5    4.161      38.407
2015   11       20    20  49    2.7367   507.3    4.161      38.380
2015   11       20    20  56    2.7355   507.2    4.161      38.353
2015   11       20    21   3    2.7342   507.1    4.161      38.326
2015   11       20    21  11    2.7330   506.9    4.161      38.299
2015   11       20    21  18    2.7317   506.8    4.161      38.272
2015   11       20    21  25    2.7305   506.7    4.161      38.245
2015   11       20    21  32    2.7293   506.5    4.161      38.218
2015   11       20    21  39    2.7281   506.4    4.161      38.191
2015   11       20    21  46    2.7269   506.2    4.161      38.163
2015   11       20    21  53    2.7258   506.1    4.161      38.136
2015   11       20    22   0    2.7246   506.0    4.162      38.109
2015   11       20    22   7    2.7234   505.8    4.162      38.083
2015   11       20    22  14    2.7223   505.7    4.162      38.056
2015   11       20    22  21    2.7211   505.5    4.162      38.029
2015   11       20    22  28    2.7200   505.4    4.163      38.002
2015   11       20    22  35    2.7189   505.3    4.163      37.975
2015   11       20    22  42    2.7177   505.1    4.163      37.948
2015   11       20    22  49    2.7166   505.0    4.164      37.922
2015   11       20    22  56    2.7155   504.8    4.164      37.895
2015   11       20    23   3    2.7144   504.7    4.165      37.868
2015   11       20    23  10    2.7133   504.5    4.165      37.842
2015   11       20    23  17    2.7123   504.4    4.165      37.815
2015   11       20    23  24    2.7112   504.3    4.166      37.788
2015   11       20    23  31    2.7101   504.1    4.166      37.762
2015   11       20    23  38    2.7090   504.0    4.167      37.735
2015   11       20    23  45    2.7079   503.8    4.167      37.709
2015   11       20    23  52    2.7069   503.7    4.168      37.682
2015   11       20    23  59    2.7058   503.5    4.168      37.655
2015   11       21     0   6    2.7047   503.4    4.169      37.628
2015   11       21     0  13    2.7036   503.2    4.169      37.601
2015   11       21     0  20    2.7025   503.1    4.170      37.574
2015   11       21     0  27    2.7014   503.0    4.170      37.547
2015   11       21     0  34    2.7004   502.8    4.170      37.520
2015   11       21     0  41    2.6993   502.7    4.171      37.492
2015   11       21     0  48    2.6982   502.5    4.171      37.464
2015   11       21     0  55    2.6971   502.4    4.171      37.437
2015   11       21     1   2    2.6960   502.2    4.172      37.409
2015   11       21     1   9    2.6949   502.1    4.172      37.381
2015   11       21     1  16    2.6938   501.9    4.172      37.352
2015   11       21     1  23    2.6927   501.8    4.172      37.324
2015   11       21     1  31    2.6915   501.6    4.173      37.295
2015   11       21     1  38    2.6904   501.5    4.173      37.267
2015   11       21     1  45    2.6893   501.3    4.173      37.238
2015   11       21     1  52    2.6882   501.2    4.173      37.209
2015   11       21     1  59    2.6871   501.0    4.173      37.179
2015   11       21     2   6    2.6860   500.9    4.173      37.150
2015   11       21     2  13    2.6849   500.7    4.173      37.121
2015   11       21     2  20    2.6838   500.6    4.173      37.092
2015   11       21     2  27    2.6827   500.4    4.173      37.062
2015   11       21     2  34    2.6817   500.2    4.173      37.033
2015   11       21     2  41    2.6806   500.1    4.173      37.003
2015   11       21     2  48    2.6795   499.9    4.174      36.974
2015   11       21     2  55    2.6784   499.8    4.174      36.945
2015   11       21     3   2    2.6774   499.6    4.174      36.916
2015   11       21     3   9    2.6763   499.5    4.174      36.887
2015   11       21     3  16    2.6752   499.3    4.174      36.858
2015   11       21     3  23    2.6742   499.1    4.174      36.829
2015   11       21     3  30    2.6732   499.0    4.174      36.800
2015   11       21     3  37    2.6721   498.8    4.175      36.772
2015   11       21     3  44    2.6711   498.7    4.175      36.744
2015   11       21     3  51    2.6702   498.5    4.176      36.716
2015   11       21     3  58    2.6692   498.3    4.176      36.688
2015   11       21     4   5    2.6682   498.2    4.177      36.660
2015   11       21     4  12    2.6672   498.0    4.177      36.633
2015   11       21     4  19    2.6663   497.9    4.178      36.606
2015   11       21     4  26    2.6654   497.7    4.178      36.579
2015   11       21     4  33    2.6645   497.5    4.179      36.553
2015   11       21     4  40    2.6636   497.4    4.180      36.526
2015   11       21     4  47    2.6627   497.2    4.181      36.500
2015   11       21     4  54    2.6618   497.1    4.182      36.475
2015   11       21     5   1    2.6610   496.9    4.183      36.449
2015   11       21     5   8    2.6601   496.7    4.184      36.424
2015   11       21     5  15    2.6593   496.6    4.185      36.399
2015   11       21     5  22    2.6585   496.4    4.187      36.374
2015   11       21     5  29    2.6577   496.2    4.188      36.349
2015   11       21     5  36    2.6570   496.1    4.189      36.325
2015   11       21     5  43    2.6562   495.9    4.191      36.300
2015   11       21     5  50    2.6555   495.7    4.192      36.276
2015   11       21     5  57    2.6547   495.6    4.194      36.252
2015   11       21     6   4    2.6540   495.4    4.195      36.229
2015   11       21     6  11    2.6533   495.2    4.197      36.205
2015   11       21     6  18    2.6526   495.1    4.199      36.182
2015   11       21     6  25    2.6519   494.9    4.200      36.159
2015   11       21     6  32    2.6512   494.7    4.202      36.136
2015   11       21     6  39    2.6505   494.6    4.204      36.113
2015   11       21     6  46    2.6498   494.4    4.205      36.090
2015   11       21     6  54    2.6491   494.3    4.207      36.068
2015   11       21     7   1    2.6484   494.1    4.209      36.045
2015   11       21     7   8    2.6478   493.9    4.211      36.023
2015   11       21     7  15    2.6471   493.7    4.212      36.001
2015   11       21     7  22    2.6464   493.6    4.214      35.979
2015   11       21     7  29    2.6458   493.4    4.216      35.956
2015   11       21     7  36    2.6451   493.2    4.218      35.934
2015   11       21     7  43    2.6444   493.1    4.220      35.912
2015   11       21     7  50    2.6438   492.9    4.221      35.890
2015   11       21     7  57    2.6431   492.7    4.223      35.868
2015   11       21     8   4    2.6424   492.6    4.225      35.846
2015   11       21     8  11    2.6418   492.4    4.227      35.824
2015   11       21     8  18    2.6411   492.2    4.228      35.802
2015   11       21     8  25    2.6404   492.1    4.230      35.779
2015   11       21     8  32    2.6397   491.9    4.231      35.757
2015   11       21     8  39    2.6391   491.7    4.233      35.735
2015   11       21     8  46    2.6384   491.6    4.235      35.712
2015   11       21     8  53    2.6377   491.4    4.236      35.689
2015   11       21     9   0    2.6370   491.2    4.238      35.666
2015   11       21     9   7    2.6364   491.0    4.239      35.644
2015   11       21     9  14    2.6357   490.9    4.240      35.620
2015   11       21     9  21    2.6351   490.7    4.242      35.597
2015   11       21     9  28    2.6344   490.5    4.243      35.574
2015   11       21     9  35    2.6337   490.3    4.245      35.551
2015   11       21     9  42    2.6331   490.2    4.246      35.527
2015   11       21     9  49    2.6324   490.0    4.247      35.504
2015   11       21     9  56    2.6318   489.8    4.249      35.481
2015   11       21    10   3    2.6312   489.6    4.250      35.457
2015   11       21    10  10    2.6305   489.5    4.251      35.434
2015   11       21    10  17    2.6299   489.3    4.253      35.410
2015   11       21    10  24    2.6293   489.1    4.254      35.387
2015   11       21    10  31    2.6287   488.9    4.255      35.364
2015   11       21    10  39    2.6281   488.8    4.257      35.341
2015   11       21    10  46    2.6276   488.6    4.258      35.318
2015   11       21    10  53    2.6270   488.4    4.259      35.295
2015   11       21    11   0    2.6265   488.2    4.261      35.272
2015   11       21    11   7    2.6260   488.1    4.262      35.250
2015   11       21    11  14    2.6255   487.9    4.264      35.227
2015   11       21    11  21    2.6250   487.7    4.266      35.205
2015   11       21    11  28    2.6245   487.5    4.267      35.183
2015   11       21    11  35    2.6240   487.4    4.269      35.161
2015   11       21    11  42    2.6236   487.2    4.271      35.139
2015   11       21    11  49    2.6231   487.0    4.273      35.117
2015   11       21    11  56    2.6227   486.8    4.274      35.095
2015   11       21    12   3    2.6223   486.6    4.276      35.074
2015   11       21    12  10    2.6220   486.5    4.278      35.052
2015   11       21    12  17    2.6216   486.3    4.280      35.031
2015   11       21    12  24    2.6212   486.1    4.282      35.009
2015   11       21    12  31    2.6208   485.9    4.284      34.988
2015   11       21    12  38    2.6205   485.8    4.286      34.967
2015   11       21    12  45    2.6202   485.6    4.288      34.945
2015   11       21    12  52    2.6199   485.4    4.290      34.924
2015   11       21    12  59    2.6195   485.2    4.292      34.903
2015   11       21    13   6    2.6192   485.1    4.295      34.882
2015   11       21    13  13    2.6189   484.9    4.297      34.860
2015   11       21    13  20    2.6187   484.7    4.299      34.839
2015   11       21    13  27    2.6184   484.5    4.301      34.818
2015   11       21    13  34    2.6181   484.4    4.303      34.797
2015   11       21    13  41    2.6178   484.2    4.306      34.776
2015   11       21    13  48    2.6175   484.0    4.308      34.755
2015   11       21    13  55    2.6173   483.8    4.310      34.733
2015   11       21    14   2    2.6170   483.7    4.312      34.712
2015   11       21    14   9    2.6168   483.5    4.315      34.692
2015   11       21    14  16    2.6165   483.3    4.317      34.671
2015   11       21    14  23    2.6162   483.1    4.319      34.650
2015   11       21    14  30    2.6160   483.0    4.322      34.630
2015   11       21    14  37    2.6157   482.8    4.324      34.609
2015   11       21    14  44    2.6155   482.6    4.326      34.589
2015   11       21    14  51    2.6152   482.4    4.329      34.569
2015   11       21    14  58    2.6150   482.3    4.331      34.549
2015   11       21    15   5    2.6147   482.1    4.334      34.529
2015   11       21    15  12    2.6145   481.9    4.336      34.509
2015   11       21    15  19    2.6143   481.7    4.338      34.489
2015   11       21    15  26    2.6140   481.5    4.341      34.470
2015   11       21    15  33    2.6138   481.4    4.343      34.450
2015   11       21    15  41    2.6135   481.2    4.346      34.431
2015   11       21    15  48    2.6133   481.0    4.348      34.412
2015   11       21    15  55    2.6130   480.8    4.351      34.393
2015   11       21    16   2    2.6128   480.7    4.353      34.374
2015   11       21    16   9    2.6125   480.5    4.355      34.355
2015   11       21    16  16    2.6122   480.3    4.358      34.336
2015   11       21    16  23    2.6120   480.2    4.360      34.317
2015   11       21    16  30    2.6117   480.0    4.363      34.298
2015   11       21    16  37    2.6115   479.8    4.365      34.280
2015   11       21    16  44    2.6112   479.6    4.367      34.261
2015   11       21    16  51    2.6109   479.5    4.370      34.242
2015   11       21    16  58    2.6107   479.3    4.372      34.224
2015   11       21    17   5    2.6104   479.1    4.374      34.205
2015   11       21    17  12    2.6102   478.9    4.376      34.187
2015   11       21    17  19    2.6099   478.8    4.379      34.168
2015   11       21    17  26    2.6097   478.6    4.381      34.149
2015   11       21    17  33    2.6094   478.4    4.383      34.131
2015   11       21    17  40    2.6092   478.3    4.385      34.112
2015   11       21    17  47    2.6089   478.1    4.387      34.094
2015   11       21    17  54    2.6087   477.9    4.390      34.076
2015   11       21    18   1    2.6085   477.7    4.392      34.057
2015   11       21    18   8    2.6083   477.6    4.394      34.039
2015   11       21    18  15    2.6080   477.4    4.396      34.020
2015   11       21    18  22    2.6078   477.2    4.398      34.002
2015   11       21    18  29    2.6076   477.1    4.400      33.984
2015   11       21    18  36    2.6074   476.9    4.402      33.966
2015   11       21    18  43    2.6072   476.7    4.405      33.947
2015   11       21    18  50    2.6070   476.6    4.407      33.929
2015   11       21    18  57    2.6069   476.4    4.409      33.911
2015   11       21    19   4    2.6067   476.2    4.411      33.893
2015   11       21    19  11    2.6065   476.1    4.413      33.874
2015   11       21    19  18    2.6063   475.9    4.415      33.856
2015   11       21    19  25    2.6061   475.7    4.417      33.838
2015   11       21    19  32    2.6060   475.6    4.419      33.820
2015   11       21    19  39    2.6058   475.4    4.421      33.801
2015   11       21    19  46    2.6056   475.2    4.423      33.783
2015   11       21    19  53    2.6055   475.1    4.425      33.764
2015   11       21    20   0    2.6053   474.9    4.427      33.746
2015   11       21    20   7    2.6051   474.7    4.429      33.727
2015   11       21    20  14    2.6049   474.6    4.431      33.709
2015   11       21    20  21    2.6048   474.4    4.433      33.690
2015   11       21    20  28    2.6046   474.2    4.435      33.671
2015   11       21    20  35    2.6044   474.1    4.437      33.652
2015   11       21    20  42    2.6042   473.9    4.439      33.633
2015   11       21    20  49    2.6040   473.7    4.441      33.614
2015   11       21    20  56    2.6038   473.6    4.443      33.595
2015   11       21    21   3    2.6036   473.4    4.445      33.575
2015   11       21    21  10    2.6034   473.2    4.447      33.556
2015   11       21    21  18    2.6032   473.1    4.449      33.536
2015   11       21    21  25    2.6030   472.9    4.451      33.517
2015   11       21    21  32    2.6028   472.7    4.453      33.497
2015   11       21    21  39    2.6026   472.6    4.455      33.478
2015   11       21    21  46    2.6023   472.4    4.457      33.458
2015   11       21    21  53    2.6021   472.2    4.459      33.438
2015   11       21    22   0    2.6019   472.1    4.461      33.419
2015   11       21    22   7    2.6016   471.9    4.462      33.399
2015   11       21    22  14    2.6014   471.7    4.464      33.379
2015   11       21    22  21    2.6012   471.6    4.466      33.359
2015   11       21    22  28    2.6009   471.4    4.468      33.340
2015   11       21    22  35    2.6007   471.2    4.470      33.320
2015   11       21    22  42    2.6004   471.1    4.472      33.300
2015   11       21    22  49    2.6001   470.9    4.474      33.280
2015   11       21    22  56    2.5999   470.7    4.476      33.261
2015   11       21    23   3    2.5996   470.6    4.478      33.241
2015   11       21    23  10    2.5993   470.4    4.480      33.221
2015   11       21    23  17    2.5991   470.2    4.482      33.202
2015   11       21    23  24    2.5988   470.1    4.484      33.182
2015   11       21    23  31    2.5985   469.9    4.486      33.163
2015   11       21    23  38    2.5982   469.8    4.488      33.143
2015   11       21    23  45    2.5979   469.6    4.490      33.124
2015   11       21    23  52    2.5976   469.4    4.492      33.104
2015   11       21    23  59    2.5973   469.3    4.493      33.085
2015   11       22     0   6    2.5970   469.1    4.495      33.065
2015   11       22     0  13    2.5967   468.9    4.497      33.046
2015   11       22     0  20    2.5964   468.8    4.499      33.026
2015   11       22     0  27    2.5961   468.6    4.501      33.007
2015   11       22     0  34    2.5958   468.4    4.503      32.987
2015   11       22     0  41    2.5955   468.3    4.505      32.968
2015   11       22     0  48    2.5951   468.1    4.507      32.948
2015   11       22     0  55    2.5948   468.0    4.509      32.929
2015   11       22     1   2    2.5945   467.8    4.511      32.909
2015   11       22     1   9    2.5942   467.6    4.513      32.889
2015   11       22     1  16    2.5938   467.5    4.515      32.870
2015   11       22     1  23    2.5935   467.3    4.517      32.850
2015   11       22     1  31    2.5932   467.1    4.518      32.831
2015   11       22     1  38    2.5928   467.0    4.520      32.811
2015   11       22     1  45    2.5925   466.8    4.522      32.791
2015   11       22     1  52    2.5921   466.7    4.524      32.772
2015   11       22     1  59    2.5918   466.5    4.526      32.752
2015   11       22     2   6    2.5914   466.3    4.528      32.733
2015   11       22     2  13    2.5911   466.2    4.529      32.714
2015   11       22     2  20    2.5907   466.0    4.531      32.694
2015   11       22     2  27    2.5904   465.9    4.533      32.675
2015   11       22     2  34    2.5900   465.7    4.535      32.656
2015   11       22     2  41    2.5897   465.6    4.537      32.637
2015   11       22     2  48    2.5893   465.4    4.538      32.618
2015   11       22     2  55    2.5889   465.2    4.540      32.599
2015   11       22     3   2    2.5886   465.1    4.542      32.580
2015   11       22     3   9    2.5882   464.9    4.544      32.561
2015   11       22     3  16    2.5878   464.8    4.546      32.543
2015   11       22     3  23    2.5874   464.6    4.547      32.524
2015   11       22     3  30    2.5871   464.5    4.549      32.505
2015   11       22     3  37    2.5867   464.3    4.551      32.487
2015   11       22     3  44    2.5863   464.1    4.552      32.468
2015   11       22     3  51    2.5859   464.0    4.554      32.449
2015   11       22     3  58    2.5855   463.8    4.556      32.431
2015   11       22     4   5    2.5850   463.7    4.557      32.412
2015   11       22     4  12    2.5846   463.5    4.559      32.394
2015   11       22     4  19    2.5842   463.4    4.560      32.375
2015   11       22     4  26    2.5838   463.2    4.562      32.357
2015   11       22     4  33    2.5833   463.0    4.564      32.338
2015   11       22     4  40    2.5829   462.9    4.565      32.319
2015   11       22     4  47    2.5824   462.7    4.567      32.300
2015   11       22     4  54    2.5819   462.6    4.568      32.282
2015   11       22     5   1    2.5814   462.4    4.570      32.263
2015   11       22     5   8    2.5810   462.3    4.571      32.244
2015   11       22     5  15    2.5805   462.1    4.573      32.225
2015   11       22     5  22    2.5800   462.0    4.574      32.206
2015   11       22     5  29    2.5795   461.8    4.576      32.187
2015   11       22     5  36    2.5790   461.6    4.577      32.168
2015   11       22     5  43    2.5784   461.5    4.578      32.148
2015   11       22     5  50    2.5779   461.3    4.580      32.129
2015   11       22     5  57    2.5774   461.2    4.581      32.110
2015   11       22     6   4    2.5768   461.0    4.583      32.090
2015   11       22     6  11    2.5763   460.8    4.584      32.071
2015   11       22     6  18    2.5758   460.7    4.586      32.051
2015   11       22     6  25    2.5752   460.5    4.587      32.032
2015   11       22     6  33    2.5747   460.4    4.588      32.012
2015   11       22     6  40    2.5741   460.2    4.590      31.992
2015   11       22     6  47    2.5735   460.0    4.591      31.972
2015   11       22     6  54    2.5730   459.9    4.593      31.953
2015   11       22     7   1    2.5724   459.7    4.594      31.933
2015   11       22     7   8    2.5718   459.6    4.596      31.913
2015   11       22     7  15    2.5712   459.4    4.597      31.893
2015   11       22     7  22    2.5706   459.2    4.599      31.873
2015   11       22     7  29    2.5700   459.1    4.601      31.853
2015   11       22     7  36    2.5694   458.9    4.602      31.833
2015   11       22     7  43    2.5688   458.8    4.604      31.814
2015   11       22     7  50    2.5682   458.6    4.605      31.794
2015   11       22     7  57    2.5676   458.4    4.607      31.774
2015   11       22     8   4    2.5670   458.3    4.609      31.754
2015   11       22     8  11    2.5664   458.1    4.610      31.734
2015   11       22     8  18    2.5658   458.0    4.612      31.714
2015   11       22     8  25    2.5652   457.8    4.614      31.695
2015   11       22     8  32    2.5646   457.6    4.615      31.675
2015   11       22     8  39    2.5640   457.5    4.617      31.655
2015   11       22     8  46    2.5634   457.3    4.619      31.636
2015   11       22     8  53    2.5627   457.2    4.621      31.616
2015   11       22     9   0    2.5621   457.0    4.622      31.596
2015   11       22     9   7    2.5615   456.8    4.624      31.577
2015   11       22     9  14    2.5608   456.7    4.626      31.557
2015   11       22     9  21    2.5602   456.5    4.628      31.538
2015   11       22     9  28    2.5596   456.4    4.629      31.518
2015   11       22     9  35    2.5589   456.2    4.631      31.498
2015   11       22     9  42    2.5583   456.0    4.633      31.479
2015   11       22     9  49    2.5577   455.9    4.635      31.459
2015   11       22     9  56    2.5570   455.7    4.636      31.440
2015   11       22    10   3    2.5564   455.6    4.638      31.420
2015   11       22    10  10    2.5557   455.4    4.640      31.401
2015   11       22    10  17    2.5551   455.2    4.641      31.381
2015   11       22    10  24    2.5544   455.1    4.643      31.361
2015   11       22    10  31    2.5537   454.9    4.644      31.342
2015   11       22    10  38    2.5530   454.8    4.646      31.322
2015   11       22    10  45    2.5524   454.6    4.647      31.303
2015   11       22    10  52    2.5517   454.5    4.649      31.283
2015   11       22    10  59    2.5510   454.3    4.650      31.263
2015   11       22    11   6    2.5503   454.1    4.651      31.243
2015   11       22    11  13    2.5496   454.0    4.653      31.224
2015   11       22    11  20    2.5489   453.8    4.654      31.204
2015   11       22    11  27    2.5482   453.7    4.655      31.184
2015   11       22    11  34    2.5475   453.5    4.657      31.164
2015   11       22    11  41    2.5468   453.4    4.658      31.144
2015   11       22    11  48    2.5461   453.2    4.659      31.124
2015   11       22    11  55    2.5453   453.0    4.660      31.104
2015   11       22    12   2    2.5446   452.9    4.661      31.084
2015   11       22    12   9    2.5439   452.7    4.662      31.064
2015   11       22    12  16    2.5431   452.6    4.663      31.044
2015   11       22    12  23    2.5424   452.4    4.664      31.024
2015   11       22    12  31    2.5416   452.2    4.666      31.004
2015   11       22    12  38    2.5409   452.1    4.667      30.984
2015   11       22    12  45    2.5401   451.9    4.668      30.963
2015   11       22    12  52    2.5394   451.8    4.669      30.943
2015   11       22    12  59    2.5386   451.6    4.670      30.923
2015   11       22    13   6    2.5378   451.4    4.671      30.903
2015   11       22    13  13    2.5370   451.3    4.672      30.883
2015   11       22    13  20    2.5363   451.1    4.673      30.863
2015   11       22    13  27    2.5355   451.0    4.674      30.842
2015   11       22    13  34    2.5347   450.8    4.675      30.822
2015   11       22    13  41    2.5339   450.6    4.676      30.801
2015   11       22    13  48    2.5331   450.5    4.677      30.781
2015   11       22    13  55    2.5323   450.3    4.678      30.761
2015   11       22    14   2    2.5315   450.2    4.679      30.740
2015   11       22    14   9    2.5307   450.0    4.680      30.720
2015   11       22    14  16    2.5299   449.8    4.682      30.699
2015   11       22    14  23    2.5291   449.7    4.683      30.678
2015   11       22    14  30    2.5283   449.5    4.684      30.658
2015   11       22    14  37    2.5275   449.3    4.685      30.637
2015   11       22    14  44    2.5267   449.2    4.687      30.616
2015   11       22    14  51    2.5259   449.0    4.688      30.595
2015   11       22    14  58    2.5251   448.9    4.689      30.575
2015   11       22    15   5    2.5242   448.7    4.691      30.553
2015   11       22    15  12    2.5234   448.5    4.692      30.532
2015   11       22    15  19    2.5226   448.4    4.693      30.511
2015   11       22    15  26    2.5218   448.2    4.695      30.490
2015   11       22    15  33    2.5209   448.0    4.696      30.469
2015   11       22    15  40    2.5201   447.9    4.698      30.448
2015   11       22    15  47    2.5193   447.7    4.699      30.426
2015   11       22    15  54    2.5184   447.5    4.701      30.405
2015   11       22    16   1    2.5176   447.4    4.702      30.383
2015   11       22    16   8    2.5167   447.2    4.704      30.362
2015   11       22    16  15    2.5158   447.0    4.705      30.340
2015   11       22    16  22    2.5150   446.9    4.707      30.318
2015   11       22    16  29    2.5141   446.7    4.708      30.296
2015   11       22    16  36    2.5133   446.5    4.710      30.274
2015   11       22    16  43    2.5124   446.4    4.711      30.253
2015   11       22    16  50    2.5115   446.2    4.712      30.230
2015   11       22    16  57    2.5106   446.0    4.714      30.208
2015   11       22    17   4    2.5097   445.9    4.715      30.186
2015   11       22    17  11    2.5088   445.7    4.717      30.164
2015   11       22    17  18    2.5080   445.5    4.718      30.142
2015   11       22    17  25    2.5071   445.3    4.720      30.120
2015   11       22    17  32    2.5062   445.2    4.721      30.098
2015   11       22    17  39    2.5053   445.0    4.722      30.075
2015   11       22    17  46    2.5044   444.8    4.724      30.053
2015   11       22    17  53    2.5035   444.7    4.725      30.031
2015   11       22    18   0    2.5026   444.5    4.726      30.009
2015   11       22    18   8    2.5017   444.3    4.728      29.986
2015   11       22    18  15    2.5008   444.1    4.729      29.964
2015   11       22    18  22    2.4998   444.0    4.730      29.942
2015   11       22    18  29    2.4989   443.8    4.732      29.920
2015   11       22    18  36    2.4980   443.6    4.733      29.898
2015   11       22    18  43    2.4971   443.4    4.734      29.876
2015   11       22    18  50    2.4962   443.3    4.735      29.854
2015   11       22    18  57    2.4953   443.1    4.737      29.833
2015   11       22    19   4    2.4944   442.9    4.738      29.811
2015   11       22    19  11    2.4935   442.8    4.739      29.790
2015   11       22    19  18    2.4926   442.6    4.740      29.768
2015   11       22    19  25    2.4917   442.4    4.742      29.747
2015   11       22    19  32    2.4908   442.2    4.743      29.726
2015   11       22    19  39    2.4899   442.1    4.744      29.705
2015   11       22    19  46    2.4890   441.9    4.745      29.684
2015   11       22    19  53    2.4881   441.7    4.747      29.664
2015   11       22    20   0    2.4872   441.5    4.748      29.643
2015   11       22    20   7    2.4863   441.4    4.749      29.622
2015   11       22    20  14    2.4855   441.2    4.750      29.602
2015   11       22    20  21    2.4846   441.0    4.752      29.581
2015   11       22    20  28    2.4837   440.8    4.753      29.561
2015   11       22    20  35    2.4828   440.7    4.754      29.541
2015   11       22    20  42    2.4819   440.5    4.755      29.520
2015   11       22    20  49    2.4811   440.3    4.757      29.500
2015   11       22    20  56    2.4802   440.1    4.758      29.480
2015   11       22    21   3    2.4793   440.0    4.759      29.459
2015   11       22    21  10    2.4785   439.8    4.761      29.439
2015   11       22    21  17    2.4776   439.6    4.762      29.418
2015   11       22    21  24    2.4767   439.4    4.763      29.398
2015   11       22    21  31    2.4759   439.3    4.765      29.377
2015   11       22    21  38    2.4750   439.1    4.766      29.356
2015   11       22    21  45    2.4741   438.9    4.768      29.335
2015   11       22    21  52    2.4733   438.7    4.769      29.314
2015   11       22    21  59    2.4724   438.5    4.770      29.292
2015   11       22    22   7    2.4715   438.4    4.772      29.271
2015   11       22    22  14    2.4707   438.2    4.773      29.249
2015   11       22    22  21    2.4698   438.0    4.775      29.227
2015   11       22    22  28    2.4689   437.8    4.776      29.205
2015   11       22    22  35    2.4680   437.7    4.777      29.183
2015   11       22    22  42    2.4671   437.5    4.779      29.160
2015   11       22    22  49    2.4663   437.3    4.780      29.137
2015   11       22    22  56    2.4654   437.1    4.782      29.115
2015   11       22    23   3    2.4645   436.9    4.783      29.091
2015   11       22    23  10    2.4636   436.8    4.784      29.068
2015   11       22    23  17    2.4627   436.6    4.786      29.045
2015   11       22    23  24    2.4618   436.4    4.787      29.021
2015   11       22    23  31    2.4609   436.2    4.789      28.997
2015   11       22    23  38    2.4600   436.1    4.790      28.973
2015   11       22    23  45    2.4591   435.9    4.791      28.949
2015   11       22    23  52    2.4581   435.7    4.793      28.925
2015   11       22    23  59    2.4572   435.5    4.794      28.901
2015   11       23     0   6    2.4563   435.3    4.795      28.876
2015   11       23     0  13    2.4554   435.1    4.796      28.852
2015   11       23     0  20    2.4545   435.0    4.798      28.827
2015   11       23     0  27    2.4536   434.8    4.799      28.802
2015   11       23     0  34    2.4526   434.6    4.800      28.778
2015   11       23     0  41    2.4517   434.4    4.802      28.753
2015   11       23     0  48    2.4508   434.2    4.803      28.729
2015   11       23     0  55    2.4499   434.0    4.804      28.704
2015   11       23     1   2    2.4490   433.8    4.806      28.679
2015   11       23     1   9    2.4480   433.6    4.807      28.655
2015   11       23     1  16    2.4471   433.5    4.808      28.630
2015   11       23     1  23    2.4462   433.3    4.809      28.606
2015   11       23     1  30    2.4453   433.1    4.811      28.581
2015   11       23     1  37    2.4444   432.9    4.812      28.557
2015   11       23     1  44    2.4435   432.7    4.814      28.533
2015   11       23     1  51    2.4426   432.5    4.815      28.509
2015   11       23     1  58    2.4417   432.3    4.816      28.485
2015   11       23     2   5    2.4408   432.1    4.818      28.461
2015   11       23     2  12    2.4399   431.9    4.819      28.437
2015   11       23     2  19    2.4390   431.7    4.821      28.413
2015   11       23     2  26    2.4381   431.5    4.822      28.390
2015   11       23     2  33    2.4373   431.3    4.824      28.366
2015   11       23     2  40    2.4364   431.1    4.825      28.343
2015   11       23     2  47    2.4355   431.0    4.827      28.320
2015   11       23     2  54    2.4346   430.8    4.828      28.297
2015   11       23     3   1    2.4338   430.6    4.830      28.273
2015   11       23     3   8    2.4329   430.4    4.832      28.250
2015   11       23     3  15    2.4320   430.2    4.833      28.227
2015   11       23     3  22    2.4312   430.0    4.835      28.205
2015   11       23     3  29    2.4303   429.8    4.837      28.182
2015   11       23     3  36    2.4295   429.6    4.838      28.159
2015   11       23     3  43    2.4287   429.4    4.840      28.136
2015   11       23     3  50    2.4278   429.2    4.842      28.113
2015   11       23     3  58    2.4270   429.0    4.843      28.090
2015   11       23     4   5    2.4262   428.8    4.845      28.067
2015   11       23     4  12    2.4253   428.6    4.847      28.044
2015   11       23     4  19    2.4245   428.4    4.849      28.021
2015   11       23     4  26    2.4237   428.2    4.851      27.998
2015   11       23     4  33    2.4229   428.0    4.852      27.975
2015   11       23     4  40    2.4221   427.8    4.854      27.952
2015   11       23     4  47    2.4212   427.6    4.856      27.929
2015   11       23     4  54    2.4204   427.4    4.858      27.905
2015   11       23     5   1    2.4196   427.2    4.860      27.882
2015   11       23     5   8    2.4188   427.0    4.862      27.859
2015   11       23     5  15    2.4180   426.8    4.863      27.835
2015   11       23     5  22    2.4173   426.6    4.865      27.811
2015   11       23     5  29    2.4165   426.4    4.867      27.788
2015   11       23     5  36    2.4157   426.2    4.869      27.764
2015   11       23     5  43    2.4149   426.0    4.871      27.740
2015   11       23     5  50    2.4141   425.8    4.873      27.716
2015   11       23     5  57    2.4134   425.6    4.874      27.692
2015   11       23     6   4    2.4126   425.4    4.876      27.669
2015   11       23     6  11    2.4119   425.2    4.878      27.645
2015   11       23     6  18    2.4111   424.9    4.880      27.620
2015   11       23     6  25    2.4104   424.7    4.882      27.597
2015   11       23     6  32    2.4097   424.5    4.884      27.573
2015   11       23     6  39    2.4089   424.3    4.886      27.549
2015   11       23     6  46    2.4082   424.1    4.888      27.525
2015   11       23     6  53    2.4075   423.9    4.889      27.501
2015   11       23     7   0    2.4068   423.7    4.891      27.477
2015   11       23     7   7    2.4061   423.5    4.893      27.453
2015   11       23     7  14    2.4055   423.3    4.895      27.429
2015   11       23     7  21    2.4048   423.1    4.897      27.405
2015   11       23     7  28    2.4041   422.9    4.899      27.382
2015   11       23     7  35    2.4035   422.7    4.901      27.358
2015   11       23     7  42    2.4028   422.5    4.903      27.335
2015   11       23     7  49    2.4022   422.3    4.905      27.311
2015   11       23     7  56    2.4016   422.1    4.907      27.288
2015   11       23     8   3    2.4010   421.9    4.909      27.265
2015   11       23     8  10    2.4004   421.7    4.911      27.241
2015   11       23     8  17    2.3998   421.5    4.913      27.218
2015   11       23     8  24    2.3992   421.3    4.915      27.195
2015   11       23     8  31    2.3986   421.1    4.917      27.172
2015   11       23     8  38    2.3980   420.8    4.919      27.149
2015   11       23     8  45    2.3974   420.6    4.921      27.126
2015   11       23     8  52    2.3969   420.4    4.923      27.103
2015   11       23     8  59    2.3963   420.2    4.925      27.080
2015   11       23     9   6    2.3957   420.0    4.927      27.057
2015   11       23     9  13    2.3952   419.8    4.929      27.034
2015   11       23     9  20    2.3946   419.6    4.931      27.011
2015   11       23     9  27    2.3940   419.4    4.933      26.988
2015   11       23     9  34    2.3935   419.2    4.935      26.965
2015   11       23     9  41    2.3929   419.0    4.937      26.942
2015   11       23     9  48    2.3924   418.8    4.939      26.919
2015   11       23     9  55    2.3918   418.6    4.940      26.896
2015   11       23    10   2    2.3913   418.3    4.942      26.872
2015   11       23    10   9    2.3907   418.1    4.944      26.849
2015   11       23    10  17    2.3902   417.9    4.946      26.825
2015   11       23    10  24    2.3897   417.7    4.948      26.802
2015   11       23    10  31    2.3891   417.5    4.950      26.778
2015   11       23    10  38    2.3886   417.3    4.951      26.754
2015   11       23    10  45    2.3881   417.1    4.953      26.730
2015   11       23    10  52    2.3876   416.8    4.955      26.706
2015   11       23    10  59    2.3871   416.6    4.957      26.681
2015   11       23    11   6    2.3866   416.4    4.959      26.657
2015   11       23    11  13    2.3861   416.2    4.961      26.632
2015   11       23    11  20    2.3856   416.0    4.962      26.607
2015   11       23    11  27    2.3851   415.8    4.964      26.583
2015   11       23    11  34    2.3847   415.5    4.966      26.558
2015   11       23    11  41    2.3842   415.3    4.968      26.533
2015   11       23    11  48    2.3838   415.1    4.970      26.508
2015   11       23    11  55    2.3834   414.9    4.972      26.483
2015   11       23    12   2    2.3830   414.6    4.974      26.458
2015   11       23    12   9    2.3826   414.4    4.976      26.433
2015   11       23    12  16    2.3822   414.2    4.978      26.408
2015   11       23    12  23    2.3819   414.0    4.981      26.384
2015   11       23    12  30    2.3816   413.7    4.983      26.359
2015   11       23    12  37    2.3813   413.5    4.985      26.334
2015   11       23    12  44    2.3811   413.3    4.988      26.309
2015   11       23    12  51    2.3808   413.1    4.990      26.285
2015   11       23    12  58    2.3806   412.8    4.993      26.261
2015   11       23    13   5    2.3805   412.6    4.996      26.236
2015   11       23    13  12    2.3803   412.4    4.999      26.212
2015   11       23    13  19    2.3802   412.2    5.002      26.189
2015   11       23    13  26    2.3801   411.9    5.005      26.165
2015   11       23    13  33    2.3800   411.7    5.008      26.141
2015   11       23    13  40    2.3800   411.5    5.012      26.118
2015   11       23    13  47    2.3800   411.3    5.015      26.095
2015   11       23    13  54    2.3800   411.0    5.019      26.072
2015   11       23    14   1    2.3801   410.8    5.022      26.049
2015   11       23    14   8    2.3801   410.6    5.026      26.026
2015   11       23    14  15    2.3803   410.3    5.030      26.004
2015   11       23    14  22    2.3804   410.1    5.034      25.982
2015   11       23    14  29    2.3806   409.9    5.038      25.960
2015   11       23    14  36    2.3808   409.6    5.043      25.938
2015   11       23    14  43    2.3810   409.4    5.047      25.917
2015   11       23    14  50    2.3812   409.2    5.052      25.895
2015   11       23    14  57    2.3815   408.9    5.056      25.874
2015   11       23    15   4    2.3818   408.7    5.061      25.853
2015   11       23    15  11    2.3822   408.5    5.066      25.833
2015   11       23    15  18    2.3825   408.2    5.071      25.812
2015   11       23    15  25    2.3829   408.0    5.076      25.792
2015   11       23    15  32    2.3833   407.8    5.081      25.772
2015   11       23    15  39    2.3838   407.5    5.086      25.752
2015   11       23    15  46    2.3842   407.3    5.092      25.733
2015   11       23    15  53    2.3847   407.1    5.097      25.713
2015   11       23    16   0    2.3852   406.8    5.103      25.694
2015   11       23    16   7    2.3857   406.6    5.109      25.675
2015   11       23    16  14    2.3863   406.4    5.115      25.656
2015   11       23    16  21    2.3869   406.1    5.120      25.638
2015   11       23    16  28    2.3875   405.9    5.126      25.619
2015   11       23    16  35    2.3881   405.7    5.133      25.601
2015   11       23    16  43    2.3888   405.4    5.139      25.583
2015   11       23    16  50    2.3895   405.2    5.145      25.566
2015   11       23    16  57    2.3902   405.0    5.151      25.548
2015   11       23    17   4    2.3909   404.7    5.158      25.531
2015   11       23    17  11    2.3917   404.5    5.164      25.514
2015   11       23    17  18    2.3925   404.3    5.171      25.497
2015   11       23    17  25    2.3933   404.0    5.178      25.480
2015   11       23    17  32    2.3941   403.8    5.185      25.464
2015   11       23    17  39    2.3950   403.6    5.191      25.448
2015   11       23    17  46    2.3959   403.3    5.198      25.431
2015   11       23    17  53    2.3969   403.1    5.205      25.416
2015   11       23    18   0    2.3978   402.9    5.213      25.400
2015   11       23    18   7    2.3988   402.6    5.220      25.384
2015   11       23    18  14    2.3999   402.4    5.227      25.369
2015   11       23    18  21    2.4009   402.2    5.234      25.354
2015   11       23    18  28    2.4020   401.9    5.242      25.339
2015   11       23    18  35    2.4032   401.7    5.249      25.324
2015   11       23    18  42    2.4043   401.5    5.257      25.309
2015   11       23    18  49    2.4055   401.3    5.264      25.295
2015   11       23    18  56    2.4068   401.0    5.272      25.281
2015   11       23    19   3    2.4080   400.8    5.280      25.267
2015   11       23    19  10    2.4093   400.6    5.287      25.253
2015   11       23    19  17    2.4107   400.3    5.295      25.239
2015   11       23    19  24    2.4120   400.1    5.303      25.225
2015   11       23    19  31    2.4135   399.9    5.311      25.212
2015   11       23    19  38    2.4149   399.7    5.319      25.198
2015   11       23    19  45    2.4164   399.4    5.327      25.185
2015   11       23    19  52    2.4179   399.2    5.336      25.172
2015   11       23    19  59    2.4195   399.0    5.344      25.159
2015   11       23    20   6    2.4211   398.8    5.352      25.146
2015   11       23    20  13    2.4228   398.5    5.360      25.133
2015   11       23    20  20    2.4245   398.3    5.369      25.121
2015   11       23    20  27    2.4262   398.1    5.377      25.108
2015   11       23    20  34    2.4280   397.9    5.386      25.096
2015   11       23    20  41    2.4298   397.7    5.395      25.084
2015   11       23    20  48    2.4316   397.4    5.403      25.071
2015   11       23    20  55    2.4335   397.2    5.412      25.059
2015   11       23    21   3    2.4354   397.0    5.421      25.047
2015   11       23    21  10    2.4374   396.8    5.430      25.035
2015   11       23    21  17    2.4394   396.6    5.438      25.023
2015   11       23    21  24    2.4414   396.4    5.447      25.012
2015   11       23    21  31    2.4435   396.1    5.456      25.000
2015   11       23    21  38    2.4456   395.9    5.466      24.988
2015   11       23    21  45    2.4477   395.7    5.475      24.977
2015   11       23    21  52    2.4499   395.5    5.484      24.965
2015   11       23    21  59    2.4521   395.3    5.493      24.954
2015   11       23    22   6    2.4544   395.1    5.503      24.942
2015   11       23    22  13    2.4567   394.8    5.512      24.931
2015   11       23    22  20    2.4590   394.6    5.521      24.919
2015   11       23    22  27    2.4614   394.4    5.531      24.908
2015   11       23    22  34    2.4638   394.2    5.541      24.897
2015   11       23    22  41    2.4663   394.0    5.550      24.886
2015   11       23    22  48    2.4688   393.8    5.560      24.875
2015   11       23    22  55    2.4713   393.5    5.570      24.865
2015   11       23    23   2    2.4739   393.3    5.580      24.854
2015   11       23    23   9    2.4765   393.1    5.590      24.844
2015   11       23    23  16    2.4792   392.9    5.600      24.834
2015   11       23    23  23    2.4819   392.7    5.611      24.824
2015   11       23    23  30    2.4847   392.5    5.621      24.814
2015   11       23    23  37    2.4875   392.2    5.632      24.805
2015   11       23    23  44    2.4904   392.0    5.643      24.795
2015   11       23    23  51    2.4933   391.8    5.653      24.787
2015   11       23    23  58    2.4963   391.6    5.664      24.778
2015   11       24     0   5    2.4993   391.4    5.676      24.770
2015   11       24     0  12    2.5024   391.2    5.687      24.762
2015   11       24     0  19    2.5056   391.0    5.699      24.755
2015   11       24     0  26    2.5088   390.8    5.710      24.748
2015   11       24     0  33    2.5121   390.5    5.722      24.741
2015   11       24     0  40    2.5154   390.3    5.734      24.736
2015   11       24     0  47    2.5189   390.1    5.747      24.730
2015   11       24     0  54    2.5223   389.9    5.759      24.725
2015   11       24     1   1    2.5259   389.7    5.772      24.720
2015   11       24     1   8    2.5294   389.5    5.785      24.716
2015   11       24     1  15    2.5331   389.3    5.798      24.713
2015   11       24     1  22    2.5368   389.1    5.811      24.709
2015   11       24     1  29    2.5406   388.9    5.824      24.707
2015   11       24     1  36    2.5444   388.7    5.838      24.704
2015   11       24     1  43    2.5484   388.5    5.852      24.703
2015   11       24     1  50    2.5523   388.3    5.865      24.701
2015   11       24     1  57    2.5563   388.1    5.879      24.700
2015   11       24     2   4    2.5604   387.9    5.893      24.699
2015   11       24     2  11    2.5645   387.7    5.908      24.699
2015   11       24     2  18    2.5687   387.5    5.922      24.699
2015   11       24     2  25    2.5729   387.3    5.936      24.699
2015   11       24     2  32    2.5772   387.1    5.951      24.700
2015   11       24     2  40    2.5815   387.0    5.966      24.701
2015   11       24     2  47    2.5859   386.8    5.980      24.701
2015   11       24     2  54    2.5903   386.6    5.995      24.703
2015   11       24     3   1    2.5947   386.4    6.010      24.704
2015   11       24     3   8    2.5993   386.2    6.025      24.706
2015   11       24     3  15    2.6038   386.0    6.040      24.707
2015   11       24     3  22    2.6084   385.9    6.055      24.709
2015   11       24     3  29    2.6130   385.7    6.070      24.711
2015   11       24     3  36    2.6177   385.5    6.085      24.714
2015   11       24     3  43    2.6224   385.3    6.100      24.716
2015   11       24     3  50    2.6271   385.1    6.116      24.718
2015   11       24     3  57    2.6319   385.0    6.131      24.721
2015   11       24     4   4    2.6368   384.8    6.146      24.724
2015   11       24     4  11    2.6417   384.6    6.162      24.726
2015   11       24     4  18    2.6466   384.4    6.178      24.729
2015   11       24     4  25    2.6516   384.3    6.194      24.733
2015   11       24     4  32    2.6567   384.1    6.210      24.736
2015   11       24     4  39    2.6618   383.9    6.226      24.739
2015   11       24     4  46    2.6670   383.8    6.242      24.743
2015   11       24     4  53    2.6722   383.6    6.258      24.748
2015   11       24     5   0    2.6775   383.4    6.275      24.752
2015   11       24     5   7    2.6828   383.2    6.292      24.757
2015   11       24     5  14    2.6883   383.1    6.309      24.763
2015   11       24     5  21    2.6938   382.9    6.327      24.768
2015   11       24     5  28    2.6994   382.7    6.344      24.775
2015   11       24     5  35    2.7051   382.6    6.362      24.782
2015   11       24     5  42    2.7109   382.4    6.381      24.789
2015   11       24     5  49    2.7167   382.2    6.399      24.797
2015   11       24     5  56    2.7226   382.1    6.419      24.806
2015   11       24     6   3    2.7287   381.9    6.438      24.815
2015   11       24     6  10    2.7349   381.8    6.458      24.825
2015   11       24     6  17    2.7411   381.6    6.478      24.836
2015   11       24     6  24    2.7475   381.5    6.499      24.847
2015   11       24     6  31    2.7540   381.3    6.520      24.860
2015   11       24     6  38    2.7605   381.2    6.542      24.873
2015   11       24     6  45    2.7672   381.0    6.564      24.888
2015   11       24     6  52    2.7739   380.9    6.586      24.904
2015   11       24     6  59    2.7807   380.8    6.608      24.921
2015   11       24     7   6    2.7875   380.6    6.631      24.940
2015   11       24     7  13    2.7944   380.5    6.653      24.961
2015   11       24     7  20    2.8013   380.4    6.676      24.983
2015   11       24     7  27    2.8083   380.3    6.698      25.008
2015   11       24     7  34    2.8153   380.1    6.721      25.034
2015   11       24     7  41    2.8224   380.0    6.743      25.061
2015   11       24     7  48    2.8294   379.9    6.766      25.089
2015   11       24     7  55    2.8365   379.8    6.788      25.119
2015   11       24     8   2    2.8435   379.7    6.810      25.150
2015   11       24     8   9    2.8506   379.6    6.832      25.181
2015   11       24     8  16    2.8577   379.5    6.853      25.213
2015   11       24     8  23    2.8648   379.4    6.875      25.246
2015   11       24     8  30    2.8719   379.3    6.896      25.279
2015   11       24     8  37    2.8790   379.2    6.917      25.312
2015   11       24     8  44    2.8862   379.1    6.938      25.346
2015   11       24     8  51    2.8933   379.0    6.959      25.379
2015   11       24     8  59    2.9005   378.9    6.980      25.412
2015   11       24     9   6    2.9077   378.8    7.000      25.444
2015   11       24     9  13    2.9149   378.7    7.021      25.477
2015   11       24     9  20    2.9221   378.6    7.041      25.509
2015   11       24     9  27    2.9293   378.5    7.061      25.541
2015   11       24     9  34    2.9365   378.5    7.082      25.573
2015   11       24     9  41    2.9438   378.4    7.102      25.604
2015   11       24     9  48    2.9511   378.3    7.122      25.636
2015   11       24     9  55    2.9584   378.2    7.142      25.667
2015   11       24    10   2    2.9657   378.1    7.162      25.697
2015   11       24    10   9    2.9730   378.0    7.181      25.728
2015   11       24    10  16    2.9804   377.9    7.201      25.758
2015   11       24    10  23    2.9878   377.9    7.221      25.789
2015   11       24    10  30    2.9952   377.8    7.241      25.819
2015   11       24    10  37    3.0026   377.7    7.260      25.849
2015   11       24    10  44    3.0101   377.6    7.280      25.879
2015   11       24    10  51    3.0176   377.6    7.300      25.909
2015   11       24    10  58    3.0251   377.5    7.320      25.939
2015   11       24    11   5    3.0327   377.4    7.339      25.968
2015   11       24    11  12    3.0403   377.3    7.359      25.998
2015   11       24    11  19    3.0480   377.3    7.379      26.029
2015   11       24    11  26    3.0556   377.2    7.399      26.059
2015   11       24    11  33    3.0634   377.1    7.419      26.090
2015   11       24    11  40    3.0712   377.0    7.439      26.121
2015   11       24    11  47    3.0791   377.0    7.459      26.152
2015   11       24    11  54    3.0869   376.9    7.480      26.183
2015   11       24    12   1    3.0949   376.9    7.500      26.216
2015   11       24    12   8    3.1029   376.8    7.521      26.248
2015   11       24    12  15    3.1111   376.7    7.542      26.281
2015   11       24    12  22    3.1192   376.7    7.563      26.315
2015   11       24    12  29    3.1274   376.6    7.585      26.349
2015   11       24    12  36    3.1357   376.6    7.607      26.384
2015   11       24    12  43    3.1441   376.5    7.629      26.419
2015   11       24    12  50    3.1526   376.5    7.651      26.456
2015   11       24    12  57    3.1611   376.4    7.674      26.493
2015   11       24    13   4    3.1697   376.4    7.697      26.530
2015   11       24    13  11    3.1784   376.3    7.720      26.569
2015   11       24    13  18    3.1872   376.3    7.744      26.608
2015   11       24    13  25    3.1961   376.2    7.769      26.648
2015   11       24    13  32    3.2051   376.2    7.793      26.689
2015   11       24    13  39    3.2143   376.2    7.819      26.732
2015   11       24    13  46    3.2235   376.1    7.845      26.774
2015   11       24    13  53    3.2329   376.1    7.871      26.818
2015   11       24    14   0    3.2423   376.1    7.898      26.863
2015   11       24    14   7    3.2519   376.1    7.926      26.910
2015   11       24    14  14    3.2615   376.0    7.954      26.958
2015   11       24    14  21    3.2712   376.0    7.982      27.009
2015   11       24    14  28    3.2809   376.0    8.011      27.064
2015   11       24    14  35    3.2906   376.0    8.039      27.120
2015   11       24    14  42    3.3003   376.0    8.068      27.180
2015   11       24    14  49    3.3101   376.1    8.096      27.242
2015   11       24    14  56    3.3198   376.1    8.125      27.306
2015   11       24    15   3    3.3295   376.1    8.153      27.372
2015   11       24    15  10    3.3391   376.1    8.180      27.439
2015   11       24    15  17    3.3486   376.1    8.207      27.507
2015   11       24    15  25    3.3581   376.2    8.234      27.576
2015   11       24    15  32    3.3675   376.2    8.259      27.646
2015   11       24    15  39    3.3768   376.3    8.284      27.716
2015   11       24    15  46    3.3860   376.3    8.309      27.787
2015   11       24    15  53    3.3952   376.3    8.333      27.857
2015   11       24    16   0    3.4043   376.4    8.356      27.926
2015   11       24    16   7    3.4133   376.4    8.379      27.994
2015   11       24    16  14    3.4222   376.5    8.401      28.061
2015   11       24    16  21    3.4311   376.5    8.423      28.126
2015   11       24    16  28    3.4399   376.5    8.444      28.191
2015   11       24    16  35    3.4486   376.6    8.465      28.255
2015   11       24    16  42    3.4573   376.6    8.485      28.317
2015   11       24    16  49    3.4659   376.7    8.505      28.379
2015   11       24    16  56    3.4746   376.7    8.525      28.440
2015   11       24    17   3    3.4831   376.8    8.544      28.500
2015   11       24    17  10    3.4916   376.8    8.563      28.559
2015   11       24    17  17    3.5001   376.9    8.582      28.617
2015   11       24    17  24    3.5086   376.9    8.600      28.674
2015   11       24    17  31    3.5170   377.0    8.618      28.731
2015   11       24    17  38    3.5254   377.0    8.636      28.788
2015   11       24    17  45    3.5337   377.1    8.654      28.843
2015   11       24    17  52    3.5421   377.1    8.671      28.898
2015   11       24    17  59    3.5504   377.2    8.688      28.953
2015   11       24    18   6    3.5587   377.2    8.705      29.008
2015   11       24    18  13    3.5670   377.3    8.722      29.062
2015   11       24    18  20    3.5753   377.4    8.739      29.115
2015   11       24    18  27    3.5835   377.4    8.756      29.169
2015   11       24    18  34    3.5918   377.5    8.773      29.222
2015   11       24    18  41    3.6000   377.5    8.789      29.275
2015   11       24    18  48    3.6082   377.6    8.806      29.327
2015   11       24    18  55    3.6164   377.7    8.822      29.380
2015   11       24    19   2    3.6246   377.7    8.839      29.432
2015   11       24    19   9    3.6328   377.8    8.855      29.484
2015   11       24    19  16    3.6410   377.8    8.872      29.537
2015   11       24    19  23    3.6492   377.9    8.888      29.589
2015   11       24    19  30    3.6574   378.0    8.905      29.641
2015   11       24    19  37    3.6656   378.0    8.921      29.693
2015   11       24    19  44    3.6738   378.1    8.938      29.745
2015   11       24    19  51    3.6820   378.2    8.955      29.797
2015   11       24    19  58    3.6902   378.2    8.972      29.850
2015   11       24    20   5    3.6984   378.3    8.989      29.903
2015   11       24    20  12    3.7067   378.4    9.006      29.956
2015   11       24    20  19    3.7149   378.4    9.024      30.009
2015   11       24    20  26    3.7233   378.5    9.042      30.063
2015   11       24    20  33    3.7316   378.6    9.060      30.117
2015   11       24    20  40    3.7400   378.7    9.079      30.172
2015   11       24    20  47    3.7485   378.7    9.098      30.228
2015   11       24    20  54    3.7570   378.8    9.118      30.285
2015   11       24    21   1    3.7656   378.9    9.138      30.342
2015   11       24    21   8    3.7743   378.9    9.159      30.400
2015   11       24    21  15    3.7830   379.0    9.181      30.459
2015   11       24    21  22    3.7919   379.1    9.203      30.521
2015   11       24    21  29    3.8007   379.2    9.226      30.584
2015   11       24    21  36    3.8097   379.3    9.248      30.651
2015   11       24    21  44    3.8186   379.4    9.271      30.721
2015   11       24    21  51    3.8276   379.5    9.294      30.794
2015   11       24    21  58    3.8366   379.6    9.317      30.870
2015   11       24    22   5    3.8455   379.8    9.339      30.948
2015   11       24    22  12    3.8544   379.9    9.362      31.027
2015   11       24    22  19    3.8633   380.0    9.384      31.108
2015   11       24    22  26    3.8721   380.1    9.405      31.190
2015   11       24    22  33    3.8809   380.3    9.426      31.273
2015   11       24    22  40    3.8895   380.4    9.446      31.356
2015   11       24    22  47    3.8981   380.6    9.466      31.440
2015   11       24    22  54    3.9065   380.7    9.485      31.524
2015   11       24    23   1    3.9149   380.8    9.503      31.607
2015   11       24    23   8    3.9232   381.0    9.520      31.690
2015   11       24    23  15    3.9315   381.1    9.538      31.771
2015   11       24    23  22    3.9397   381.3    9.554      31.850
2015   11       24    23  29    3.9478   381.4    9.570      31.928
2015   11       24    23  36    3.9559   381.6    9.586      32.005
2015   11       24    23  43    3.9639   381.7    9.601      32.081
2015   11       24    23  50    3.9719   381.8    9.616      32.156
2015   11       24    23  57    3.9798   382.0    9.631      32.230
2015   11       25     0   4    3.9877   382.1    9.646      32.303
2015   11       25     0  11    3.9956   382.3    9.660      32.376
2015   11       25     0  18    4.0034   382.4    9.674      32.449
2015   11       25     0  25    4.0111   382.6    9.688      32.521
2015   11       25     0  32    4.0188   382.7    9.701      32.593
2015   11       25     0  39    4.0265   382.9    9.714      32.665
2015   11       25     0  46    4.0341   383.0    9.727      32.737
2015   11       25     0  53    4.0416   383.2    9.740      32.808
2015   11       25     1   0    4.0490   383.3    9.752      32.880
2015   11       25     1   7    4.0564   383.5    9.764      32.951
2015   11       25     1  14    4.0637   383.6    9.775      33.021
2015   11       25     1  21    4.0709   383.8    9.787      33.092
2015   11       25     1  28    4.0781   384.0    9.797      33.161
2015   11       25     1  35    4.0851   384.1    9.808      33.231
2015   11       25     1  42    4.0921   384.3    9.818      33.299
2015   11       25     1  49    4.0991   384.4    9.828      33.367
2015   11       25     1  56    4.1059   384.6    9.838      33.435
2015   11       25     2   3    4.1127   384.8    9.847      33.502
2015   11       25     2  10    4.1194   384.9    9.856      33.568
2015   11       25     2  17    4.1261   385.1    9.865      33.633
2015   11       25     2  24    4.1327   385.2    9.874      33.698
2015   11       25     2  32    4.1392   385.4    9.882      33.762
2015   11       25     2  39    4.1457   385.6    9.890      33.826
2015   11       25     2  46    4.1522   385.7    9.898      33.889
2015   11       25     2  53    4.1586   385.9    9.906      33.952
2015   11       25     3   0    4.1650   386.0    9.913      34.014
2015   11       25     3   7    4.1713   386.2    9.921      34.076
2015   11       25     3  14    4.1776   386.4    9.928      34.137
2015   11       25     3  21    4.1839   386.5    9.936      34.198
2015   11       25     3  28    4.1902   386.7    9.943      34.259
2015   11       25     3  35    4.1964   386.8    9.951      34.320
2015   11       25     3  42    4.2026   387.0    9.958      34.381
2015   11       25     3  49    4.2089   387.2    9.966      34.441
2015   11       25     3  56    4.2151   387.3    9.973      34.502
2015   11       25     4   3    4.2214   387.5    9.981      34.563
2015   11       25     4  10    4.2276   387.7    9.989      34.624
2015   11       25     4  17    4.2339   387.8    9.997      34.685
2015   11       25     4  24    4.2401   388.0   10.005      34.747
2015   11       25     4  31    4.2465   388.2   10.014      34.809
2015   11       25     4  38    4.2528   388.3   10.022      34.873
2015   11       25     4  45    4.2592   388.5   10.031      34.938
2015   11       25     4  52    4.2656   388.7   10.040      35.003
2015   11       25     4  59    4.2720   388.8   10.048      35.070
2015   11       25     5   6    4.2785   389.0   10.057      35.138
2015   11       25     5  13    4.2850   389.2   10.066      35.207
2015   11       25     5  20    4.2915   389.4   10.075      35.276
2015   11       25     5  27    4.2981   389.6   10.083      35.346
2015   11       25     5  34    4.3046   389.8   10.092      35.416
2015   11       25     5  41    4.3113   389.9   10.101      35.487
2015   11       25     5  48    4.3179   390.1   10.110      35.558
2015   11       25     5  55    4.3246   390.3   10.119      35.630
2015   11       25     6   2    4.3314   390.5   10.128      35.702
2015   11       25     6   9    4.3382   390.7   10.138      35.774
2015   11       25     6  16    4.3451   390.9   10.148      35.846
2015   11       25     6  23    4.3520   391.1   10.158      35.919
2015   11       25     6  30    4.3590   391.3   10.168      35.992
2015   11       25     6  37    4.3661   391.5   10.179      36.066
2015   11       25     6  44    4.3731   391.7   10.190      36.142
2015   11       25     6  51    4.3802   391.9   10.201      36.219
2015   11       25     6  58    4.3872   392.1   10.212      36.297
2015   11       25     7   5    4.3942   392.3   10.224      36.376
2015   11       25     7  12    4.4012   392.5   10.235      36.456
2015   11       25     7  19    4.4081   392.7   10.246      36.537
2015   11       25     7  26    4.4149   393.0   10.257      36.619
2015   11       25     7  33    4.4216   393.2   10.267      36.701
2015   11       25     7  40    4.4282   393.4   10.277      36.784
2015   11       25     7  47    4.4346   393.6   10.287      36.868
2015   11       25     7  54    4.4409   393.9   10.296      36.952
2015   11       25     8   2    4.4471   394.1   10.304      37.035
2015   11       25     8   9    4.4530   394.3   10.311      37.117
2015   11       25     8  16    4.4589   394.6   10.318      37.198
2015   11       25     8  23    4.4645   394.8   10.324      37.278
2015   11       25     8  30    4.4700   395.1   10.329      37.357
2015   11       25     8  37    4.4754   395.3   10.334      37.435
2015   11       25     8  44    4.4806   395.5   10.338      37.512
2015   11       25     8  51    4.4858   395.8   10.342      37.587
2015   11       25     8  58    4.4908   396.0   10.345      37.661
2015   11       25     9   5    4.4957   396.2   10.347      37.734
2015   11       25     9  12    4.5004   396.5   10.349      37.806
2015   11       25     9  19    4.5052   396.7   10.350      37.877
2015   11       25     9  26    4.5098   397.0   10.351      37.947
2015   11       25     9  33    4.5144   397.2   10.352      38.016
2015   11       25     9  40    4.5189   397.4   10.352      38.084
2015   11       25     9  47    4.5233   397.7   10.352      38.152
2015   11       25     9  54    4.5278   397.9   10.352      38.218
2015   11       25    10   1    4.5321   398.1   10.351      38.284
2015   11       25    10   8    4.5365   398.4   10.350      38.349
2015   11       25    10  15    4.5408   398.6   10.349      38.414
2015   11       25    10  22    4.5451   398.9   10.348      38.478
2015   11       25    10  29    4.5494   399.1   10.347      38.541
2015   11       25    10  36    4.5537   399.3   10.345      38.604
2015   11       25    10  43    4.5580   399.6   10.343      38.666
2015   11       25    10  50    4.5623   399.8   10.342      38.728
2015   11       25    10  57    4.5666   400.0   10.340      38.789
2015   11       25    11   4    4.5708   400.3   10.338      38.850
2015   11       25    11  11    4.5751   400.5   10.336      38.911
2015   11       25    11  18    4.5794   400.7   10.334      38.971
2015   11       25    11  25    4.5837   401.0   10.332      39.031
2015   11       25    11  32    4.5880   401.2   10.330      39.090
2015   11       25    11  39    4.5923   401.5   10.328      39.150
2015   11       25    11  46    4.5967   401.7   10.327      39.209
2015   11       25    11  53    4.6010   401.9   10.325      39.268
2015   11       25    12   0    4.6054   402.2   10.323      39.327
2015   11       25    12   7    4.6098   402.4   10.321      39.386
2015   11       25    12  14    4.6142   402.6   10.320      39.444
2015   11       25    12  21    4.6187   402.9   10.319      39.504
2015   11       25    12  28    4.6231   403.1   10.317      39.563
2015   11       25    12  35    4.6277   403.4   10.316      39.622
2015   11       25    12  42    4.6322   403.6   10.316      39.681
2015   11       25    12  49    4.6368   403.8   10.315      39.741
2015   11       25    12  56    4.6414   404.1   10.315      39.801
2015   11       25    13   3    4.6461   404.3   10.315      39.861
2015   11       25    13  10    4.6508   404.6   10.316      39.922
2015   11       25    13  17    4.6556   404.8   10.317      39.983
2015   11       25    13  24    4.6604   405.0   10.318      40.044
2015   11       25    13  31    4.6654   405.3   10.321      40.106
2015   11       25    13  38    4.6704   405.5   10.323      40.169
2015   11       25    13  45    4.6754   405.7   10.326      40.233
2015   11       25    13  52    4.6804   406.0   10.330      40.300
2015   11       25    13  59    4.6855   406.2   10.334      40.369
2015   11       25    14   6    4.6906   406.5   10.338      40.439
2015   11       25    14  14    4.6956   406.7   10.343      40.511
2015   11       25    14  21    4.7007   407.0   10.347      40.585
2015   11       25    14  28    4.7056   407.2   10.352      40.661
2015   11       25    14  35    4.7106   407.5   10.357      40.739
2015   11       25    14  42    4.7154   407.8   10.361      40.818
2015   11       25    14  49    4.7201   408.0   10.365      40.898
2015   11       25    14  56    4.7247   408.3   10.369      40.979
2015   11       25    15   3    4.7291   408.6   10.372      41.061
2015   11       25    15  10    4.7334   408.9   10.375      41.143
2015   11       25    15  17    4.7376   409.1   10.377      41.224
2015   11       25    15  24    4.7417   409.4   10.378      41.304
2015   11       25    15  31    4.7456   409.7   10.379      41.382
2015   11       25    15  38    4.7494   410.0   10.379      41.460
2015   11       25    15  45    4.7530   410.3   10.378      41.536
2015   11       25    15  52    4.7566   410.6   10.377      41.612
2015   11       25    15  59    4.7600   410.9   10.375      41.685
2015   11       25    16   6    4.7633   411.2   10.373      41.758
2015   11       25    16  13    4.7665   411.4   10.371      41.828
2015   11       25    16  20    4.7697   411.7   10.368      41.898
2015   11       25    16  27    4.7728   412.0   10.365      41.966
2015   11       25    16  34    4.7759   412.3   10.361      42.034
2015   11       25    16  41    4.7789   412.6   10.358      42.100
2015   11       25    16  48    4.7819   412.9   10.354      42.166
2015   11       25    16  55    4.7848   413.2   10.350      42.231
2015   11       25    17   2    4.7878   413.4   10.346      42.295
2015   11       25    17   9    4.7908   413.7   10.342      42.359
2015   11       25    17  16    4.7938   414.0   10.338      42.423
2015   11       25    17  23    4.7969   414.3   10.335      42.486
2015   11       25    17  30    4.8000   414.6   10.331      42.550
2015   11       25    17  37    4.8032   414.9   10.327      42.615
2015   11       25    17  44    4.8064   415.1   10.324      42.681
2015   11       25    17  51    4.8097   415.4   10.320      42.748
2015   11       25    17  58    4.8130   415.7   10.317      42.816
2015   11       25    18   5    4.8164   416.1   10.313      42.886
2015   11       25    18  12    4.8197   416.4   10.309      42.956
2015   11       25    18  19    4.8231   416.7   10.305      43.027
2015   11       25    18  26    4.8264   417.0   10.301      43.098
2015   11       25    18  33    4.8298   417.3   10.297      43.170
2015   11       25    18  40    4.8331   417.6   10.293      43.242
2015   11       25    18  47    4.8363   417.9   10.288      43.314
2015   11       25    18  54    4.8395   418.3   10.283      43.387
2015   11       25    19   1    4.8427   418.6   10.277      43.459
2015   11       25    19   8    4.8458   418.9   10.272      43.530
2015   11       25    19  15    4.8488   419.2   10.266      43.601
2015   11       25    19  22    4.8518   419.6   10.260      43.672
2015   11       25    19  29    4.8547   419.9   10.254      43.742
2015   11       25    19  36    4.8576   420.2   10.248      43.811
2015   11       25    19  43    4.8604   420.6   10.241      43.880
2015   11       25    19  50    4.8632   420.9   10.235      43.949
2015   11       25    19  57    4.8659   421.2   10.228      44.018
2015   11       25    20   4    4.8686   421.5   10.221      44.086
2015   11       25    20  11    4.8712   421.9   10.214      44.154
2015   11       25    20  18    4.8738   422.2   10.207      44.221
2015   11       25    20  25    4.8764   422.5   10.200      44.288
2015   11       25    20  32    4.8789   422.8   10.193      44.355
2015   11       25    20  40    4.8815   423.2   10.186      44.422
2015   11       25    20  47    4.8839   423.5   10.179      44.489
2015   11       25    20  54    4.8864   423.8   10.172      44.556
2015   11       25    21   1    4.8888   424.1   10.165      44.623
2015   11       25    21   8    4.8913   424.5   10.158      44.690
2015   11       25    21  15    4.8937   424.8   10.152      44.757
2015   11       25    21  22    4.8961   425.1   10.145      44.825
2015   11       25    21  29    4.8985   425.5   10.139      44.892
2015   11       25    21  36    4.9009   425.8   10.132      44.960
2015   11       25    21  43    4.9032   426.1   10.126      45.028
2015   11       25    21  50    4.9055   426.4   10.120      45.096
2015   11       25    21  57    4.9078   426.8   10.114      45.166
2015   11       25    22   4    4.9101   427.1   10.108      45.236
2015   11       25    22  11    4.9122   427.4   10.101      45.306
2015   11       25    22  18    4.9143   427.8   10.095      45.376
2015   11       25    22  25    4.9162   428.1   10.088      45.446
2015   11       25    22  32    4.9181   428.5   10.080      45.515
2015   11       25    22  39    4.9199   428.8   10.072      45.584
2015   11       25    22  46    4.9215   429.2   10.064      45.651
2015   11       25    22  53    4.9230   429.6   10.055      45.717
2015   11       25    23   0    4.9243   429.9   10.045      45.781
2015   11       25    23   7    4.9255   430.3   10.035      45.844
2015   11       25    23  14    4.9266   430.6   10.025      45.906
2015   11       25    23  21    4.9275   431.0   10.013      45.966
2015   11       25    23  28    4.9283   431.3   10.002      46.024
2015   11       25    23  35    4.9289   431.7    9.990      46.081
2015   11       25    23  42    4.9295   432.0    9.978      46.136
2015   11       25    23  49    4.9300   432.4    9.965      46.190
2015   11       25    23  56    4.9303   432.7    9.953      46.242
2015   11       26     0   3    4.9306   433.1    9.940      46.294
2015   11       26     0  10    4.9308   433.4    9.927      46.346
2015   11       26     0  17    4.9309   433.7    9.914      46.396
2015   11       26     0  24    4.9310   434.1    9.901      46.446
2015   11       26     0  31    4.9311   434.4    9.888      46.496
2015   11       26     0  38    4.9311   434.7    9.875      46.546
2015   11       26     0  45    4.9311   435.0    9.863      46.595
2015   11       26     0  52    4.9310   435.4    9.850      46.644
2015   11       26     0  59    4.9310   435.7    9.837      46.694
2015   11       26     1   6    4.9309   436.0    9.825      46.743
2015   11       26     1  13    4.9308   436.4    9.812      46.794
2015   11       26     1  20    4.9307   436.7    9.800      46.847
2015   11       26     1  27    4.9305   437.0    9.787      46.900
2015   11       26     1  34    4.9303   437.4    9.774      46.955
2015   11       26     1  41    4.9299   437.7    9.761      47.010
2015   11       26     1  48    4.9295   438.1    9.748      47.066
2015   11       26     1  55    4.9290   438.4    9.735      47.122
2015   11       26     2   2    4.9283   438.8    9.722      47.178
2015   11       26     2   9    4.9276   439.1    9.708      47.234
2015   11       26     2  16    4.9267   439.5    9.694      47.290
2015   11       26     2  23    4.9257   439.8    9.680      47.346
2015   11       26     2  30    4.9246   440.2    9.665      47.401
2015   11       26     2  37    4.9234   440.5    9.650      47.455
2015   11       26     2  44    4.9221   440.9    9.635      47.509
2015   11       26     2  51    4.9207   441.3    9.620      47.562
2015   11       26     2  59    4.9192   441.6    9.605      47.614
2015   11       26     3   6    4.9177   442.0    9.590      47.667
2015   11       26     3  13    4.9161   442.3    9.574      47.720
2015   11       26     3  20    4.9145   442.7    9.559      47.773
2015   11       26     3  27    4.9128   443.1    9.543      47.827
2015   11       26     3  34    4.9110   443.4    9.528      47.881
2015   11       26     3  41    4.9093   443.8    9.512      47.935
2015   11       26     3  48    4.9074   444.2    9.497      47.990
2015   11       26     3  55    4.9056   444.5    9.481      48.045
2015   11       26     4   2    4.9037   444.9    9.465      48.100
2015   11       26     4   9    4.9018   445.3    9.449      48.155
2015   11       26     4  16    4.8997   445.7    9.433      48.210
2015   11       26     4  23    4.8977   446.1    9.417      48.265
2015   11       26     4  30    4.8955   446.4    9.401      48.319
2015   11       26     4  37    4.8933   446.8    9.385      48.373
2015   11       26     4  44    4.8910   447.2    9.368      48.426
2015   11       26     4  51    4.8886   447.6    9.351      48.477
2015   11       26     4  58    4.8861   448.0    9.334      48.528
2015   11       26     5   5    4.8835   448.4    9.316      48.577
2015   11       26     5  12    4.8807   448.8    9.298      48.624
2015   11       26     5  19    4.8778   449.2    9.280      48.671
2015   11       26     5  26    4.8747   449.6    9.261      48.717
2015   11       26     5  33    4.8715   450.1    9.242      48.761
2015   11       26     5  40    4.8680   450.5    9.222      48.804
2015   11       26     5  47    4.8644   450.9    9.201      48.846
2015   11       26     5  54    4.8604   451.4    9.179      48.887
2015   11       26     6   1    4.8562   451.9    9.155      48.925
2015   11       26     6   8    4.8516   452.3    9.131      48.959
2015   11       26     6  15    4.8467   452.7    9.107      48.990
2015   11       26     6  22    4.8415   453.2    9.081      49.017
2015   11       26     6  29    4.8362   453.6    9.055      49.041
2015   11       26     6  36    4.8307   454.0    9.029      49.063
2015   11       26     6  43    4.8251   454.4    9.003      49.083
2015   11       26     6  50    4.8193   454.7    8.977      49.100
2015   11       26     6  57    4.8134   455.1    8.951      49.117
2015   11       26     7   4    4.8075   455.5    8.925      49.133
2015   11       26     7  11    4.8016   455.8    8.900      49.149
2015   11       26     7  18    4.7956   456.2    8.875      49.163
2015   11       26     7  25    4.7897   456.5    8.850      49.178
2015   11       26     7  32    4.7837   456.9    8.826      49.193
2015   11       26     7  39    4.7779   457.2    8.802      49.211
2015   11       26     7  47    4.7720   457.6    8.779      49.229
2015   11       26     7  54    4.7661   457.9    8.755      49.248
2015   11       26     8   1    4.7602   458.3    8.732      49.269
2015   11       26     8   8    4.7542   458.6    8.709      49.290
2015   11       26     8  15    4.7481   459.0    8.685      49.311
2015   11       26     8  22    4.7419   459.4    8.661      49.332
2015   11       26     8  29    4.7355   459.7    8.637      49.352
2015   11       26     8  36    4.7291   460.1    8.613      49.369
2015   11       26     8  43    4.7225   460.4    8.588      49.384
2015   11       26     8  50    4.7158   460.7    8.564      49.396
2015   11       26     8  57    4.7089   461.1    8.539      49.407
2015   11       26     9   4    4.7020   461.4    8.515      49.415
2015   11       26     9  11    4.6951   461.7    8.491      49.421
2015   11       26     9  18    4.6881   462.0    8.467      49.425
2015   11       26     9  25    4.6811   462.3    8.443      49.427
2015   11       26     9  32    4.6742   462.6    8.419      49.428
2015   11       26     9  39    4.6672   462.9    8.396      49.428
2015   11       26     9  46    4.6604   463.2    8.374      49.428
2015   11       26     9  53    4.6536   463.5    8.352      49.428
2015   11       26    10   0    4.6469   463.8    8.330      49.428
2015   11       26    10   7    4.6402   464.1    8.309      49.427
2015   11       26    10  14    4.6337   464.3    8.288      49.428
2015   11       26    10  21    4.6273   464.6    8.268      49.431
2015   11       26    10  28    4.6209   464.9    8.248      49.434
2015   11       26    10  35    4.6146   465.1    8.229      49.442
2015   11       26    10  42    4.6083   465.4    8.210      49.452
2015   11       26    10  49    4.6020   465.7    8.191      49.464
2015   11       26    10  56    4.5958   466.0    8.172      49.478
2015   11       26    11   3    4.5896   466.4    8.154      49.493
2015   11       26    11  10    4.5834   466.7    8.136      49.509
2015   11       26    11  17    4.5771   467.0    8.117      49.524
2015   11       26    11  24    4.5708   467.3    8.099      49.538
2015   11       26    11  31    4.5644   467.6    8.080      49.550
2015   11       26    11  38    4.5580   467.9    8.061      49.562
2015   11       26    11  45    4.5514   468.2    8.042      49.571
2015   11       26    11  52    4.5448   468.5    8.023      49.580
2015   11       26    11  59    4.5380   468.9    8.004      49.586
2015   11       26    12   6    4.5311   469.2    7.984      49.590
2015   11       26    12  13    4.5240   469.5    7.964      49.592
2015   11       26    12  20    4.5169   469.8    7.944      49.592
2015   11       26    12  27    4.5095   470.1    7.923      49.590
2015   11       26    12  34    4.5022   470.4    7.903      49.587
2015   11       26    12  41    4.4946   470.8    7.882      49.583
2015   11       26    12  48    4.4870   471.1    7.861      49.578
2015   11       26    12  55    4.4791   471.4    7.839      49.573
2015   11       26    13   2    4.4713   471.7    7.817      49.567
2015   11       26    13  10    4.4632   472.1    7.795      49.561
2015   11       26    13  17    4.4550   472.4    7.772      49.552
2015   11       26    13  24    4.4465   472.8    7.749      49.540
2015   11       26    13  31    4.4379   473.1    7.725      49.525
2015   11       26    13  38    4.4292   473.4    7.701      49.509
2015   11       26    13  45    4.4204   473.7    7.677      49.492
2015   11       26    13  52    4.4116   474.0    7.653      49.475
2015   11       26    13  59    4.4028   474.3    7.630      49.457
2015   11       26    14   6    4.3940   474.6    7.606      49.438
2015   11       26    14  13    4.3852   474.9    7.583      49.419
2015   11       26    14  20    4.3764   475.2    7.560      49.400
2015   11       26    14  27    4.3677   475.5    7.538      49.381
2015   11       26    14  34    4.3591   475.8    7.516      49.361
2015   11       26    14  41    4.3505   476.0    7.495      49.340
2015   11       26    14  48    4.3420   476.3    7.474      49.320
2015   11       26    14  55    4.3336   476.5    7.453      49.303
2015   11       26    15   2    4.3252   476.8    7.433      49.285
2015   11       26    15   9    4.3170   477.1    7.412      49.269
2015   11       26    15  16    4.3086   477.4    7.392      49.253
2015   11       26    15  23    4.3004   477.6    7.372      49.237
2015   11       26    15  30    4.2920   477.9    7.351      49.222
2015   11       26    15  37    4.2837   478.2    7.330      49.206
2015   11       26    15  44    4.2753   478.5    7.309      49.190
2015   11       26    15  51    4.2668   478.8    7.287      49.171
2015   11       26    15  58    4.2582   479.1    7.266      49.148
2015   11       26    16   5    4.2497   479.3    7.244      49.123
2015   11       26    16  12    4.2411   479.6    7.222      49.096
2015   11       26    16  19    4.2325   479.8    7.200      49.065
2015   11       26    16  26    4.2239   480.1    7.179      49.032
2015   11       26    16  33    4.2155   480.3    7.157      48.997
2015   11       26    16  40    4.2071   480.5    7.136      48.961
2015   11       26    16  47    4.1988   480.7    7.116      48.922
2015   11       26    16  54    4.1907   480.9    7.096      48.883
2015   11       26    17   1    4.1827   481.1    7.076      48.845
2015   11       26    17   8    4.1748   481.3    7.057      48.806
2015   11       26    17  15    4.1671   481.5    7.039      48.769
2015   11       26    17  22    4.1596   481.6    7.021      48.733
2015   11       26    17  29    4.1522   481.8    7.004      48.698
2015   11       26    17  36    4.1449   482.0    6.987      48.665
2015   11       26    17  43    4.1378   482.1    6.971      48.634
2015   11       26    17  50    4.1307   482.3    6.955      48.606
2015   11       26    17  57    4.1238   482.5    6.940      48.580
2015   11       26    18   4    4.1168   482.7    6.924      48.557
2015   11       26    18  11    4.1099   482.9    6.909      48.535
2015   11       26    18  18    4.1030   483.1    6.894      48.515
2015   11       26    18  25    4.0961   483.3    6.879      48.495
2015   11       26    18  32    4.0892   483.5    6.864      48.474
2015   11       26    18  39    4.0824   483.7    6.849      48.452
2015   11       26    18  46    4.0754   483.9    6.834      48.428
2015   11       26    18  53    4.0685   484.1    6.819      48.404
2015   11       26    19   0    4.0615   484.3    6.804      48.378
2015   11       26    19   7    4.0545   484.5    6.788      48.352
2015   11       26    19  14    4.0473   484.7    6.772      48.324
2015   11       26    19  21    4.0402   484.9    6.757      48.295
2015   11       26    19  29    4.0330   485.1    6.741      48.264
2015   11       26    19  36    4.0257   485.3    6.725      48.233
2015   11       26    19  43    4.0185   485.5    6.709      48.200
2015   11       26    19  50    4.0112   485.7    6.693      48.166
2015   11       26    19  57    4.0040   485.9    6.678      48.131
2015   11       26    20   4    3.9967   486.0    6.662      48.096
2015   11       26    20  11    3.9895   486.2    6.646      48.060
2015   11       26    20  18    3.9823   486.4    6.631      48.024
2015   11       26    20  25    3.9752   486.5    6.616      47.989
2015   11       26    20  32    3.9682   486.7    6.602      47.952
2015   11       26    20  39    3.9612   486.8    6.587      47.917
2015   11       26    20  46    3.9543   487.0    6.573      47.882
2015   11       26    20  53    3.9474   487.1    6.559      47.849
2015   11       26    21   0    3.9407   487.3    6.545      47.818
2015   11       26    21   7    3.9340   487.4    6.532      47.788
2015   11       26    21  14    3.9274   487.6    6.519      47.759
2015   11       26    21  21    3.9208   487.8    6.506      47.731
2015   11       26    21  28    3.9143   487.9    6.493      47.703
2015   11       26    21  35    3.9078   488.1    6.480      47.675
2015   11       26    21  42    3.9013   488.3    6.467      47.647
2015   11       26    21  49    3.8949   488.4    6.454      47.618
2015   11       26    21  56    3.8884   488.6    6.441      47.589
2015   11       26    22   3    3.8820   488.8    6.429      47.559
2015   11       26    22  10    3.8755   488.9    6.416      47.529
2015   11       26    22  17    3.8691   489.1    6.403      47.497
2015   11       26    22  24    3.8627   489.3    6.390      47.465
2015   11       26    22  31    3.8563   489.4    6.376      47.432
2015   11       26    22  38    3.8499   489.6    6.363      47.398
2015   11       26    22  45    3.8435   489.7    6.350      47.365
2015   11       26    22  52    3.8371   489.9    6.336      47.331
2015   11       26    22  59    3.8308   490.1    6.323      47.296
2015   11       26    23   6    3.8244   490.2    6.309      47.261
2015   11       26    23  13    3.8181   490.4    6.296      47.225
2015   11       26    23  20    3.8117   490.6    6.282      47.189
2015   11       26    23  27    3.8055   490.7    6.268      47.152
2015   11       26    23  34    3.7992   490.9    6.255      47.114
2015   11       26    23  41    3.7930   491.0    6.241      47.075
2015   11       26    23  48    3.7869   491.1    6.227      47.036
2015   11       26    23  55    3.7808   491.3    6.214      46.997
2015   11       27     0   2    3.7747   491.4    6.201      46.957
2015   11       27     0   9    3.7687   491.5    6.187      46.916
2015   11       27     0  16    3.7628   491.6    6.174      46.876
2015   11       27     0  23    3.7569   491.8    6.162      46.837
2015   11       27     0  30    3.7511   491.9    6.149      46.799
2015   11       27     0  37    3.7453   492.0    6.137      46.762
2015   11       27     0  44    3.7395   492.1    6.124      46.726
2015   11       27     0  51    3.7339   492.3    6.112      46.691
2015   11       27     0  58    3.7282   492.4    6.100      46.658
2015   11       27     1   5    3.7226   492.5    6.089      46.624
2015   11       27     1  12    3.7170   492.7    6.077      46.592
2015   11       27     1  19    3.7114   492.8    6.065      46.559
2015   11       27     1  26    3.7058   493.0    6.054      46.527
2015   11       27     1  33    3.7002   493.1    6.042      46.495
2015   11       27     1  40    3.6946   493.2    6.031      46.464
2015   11       27     1  47    3.6890   493.4    6.019      46.431
2015   11       27     1  55    3.6834   493.5    6.008      46.398
2015   11       27     2   2    3.6778   493.7    5.996      46.364
2015   11       27     2   9    3.6723   493.8    5.985      46.329
2015   11       27     2  16    3.6667   493.9    5.974      46.294
2015   11       27     2  23    3.6611   494.0    5.962      46.259
2015   11       27     2  30    3.6555   494.2    5.951      46.224
2015   11       27     2  37    3.6500   494.3    5.940      46.189
2015   11       27     2  44    3.6444   494.4    5.929      46.154
2015   11       27     2  51    3.6389   494.5    5.918      46.120
2015   11       27     2  58    3.6335   494.6    5.907      46.085
2015   11       27     3   5    3.6281   494.7    5.897      46.050
2015   11       27     3  12    3.6227   494.8    5.886      46.016
2015   11       27     3  19    3.6173   495.0    5.875      45.982
2015   11       27     3  26    3.6120   495.1    5.865      45.948
2015   11       27     3  33    3.6067   495.2    5.855      45.914
2015   11       27     3  40    3.6014   495.3    5.845      45.881
2015   11       27     3  47    3.5962   495.4    5.834      45.848
2015   11       27     3  54    3.5910   495.5    5.824      45.815
2015   11       27     4   1    3.5858   495.6    5.815      45.782
2015   11       27     4   8    3.5807   495.7    5.805      45.749
2015   11       27     4  15    3.5755   495.8    5.795      45.716
2015   11       27     4  22    3.5705   495.9    5.786      45.684
2015   11       27     4  29    3.5654   496.0    5.776      45.651
2015   11       27     4  36    3.5604   496.1    5.767      45.618
2015   11       27     4  43    3.5553   496.2    5.757      45.586
2015   11       27     4  50    3.5503   496.2    5.748      45.553
2015   11       27     4  57    3.5454   496.3    5.739      45.521
2015   11       27     5   4    3.5404   496.4    5.729      45.488
2015   11       27     5  11    3.5355   496.5    5.720      45.455
2015   11       27     5  18    3.5306   496.6    5.711      45.423
2015   11       27     5  25    3.5257   496.7    5.702      45.390
2015   11       27     5  32    3.5209   496.8    5.693      45.357
2015   11       27     5  39    3.5160   496.8    5.684      45.324
2015   11       27     5  46    3.5112   496.9    5.675      45.291
2015   11       27     5  53    3.5064   497.0    5.666      45.259
2015   11       27     6   0    3.5017   497.1    5.657      45.226
2015   11       27     6   7    3.4969   497.2    5.649      45.193
2015   11       27     6  14    3.4922   497.2    5.640      45.160
2015   11       27     6  21    3.4875   497.3    5.631      45.127
2015   11       27     6  28    3.4828   497.4    5.623      45.094
2015   11       27     6  35    3.4781   497.5    5.614      45.061
2015   11       27     6  42    3.4734   497.5    5.605      45.027
2015   11       27     6  49    3.4688   497.6    5.597      44.994
2015   11       27     6  56    3.4642   497.7    5.588      44.961
2015   11       27     7   3    3.4596   497.8    5.580      44.927
2015   11       27     7  10    3.4550   497.8    5.571      44.894
2015   11       27     7  17    3.4505   497.9    5.563      44.860
2015   11       27     7  24    3.4460   498.0    5.555      44.827
2015   11       27     7  31    3.4415   498.1    5.546      44.793
2015   11       27     7  38    3.4370   498.1    5.538      44.760
2015   11       27     7  45    3.4325   498.2    5.530      44.727
2015   11       27     7  52    3.4281   498.3    5.522      44.693
2015   11       27     7  59    3.4237   498.3    5.514      44.660
2015   11       27     8   6    3.4193   498.4    5.506      44.626
2015   11       27     8  14    3.4149   498.4    5.498      44.593
2015   11       27     8  21    3.4106   498.5    5.490      44.560
2015   11       27     8  28    3.4063   498.6    5.482      44.527
2015   11       27     8  35    3.4019   498.6    5.474      44.494
2015   11       27     8  42    3.3977   498.7    5.466      44.461
2015   11       27     8  49    3.3934   498.7    5.459      44.429
2015   11       27     8  56    3.3891   498.8    5.451      44.396
2015   11       27     9   3    3.3849   498.8    5.444      44.364
2015   11       27     9  10    3.3806   498.9    5.436      44.332
2015   11       27     9  17    3.3764   498.9    5.429      44.300
2015   11       27     9  24    3.3722   499.0    5.422      44.268
2015   11       27     9  31    3.3680   499.0    5.414      44.236
2015   11       27     9  38    3.3639   499.1    5.407      44.205
2015   11       27     9  45    3.3597   499.1    5.400      44.173
2015   11       27     9  52    3.3556   499.2    5.393      44.142
2015   11       27     9  59    3.3514   499.2    5.386      44.111
2015   11       27    10   6    3.3473   499.3    5.379      44.080
2015   11       27    10  13    3.3432   499.3    5.372      44.049
2015   11       27    10  20    3.3392   499.4    5.365      44.019
2015   11       27    10  27    3.3351   499.4    5.358      43.988
2015   11       27    10  34    3.3311   499.4    5.351      43.957
2015   11       27    10  41    3.3270   499.5    5.345      43.927
2015   11       27    10  48    3.3230   499.5    5.338      43.896
2015   11       27    10  55    3.3190   499.6    5.331      43.866
2015   11       27    11   2    3.3151   499.6    5.324      43.835
2015   11       27    11   9    3.3111   499.6    5.318      43.805
2015   11       27    11  16    3.3072   499.7    5.311      43.775
2015   11       27    11  23    3.3033   499.7    5.305      43.744
2015   11       27    11  30    3.2994   499.7    5.298      43.714
2015   11       27    11  37    3.2955   499.8    5.292      43.684
2015   11       27    11  44    3.2917   499.8    5.285      43.654
2015   11       27    11  51    3.2879   499.8    5.279      43.623
2015   11       27    11  58    3.2841   499.9    5.273      43.594
2015   11       27    12   5    3.2803   499.9    5.266      43.563
2015   11       27    12  12    3.2766   499.9    5.260      43.534
2015   11       27    12  19    3.2729   500.0    5.254      43.504
2015   11       27    12  26    3.2692   500.0    5.248      43.474
2015   11       27    12  33    3.2655   500.0    5.242      43.445
2015   11       27    12  40    3.2619   500.1    5.236      43.415
2015   11       27    12  47    3.2582   500.1    5.230      43.386
2015   11       27    12  54    3.2547   500.1    5.224      43.357
2015   11       27    13   1    3.2511   500.1    5.219      43.328
2015   11       27    13   8    3.2476   500.2    5.213      43.299
2015   11       27    13  15    3.2441   500.2    5.207      43.270
2015   11       27    13  22    3.2406   500.2    5.202      43.242
2015   11       27    13  30    3.2372   500.2    5.197      43.213
2015   11       27    13  36    3.2337   500.3    5.191      43.185
2015   11       27    13  44    3.2303   500.3    5.186      43.157
2015   11       27    13  50    3.2269   500.3    5.181      43.129
2015   11       27    13  58    3.2236   500.3    5.176      43.101
2015   11       27    14   5    3.2203   500.3    5.170      43.073
2015   11       27    14  12    3.2170   500.4    5.165      43.045
2015   11       27    14  19    3.2137   500.4    5.160      43.018
2015   11       27    14  26    3.2104   500.4    5.156      42.990
2015   11       27    14  33    3.2072   500.4    5.151      42.963
2015   11       27    14  40    3.2040   500.4    5.146      42.935
2015   11       27    14  47    3.2008   500.5    5.141      42.908
2015   11       27    14  54    3.1976   500.5    5.136      42.880
2015   11       27    15   1    3.1944   500.5    5.132      42.852
2015   11       27    15   8    3.1912   500.5    5.127      42.825
2015   11       27    15  15    3.1881   500.5    5.122      42.797
2015   11       27    15  22    3.1849   500.5    5.117      42.769
2015   11       27    15  29    3.1818   500.5    5.113      42.742
2015   11       27    15  36    3.1786   500.5    5.108      42.714
2015   11       27    15  43    3.1755   500.6    5.103      42.686
2015   11       27    15  50    3.1723   500.6    5.099      42.657
2015   11       27    15  57    3.1692   500.6    5.094      42.629
2015   11       27    16   4    3.1661   500.6    5.089      42.600
2015   11       27    16  11    3.1629   500.6    5.085      42.572
2015   11       27    16  18    3.1598   500.6    5.080      42.543
2015   11       27    16  25    3.1567   500.6    5.075      42.514
2015   11       27    16  32    3.1536   500.6    5.071      42.485
2015   11       27    16  39    3.1504   500.6    5.066      42.456
2015   11       27    16  46    3.1473   500.6    5.061      42.427
2015   11       27    16  53    3.1442   500.6    5.056      42.398
2015   11       27    17   0    3.1411   500.6    5.052      42.368
2015   11       27    17   7    3.1380   500.6    5.047      42.339
2015   11       27    17  14    3.1349   500.6    5.042      42.309
2015   11       27    17  21    3.1318   500.6    5.038      42.280
2015   11       27    17  28    3.1287   500.6    5.033      42.250
2015   11       27    17  35    3.1256   500.6    5.028      42.221
2015   11       27    17  42    3.1225   500.6    5.024      42.191
2015   11       27    17  49    3.1194   500.6    5.019      42.162
2015   11       27    17  56    3.1164   500.6    5.014      42.133
2015   11       27    18   3    3.1133   500.6    5.010      42.104
2015   11       27    18  10    3.1103   500.6    5.005      42.075
2015   11       27    18  17    3.1073   500.6    5.001      42.046
2015   11       27    18  24    3.1042   500.6    4.996      42.018
2015   11       27    18  32    3.1012   500.5    4.992      41.989
2015   11       27    18  39    3.0983   500.5    4.987      41.961
2015   11       27    18  46    3.0953   500.5    4.983      41.933
2015   11       27    18  53    3.0923   500.5    4.979      41.905
2015   11       27    19   0    3.0894   500.5    4.975      41.877
2015   11       27    19   7    3.0865   500.5    4.971      41.850
2015   11       27    19  14    3.0836   500.5    4.967      41.823
2015   11       27    19  21    3.0807   500.5    4.963      41.796
2015   11       27    19  28    3.0779   500.5    4.959      41.769
2015   11       27    19  35    3.0750   500.5    4.955      41.743
2015   11       27    19  42    3.0722   500.4    4.951      41.717
2015   11       27    19  49    3.0694   500.4    4.947      41.691
2015   11       27    19  56    3.0667   500.4    4.944      41.666
2015   11       27    20   3    3.0639   500.4    4.940      41.640
2015   11       27    20  10    3.0612   500.4    4.937      41.615
2015   11       27    20  17    3.0585   500.4    4.933      41.591
2015   11       27    20  24    3.0558   500.4    4.930      41.566
2015   11       27    20  31    3.0532   500.3    4.927      41.542
2015   11       27    20  38    3.0506   500.3    4.924      41.519
2015   11       27    20  45    3.0480   500.3    4.921      41.495
2015   11       27    20  52    3.0454   500.3    4.918      41.472
2015   11       27    20  59    3.0428   500.3    4.915      41.449
2015   11       27    21   6    3.0403   500.3    4.912      41.426
2015   11       27    21  13    3.0377   500.2    4.909      41.403
2015   11       27    21  20    3.0352   500.2    4.906      41.381
2015   11       27    21  27    3.0327   500.2    4.904      41.359
2015   11       27    21  34    3.0303   500.2    4.901      41.337
2015   11       27    21  41    3.0278   500.2    4.899      41.315
2015   11       27    21  48    3.0253   500.2    4.896      41.294
2015   11       27    21  55    3.0229   500.1    4.894      41.272
2015   11       27    22   2    3.0204   500.1    4.891      41.250
2015   11       27    22   9    3.0180   500.1    4.889      41.229
2015   11       27    22  16    3.0155   500.1    4.887      41.207
2015   11       27    22  23    3.0130   500.1    4.884      41.186
2015   11       27    22  30    3.0105   500.1    4.882      41.164
2015   11       27    22  37    3.0080   500.0    4.880      41.142
2015   11       27    22  44    3.0055   500.0    4.877      41.121
2015   11       27    22  51    3.0030   500.0    4.875      41.098
2015   11       27    22  58    3.0004   500.0    4.872      41.076
2015   11       27    23   5    2.9979   499.9    4.870      41.054
2015   11       27    23  12    2.9953   499.9    4.867      41.031
2015   11       27    23  19    2.9928   499.9    4.865      41.008
2015   11       27    23  26    2.9902   499.9    4.862      40.985
2015   11       27    23  33    2.9876   499.8    4.860      40.961
2015   11       27    23  40    2.9851   499.8    4.857      40.937
2015   11       27    23  47    2.9825   499.8    4.854      40.913
2015   11       27    23  54    2.9799   499.8    4.852      40.889
2015   11       28     0   1    2.9773   499.7    4.849      40.865
