year    month   day   hour  minute  B_enl V_enl   n_enl       T_enl
[year] [month] [day] [hour][minute] [nT]  [km/s]  [cm-3]      [kK]
2015   11       28     0   4    2.7301   472.1    4.306      33.224
2015   11       28     0  11    2.7281   471.9    4.305      33.189
2015   11       28     0  18    2.7261   471.7    4.305      33.154
2015   11       28     0  24    2.7241   471.5    4.304      33.118
2015   11       28     0  31    2.7220   471.3    4.304      33.083
2015   11       28     0  38    2.7201   471.1    4.303      33.047
2015   11       28     0  45    2.7181   470.9    4.302      33.010
2015   11       28     0  52    2.7161   470.7    4.302      32.974
2015   11       28     0  58    2.7141   470.5    4.301      32.937
2015   11       28     1   5    2.7121   470.3    4.300      32.900
2015   11       28     1  12    2.7101   470.1    4.299      32.862
2015   11       28     1  19    2.7080   469.9    4.299      32.825
2015   11       28     1  26    2.7060   469.7    4.298      32.787
2015   11       28     1  33    2.7041   469.5    4.297      32.749
2015   11       28     1  39    2.7022   469.3    4.296      32.711
2015   11       28     1  46    2.7002   469.1    4.295      32.672
2015   11       28     1  53    2.6982   468.8    4.295      32.634
2015   11       28     2   0    2.6962   468.6    4.294      32.595
2015   11       28     2   7    2.6943   468.4    4.293      32.556
2015   11       28     2  13    2.6923   468.2    4.292      32.518
2015   11       28     2  20    2.6904   468.0    4.292      32.479
2015   11       28     2  27    2.6885   467.8    4.291      32.440
2015   11       28     2  34    2.6865   467.6    4.290      32.401
2015   11       28     2  41    2.6845   467.4    4.290      32.363
2015   11       28     2  47    2.6827   467.1    4.289      32.324
2015   11       28     2  54    2.6808   466.9    4.289      32.285
2015   11       28     3   1    2.6789   466.7    4.288      32.246
2015   11       28     3   8    2.6770   466.5    4.288      32.208
2015   11       28     3  15    2.6751   466.3    4.287      32.170
2015   11       28     3  22    2.6732   466.1    4.287      32.132
2015   11       28     3  28    2.6713   465.8    4.287      32.094
2015   11       28     3  35    2.6695   465.6    4.286      32.056
2015   11       28     3  42    2.6676   465.4    4.286      32.019
2015   11       28     3  49    2.6658   465.2    4.286      31.981
2015   11       28     3  56    2.6640   465.0    4.286      31.945
2015   11       28     4   2    2.6622   464.8    4.286      31.908
2015   11       28     4   9    2.6604   464.5    4.286      31.872
2015   11       28     4  16    2.6585   464.3    4.286      31.836
2015   11       28     4  23    2.6568   464.1    4.287      31.800
2015   11       28     4  30    2.6550   463.9    4.287      31.765
2015   11       28     4  37    2.6533   463.6    4.287      31.729
2015   11       28     4  43    2.6515   463.4    4.288      31.694
2015   11       28     4  50    2.6498   463.2    4.288      31.660
2015   11       28     4  57    2.6480   463.0    4.289      31.625
2015   11       28     5   4    2.6464   462.8    4.289      31.591
2015   11       28     5  11    2.6447   462.5    4.290      31.557
2015   11       28     5  17    2.6430   462.3    4.291      31.523
2015   11       28     5  24    2.6413   462.1    4.291      31.489
2015   11       28     5  31    2.6396   461.9    4.292      31.456
2015   11       28     5  38    2.6380   461.6    4.293      31.423
2015   11       28     5  45    2.6363   461.4    4.294      31.390
2015   11       28     5  51    2.6347   461.2    4.295      31.357
2015   11       28     5  58    2.6331   460.9    4.296      31.325
2015   11       28     6   5    2.6314   460.7    4.297      31.292
2015   11       28     6  12    2.6298   460.5    4.299      31.261
2015   11       28     6  19    2.6283   460.3    4.300      31.229
2015   11       28     6  26    2.6267   460.0    4.301      31.198
2015   11       28     6  32    2.6251   459.8    4.303      31.168
2015   11       28     6  39    2.6236   459.6    4.304      31.138
2015   11       28     6  46    2.6221   459.3    4.306      31.108
2015   11       28     6  53    2.6206   459.1    4.307      31.079
2015   11       28     7   0    2.6191   458.9    4.309      31.049
2015   11       28     7   6    2.6176   458.6    4.311      31.021
2015   11       28     7  13    2.6161   458.4    4.312      30.992
2015   11       28     7  20    2.6146   458.2    4.314      30.964
2015   11       28     7  27    2.6132   457.9    4.316      30.936
2015   11       28     7  34    2.6118   457.7    4.318      30.908
2015   11       28     7  41    2.6104   457.5    4.320      30.880
2015   11       28     7  47    2.6090   457.2    4.322      30.852
2015   11       28     7  54    2.6075   457.0    4.324      30.824
2015   11       28     8   1    2.6062   456.8    4.326      30.797
2015   11       28     8   8    2.6048   456.5    4.328      30.769
2015   11       28     8  15    2.6035   456.3    4.330      30.741
2015   11       28     8  21    2.6021   456.1    4.332      30.713
2015   11       28     8  28    2.6007   455.8    4.334      30.686
2015   11       28     8  35    2.5994   455.6    4.336      30.657
2015   11       28     8  42    2.5980   455.4    4.338      30.629
2015   11       28     8  49    2.5966   455.2    4.340      30.601
2015   11       28     8  56    2.5953   454.9    4.342      30.573
2015   11       28     9   2    2.5939   454.7    4.344      30.544
2015   11       28     9   9    2.5926   454.5    4.346      30.515
2015   11       28     9  16    2.5912   454.2    4.348      30.486
2015   11       28     9  23    2.5899   454.0    4.350      30.457
2015   11       28     9  30    2.5885   453.8    4.352      30.428
2015   11       28     9  36    2.5871   453.5    4.353      30.398
2015   11       28     9  43    2.5858   453.3    4.355      30.369
2015   11       28     9  50    2.5844   453.1    4.357      30.339
2015   11       28     9  57    2.5831   452.8    4.358      30.309
2015   11       28    10   4    2.5817   452.6    4.360      30.278
2015   11       28    10  10    2.5803   452.3    4.361      30.248
2015   11       28    10  17    2.5791   452.1    4.363      30.217
2015   11       28    10  24    2.5777   451.9    4.364      30.187
2015   11       28    10  31    2.5764   451.6    4.366      30.156
2015   11       28    10  38    2.5751   451.4    4.367      30.125
2015   11       28    10  45    2.5738   451.2    4.368      30.094
2015   11       28    10  51    2.5725   450.9    4.370      30.063
2015   11       28    10  58    2.5712   450.7    4.371      30.032
2015   11       28    11   5    2.5699   450.5    4.372      30.000
2015   11       28    11  12    2.5686   450.2    4.373      29.969
2015   11       28    11  19    2.5673   450.0    4.375      29.937
2015   11       28    11  25    2.5660   449.8    4.376      29.906
2015   11       28    11  32    2.5647   449.5    4.377      29.874
2015   11       28    11  39    2.5635   449.3    4.378      29.843
2015   11       28    11  46    2.5622   449.0    4.380      29.811
2015   11       28    11  53    2.5609   448.8    4.381      29.779
2015   11       28    12   0    2.5596   448.6    4.382      29.747
2015   11       28    12   6    2.5584   448.3    4.383      29.715
2015   11       28    12  13    2.5571   448.1    4.385      29.683
2015   11       28    12  20    2.5560   447.8    4.386      29.651
2015   11       28    12  27    2.5547   447.6    4.387      29.619
2015   11       28    12  34    2.5534   447.4    4.389      29.587
2015   11       28    12  40    2.5523   447.1    4.390      29.554
2015   11       28    12  47    2.5510   446.9    4.392      29.522
2015   11       28    12  54    2.5498   446.6    4.393      29.491
2015   11       28    13   1    2.5486   446.4    4.395      29.459
2015   11       28    13   8    2.5475   446.1    4.396      29.427
2015   11       28    13  14    2.5463   445.9    4.398      29.395
2015   11       28    13  21    2.5452   445.6    4.400      29.364
2015   11       28    13  28    2.5441   445.4    4.402      29.333
2015   11       28    13  35    2.5430   445.1    4.404      29.302
2015   11       28    13  42    2.5419   444.9    4.406      29.272
2015   11       28    13  49    2.5408   444.6    4.408      29.242
2015   11       28    13  55    2.5398   444.4    4.411      29.212
2015   11       28    14   2    2.5388   444.1    4.413      29.183
2015   11       28    14   9    2.5378   443.9    4.416      29.154
2015   11       28    14  16    2.5368   443.6    4.419      29.126
2015   11       28    14  23    2.5359   443.4    4.421      29.098
2015   11       28    14  29    2.5349   443.1    4.424      29.071
2015   11       28    14  36    2.5341   442.9    4.428      29.044
2015   11       28    14  43    2.5332   442.6    4.431      29.018
2015   11       28    14  50    2.5324   442.4    4.434      28.992
2015   11       28    14  57    2.5315   442.1    4.438      28.966
2015   11       28    15   4    2.5307   441.9    4.442      28.941
2015   11       28    15  10    2.5299   441.6    4.445      28.916
2015   11       28    15  17    2.5292   441.4    4.449      28.892
2015   11       28    15  24    2.5284   441.1    4.453      28.867
2015   11       28    15  31    2.5277   440.9    4.457      28.844
2015   11       28    15  38    2.5270   440.6    4.462      28.820
2015   11       28    15  44    2.5263   440.4    4.466      28.797
2015   11       28    15  51    2.5256   440.1    4.470      28.774
2015   11       28    15  58    2.5249   439.9    4.475      28.751
2015   11       28    16   5    2.5243   439.6    4.479      28.728
2015   11       28    16  12    2.5236   439.4    4.483      28.705
2015   11       28    16  19    2.5229   439.1    4.488      28.683
2015   11       28    16  25    2.5223   438.9    4.492      28.660
2015   11       28    16  32    2.5217   438.6    4.497      28.637
2015   11       28    16  39    2.5210   438.4    4.501      28.615
2015   11       28    16  46    2.5204   438.1    4.506      28.593
2015   11       28    16  53    2.5197   437.9    4.510      28.570
2015   11       28    16  59    2.5191   437.6    4.515      28.548
2015   11       28    17   6    2.5185   437.4    4.519      28.525
2015   11       28    17  13    2.5178   437.1    4.524      28.503
2015   11       28    17  20    2.5172   436.9    4.528      28.480
2015   11       28    17  27    2.5166   436.6    4.533      28.458
2015   11       28    17  33    2.5160   436.4    4.538      28.436
2015   11       28    17  40    2.5154   436.1    4.542      28.413
2015   11       28    17  47    2.5148   435.9    4.547      28.391
2015   11       28    17  54    2.5143   435.6    4.551      28.369
2015   11       28    18   1    2.5137   435.4    4.556      28.347
2015   11       28    18   8    2.5131   435.1    4.560      28.325
2015   11       28    18  14    2.5126   434.9    4.565      28.303
2015   11       28    18  21    2.5120   434.6    4.569      28.281
2015   11       28    18  28    2.5116   434.4    4.574      28.259
2015   11       28    18  35    2.5111   434.1    4.578      28.237
2015   11       28    18  42    2.5105   433.9    4.583      28.215
2015   11       28    18  48    2.5101   433.6    4.587      28.193
2015   11       28    18  55    2.5095   433.4    4.592      28.171
2015   11       28    19   2    2.5091   433.1    4.596      28.149
2015   11       28    19   9    2.5086   432.9    4.601      28.128
2015   11       28    19  16    2.5081   432.6    4.606      28.106
2015   11       28    19  23    2.5077   432.4    4.610      28.084
2015   11       28    19  29    2.5073   432.1    4.615      28.063
2015   11       28    19  36    2.5068   431.9    4.619      28.041
2015   11       28    19  43    2.5064   431.6    4.624      28.019
2015   11       28    19  50    2.5060   431.4    4.629      27.997
2015   11       28    19  57    2.5057   431.1    4.633      27.975
2015   11       28    20   3    2.5053   430.9    4.638      27.953
2015   11       28    20  10    2.5049   430.7    4.642      27.931
2015   11       28    20  17    2.5045   430.4    4.647      27.909
2015   11       28    20  24    2.5042   430.2    4.651      27.886
2015   11       28    20  31    2.5038   429.9    4.656      27.864
2015   11       28    20  37    2.5035   429.7    4.660      27.841
2015   11       28    20  44    2.5032   429.4    4.665      27.819
2015   11       28    20  51    2.5029   429.2    4.669      27.796
2015   11       28    20  58    2.5025   428.9    4.674      27.773
2015   11       28    21   5    2.5022   428.7    4.678      27.750
2015   11       28    21  12    2.5019   428.4    4.683      27.727
2015   11       28    21  18    2.5017   428.2    4.687      27.704
2015   11       28    21  25    2.5014   427.9    4.692      27.681
2015   11       28    21  32    2.5011   427.7    4.696      27.658
2015   11       28    21  39    2.5009   427.4    4.701      27.635
2015   11       28    21  46    2.5007   427.2    4.705      27.612
2015   11       28    21  52    2.5005   426.9    4.710      27.589
2015   11       28    21  59    2.5003   426.7    4.714      27.566
2015   11       28    22   6    2.5001   426.4    4.719      27.544
2015   11       28    22  13    2.4999   426.2    4.724      27.521
2015   11       28    22  20    2.4998   426.0    4.728      27.498
2015   11       28    22  27    2.4996   425.7    4.733      27.475
2015   11       28    22  33    2.4995   425.5    4.738      27.453
2015   11       28    22  40    2.4994   425.2    4.742      27.430
2015   11       28    22  47    2.4993   425.0    4.747      27.408
2015   11       28    22  54    2.4993   424.7    4.752      27.386
2015   11       28    23   1    2.4993   424.5    4.757      27.363
2015   11       28    23   7    2.4992   424.2    4.762      27.341
2015   11       28    23  14    2.4992   424.0    4.767      27.319
2015   11       28    23  21    2.4992   423.7    4.772      27.297
2015   11       28    23  28    2.4992   423.5    4.777      27.276
2015   11       28    23  35    2.4992   423.3    4.782      27.254
2015   11       28    23  42    2.4992   423.0    4.787      27.233
2015   11       28    23  48    2.4992   422.8    4.792      27.211
2015   11       28    23  55    2.4993   422.5    4.797      27.190
2015   11       29     0   2    2.4994   422.3    4.802      27.169
2015   11       29     0   9    2.4995   422.0    4.808      27.148
2015   11       29     0  16    2.4995   421.8    4.813      27.127
2015   11       29     0  22    2.4996   421.5    4.819      27.106
2015   11       29     0  29    2.4997   421.3    4.824      27.086
2015   11       29     0  36    2.4999   421.1    4.829      27.065
2015   11       29     0  43    2.5000   420.8    4.835      27.045
2015   11       29     0  50    2.5002   420.6    4.841      27.025
2015   11       29     0  56    2.5003   420.3    4.846      27.005
2015   11       29     1   3    2.5005   420.1    4.852      26.985
2015   11       29     1  10    2.5007   419.8    4.858      26.966
2015   11       29     1  17    2.5009   419.6    4.864      26.947
2015   11       29     1  24    2.5012   419.3    4.870      26.928
2015   11       29     1  31    2.5014   419.1    4.875      26.909
2015   11       29     1  37    2.5017   418.9    4.882      26.891
2015   11       29     1  44    2.5020   418.6    4.888      26.872
2015   11       29     1  51    2.5023   418.4    4.894      26.855
2015   11       29     1  58    2.5026   418.1    4.900      26.837
2015   11       29     2   5    2.5030   417.9    4.906      26.819
2015   11       29     2  11    2.5034   417.6    4.913      26.802
2015   11       29     2  18    2.5038   417.4    4.919      26.785
2015   11       29     2  25    2.5042   417.2    4.926      26.768
2015   11       29     2  32    2.5046   416.9    4.932      26.752
2015   11       29     2  39    2.5050   416.7    4.939      26.736
2015   11       29     2  46    2.5055   416.5    4.946      26.719
2015   11       29     2  52    2.5060   416.2    4.952      26.703
2015   11       29     2  59    2.5065   416.0    4.959      26.688
2015   11       29     3   6    2.5070   415.8    4.966      26.672
2015   11       29     3  13    2.5075   415.5    4.973      26.657
2015   11       29     3  20    2.5080   415.3    4.980      26.641
2015   11       29     3  26    2.5086   415.1    4.986      26.626
2015   11       29     3  33    2.5091   414.8    4.993      26.610
2015   11       29     3  40    2.5097   414.6    5.000      26.595
2015   11       29     3  47    2.5103   414.4    5.007      26.580
2015   11       29     3  54    2.5109   414.1    5.014      26.564
2015   11       29     4   0    2.5115   413.9    5.021      26.549
2015   11       29     4   7    2.5121   413.7    5.028      26.534
2015   11       29     4  14    2.5127   413.4    5.034      26.519
2015   11       29     4  21    2.5133   413.2    5.041      26.503
2015   11       29     4  28    2.5139   413.0    5.048      26.488
2015   11       29     4  35    2.5145   412.7    5.055      26.473
2015   11       29     4  41    2.5152   412.5    5.062      26.457
2015   11       29     4  48    2.5158   412.3    5.068      26.442
2015   11       29     4  55    2.5164   412.1    5.075      26.426
2015   11       29     5   2    2.5171   411.8    5.082      26.410
2015   11       29     5   9    2.5178   411.6    5.089      26.395
2015   11       29     5  15    2.5184   411.4    5.095      26.379
2015   11       29     5  22    2.5191   411.1    5.102      26.363
2015   11       29     5  29    2.5198   410.9    5.109      26.347
2015   11       29     5  36    2.5206   410.7    5.115      26.331
2015   11       29     5  43    2.5212   410.5    5.122      26.316
2015   11       29     5  50    2.5219   410.2    5.128      26.300
2015   11       29     5  56    2.5227   410.0    5.135      26.284
2015   11       29     6   3    2.5234   409.8    5.142      26.268
2015   11       29     6  10    2.5241   409.6    5.148      26.252
2015   11       29     6  17    2.5249   409.3    5.155      26.236
2015   11       29     6  24    2.5257   409.1    5.161      26.220
2015   11       29     6  30    2.5264   408.9    5.168      26.204
2015   11       29     6  37    2.5272   408.6    5.175      26.188
2015   11       29     6  44    2.5280   408.4    5.181      26.172
2015   11       29     6  51    2.5288   408.2    5.188      26.156
2015   11       29     6  58    2.5296   408.0    5.194      26.140
2015   11       29     7   5    2.5305   407.7    5.201      26.125
2015   11       29     7  11    2.5313   407.5    5.208      26.109
2015   11       29     7  18    2.5322   407.3    5.215      26.093
2015   11       29     7  25    2.5331   407.1    5.221      26.078
2015   11       29     7  32    2.5339   406.8    5.228      26.063
2015   11       29     7  39    2.5349   406.6    5.235      26.047
2015   11       29     7  45    2.5358   406.4    5.242      26.032
2015   11       29     7  52    2.5367   406.2    5.249      26.017
2015   11       29     7  59    2.5377   406.0    5.256      26.002
2015   11       29     8   6    2.5386   405.7    5.263      25.987
2015   11       29     8  13    2.5396   405.5    5.270      25.973
2015   11       29     8  19    2.5406   405.3    5.277      25.958
2015   11       29     8  26    2.5417   405.1    5.284      25.944
2015   11       29     8  33    2.5427   404.8    5.292      25.930
2015   11       29     8  40    2.5438   404.6    5.299      25.916
2015   11       29     8  47    2.5449   404.4    5.307      25.903
2015   11       29     8  54    2.5460   404.2    5.314      25.889
2015   11       29     9   0    2.5471   403.9    5.322      25.876
2015   11       29     9   7    2.5482   403.7    5.329      25.863
2015   11       29     9  14    2.5494   403.5    5.337      25.850
2015   11       29     9  21    2.5505   403.3    5.345      25.837
2015   11       29     9  28    2.5518   403.1    5.353      25.825
2015   11       29     9  34    2.5530   402.8    5.361      25.813
2015   11       29     9  41    2.5542   402.6    5.369      25.801
2015   11       29     9  48    2.5555   402.4    5.377      25.789
2015   11       29     9  55    2.5567   402.2    5.385      25.777
2015   11       29    10   2    2.5580   402.0    5.393      25.766
2015   11       29    10   8    2.5593   401.8    5.401      25.755
2015   11       29    10  15    2.5607   401.5    5.410      25.744
2015   11       29    10  22    2.5620   401.3    5.418      25.733
2015   11       29    10  29    2.5634   401.1    5.427      25.722
2015   11       29    10  36    2.5648   400.9    5.435      25.712
2015   11       29    10  43    2.5661   400.7    5.444      25.701
2015   11       29    10  49    2.5676   400.5    5.453      25.691
2015   11       29    10  56    2.5690   400.2    5.461      25.681
2015   11       29    11   3    2.5705   400.0    5.470      25.671
2015   11       29    11  10    2.5719   399.8    5.479      25.662
2015   11       29    11  17    2.5734   399.6    5.488      25.652
2015   11       29    11  23    2.5749   399.4    5.497      25.643
2015   11       29    11  30    2.5764   399.2    5.506      25.634
2015   11       29    11  37    2.5779   399.0    5.515      25.625
2015   11       29    11  44    2.5795   398.8    5.524      25.616
2015   11       29    11  51    2.5810   398.6    5.533      25.607
2015   11       29    11  58    2.5826   398.3    5.542      25.598
2015   11       29    12   4    2.5842   398.1    5.551      25.589
2015   11       29    12  11    2.5858   397.9    5.560      25.581
2015   11       29    12  18    2.5874   397.7    5.570      25.573
2015   11       29    12  25    2.5891   397.5    5.579      25.564
2015   11       29    12  32    2.5907   397.3    5.588      25.556
2015   11       29    12  38    2.5924   397.1    5.598      25.548
2015   11       29    12  45    2.5940   396.9    5.607      25.540
2015   11       29    12  52    2.5957   396.7    5.617      25.532
2015   11       29    12  59    2.5974   396.5    5.626      25.525
2015   11       29    13   6    2.5992   396.3    5.636      25.517
2015   11       29    13  13    2.6009   396.1    5.646      25.510
2015   11       29    13  19    2.6027   395.9    5.655      25.502
2015   11       29    13  26    2.6045   395.7    5.665      25.495
2015   11       29    13  33    2.6063   395.5    5.675      25.488
2015   11       29    13  40    2.6081   395.3    5.685      25.481
2015   11       29    13  47    2.6100   395.1    5.695      25.474
2015   11       29    13  53    2.6117   394.9    5.705      25.468
2015   11       29    14   0    2.6136   394.7    5.715      25.461
2015   11       29    14   7    2.6155   394.5    5.725      25.455
2015   11       29    14  14    2.6174   394.3    5.735      25.449
2015   11       29    14  21    2.6193   394.1    5.746      25.443
2015   11       29    14  27    2.6213   393.9    5.756      25.437
2015   11       29    14  34    2.6234   393.7    5.766      25.431
2015   11       29    14  41    2.6252   393.5    5.777      25.426
2015   11       29    14  48    2.6273   393.3    5.788      25.421
2015   11       29    14  55    2.6293   393.1    5.798      25.416
2015   11       29    15   2    2.6313   392.9    5.809      25.411
2015   11       29    15   8    2.6336   392.7    5.820      25.406
2015   11       29    15  15    2.6355   392.5    5.831      25.402
2015   11       29    15  22    2.6377   392.3    5.842      25.398
2015   11       29    15  29    2.6398   392.1    5.854      25.394
2015   11       29    15  36    2.6420   391.9    5.865      25.390
2015   11       29    15  42    2.6442   391.7    5.877      25.387
2015   11       29    15  49    2.6464   391.5    5.888      25.384
2015   11       29    15  56    2.6487   391.4    5.900      25.381
2015   11       29    16   3    2.6510   391.2    5.912      25.378
2015   11       29    16  10    2.6533   391.0    5.924      25.376
2015   11       29    16  16    2.6556   390.8    5.936      25.374
2015   11       29    16  23    2.6580   390.6    5.948      25.373
2015   11       29    16  30    2.6603   390.4    5.961      25.371
2015   11       29    16  37    2.6627   390.2    5.973      25.370
2015   11       29    16  44    2.6652   390.0    5.986      25.370
2015   11       29    16  51    2.6676   389.9    5.998      25.369
2015   11       29    16  57    2.6703   389.7    6.011      25.369
2015   11       29    17   4    2.6726   389.5    6.024      25.370
2015   11       29    17  11    2.6752   389.3    6.037      25.370
2015   11       29    17  18    2.6777   389.1    6.050      25.371
2015   11       29    17  25    2.6803   389.0    6.064      25.372
2015   11       29    17  31    2.6829   388.8    6.077      25.373
2015   11       29    17  38    2.6856   388.6    6.090      25.375
2015   11       29    17  45    2.6882   388.4    6.104      25.377
2015   11       29    17  52    2.6909   388.2    6.117      25.379
2015   11       29    17  59    2.6936   388.1    6.131      25.382
2015   11       29    18   5    2.6963   387.9    6.145      25.384
2015   11       29    18  12    2.6990   387.7    6.158      25.387
2015   11       29    18  19    2.7017   387.6    6.172      25.390
2015   11       29    18  26    2.7044   387.4    6.186      25.393
2015   11       29    18  33    2.7072   387.2    6.200      25.397
2015   11       29    18  40    2.7100   387.1    6.214      25.400
2015   11       29    18  46    2.7128   386.9    6.227      25.404
2015   11       29    18  53    2.7156   386.7    6.241      25.408
2015   11       29    19   0    2.7184   386.6    6.255      25.412
2015   11       29    19   7    2.7212   386.4    6.269      25.416
2015   11       29    19  14    2.7241   386.2    6.283      25.421
2015   11       29    19  20    2.7269   386.1    6.297      25.425
2015   11       29    19  27    2.7298   385.9    6.311      25.430
2015   11       29    19  34    2.7328   385.8    6.324      25.435
2015   11       29    19  41    2.7356   385.6    6.338      25.440
2015   11       29    19  48    2.7385   385.4    6.352      25.446
2015   11       29    19  55    2.7415   385.3    6.366      25.451
2015   11       29    20   1    2.7444   385.1    6.380      25.457
2015   11       29    20   8    2.7474   385.0    6.394      25.463
2015   11       29    20  15    2.7504   384.8    6.408      25.469
2015   11       29    20  22    2.7534   384.7    6.422      25.476
2015   11       29    20  29    2.7565   384.5    6.436      25.483
2015   11       29    20  35    2.7596   384.4    6.450      25.490
2015   11       29    20  42    2.7626   384.2    6.464      25.497
2015   11       29    20  49    2.7658   384.1    6.478      25.505
2015   11       29    20  56    2.7689   383.9    6.492      25.512
2015   11       29    21   3    2.7721   383.8    6.506      25.520
2015   11       29    21   9    2.7752   383.6    6.520      25.529
2015   11       29    21  16    2.7784   383.5    6.535      25.538
2015   11       29    21  23    2.7816   383.3    6.549      25.547
2015   11       29    21  30    2.7849   383.2    6.563      25.556
2015   11       29    21  37    2.7882   383.1    6.578      25.566
2015   11       29    21  44    2.7915   382.9    6.592      25.576
2015   11       29    21  50    2.7948   382.8    6.607      25.587
2015   11       29    21  57    2.7982   382.6    6.622      25.598
2015   11       29    22   4    2.8016   382.5    6.636      25.609
2015   11       29    22  11    2.8050   382.4    6.651      25.620
2015   11       29    22  18    2.8084   382.2    6.666      25.632
2015   11       29    22  24    2.8118   382.1    6.681      25.644
2015   11       29    22  31    2.8153   382.0    6.696      25.656
2015   11       29    22  38    2.8188   381.8    6.712      25.669
2015   11       29    22  45    2.8223   381.7    6.727      25.682
2015   11       29    22  52    2.8259   381.6    6.743      25.695
2015   11       29    22  59    2.8295   381.4    6.758      25.708
2015   11       29    23   5    2.8331   381.3    6.774      25.722
2015   11       29    23  12    2.8367   381.2    6.790      25.736
2015   11       29    23  19    2.8404   381.1    6.806      25.750
2015   11       29    23  26    2.8439   380.9    6.822      25.765
2015   11       29    23  33    2.8476   380.8    6.838      25.779
2015   11       29    23  39    2.8513   380.7    6.854      25.794
2015   11       29    23  46    2.8550   380.6    6.870      25.809
2015   11       29    23  53    2.8588   380.5    6.887      25.825
2015   11       30     0   0    2.8625   380.3    6.903      25.840
2015   11       30     0   7    2.8663   380.2    6.920      25.856
2015   11       30     0  13    2.8700   380.1    6.936      25.872
2015   11       30     0  20    2.8738   380.0    6.953      25.887
2015   11       30     0  27    2.8776   379.9    6.970      25.904
2015   11       30     0  34    2.8815   379.8    6.987      25.920
2015   11       30     0  41    2.8853   379.7    7.004      25.936
2015   11       30     0  48    2.8891   379.5    7.021      25.952
2015   11       30     0  54    2.8930   379.4    7.038      25.969
2015   11       30     1   1    2.8969   379.3    7.055      25.986
2015   11       30     1   8    2.9007   379.2    7.072      26.002
2015   11       30     1  15    2.9046   379.1    7.089      26.019
2015   11       30     1  22    2.9085   379.0    7.106      26.036
2015   11       30     1  28    2.9124   378.9    7.124      26.053
2015   11       30     1  35    2.9163   378.8    7.141      26.070
2015   11       30     1  42    2.9202   378.7    7.158      26.087
2015   11       30     1  49    2.9242   378.6    7.175      26.104
2015   11       30     1  56    2.9281   378.5    7.193      26.122
2015   11       30     2   3    2.9320   378.4    7.210      26.139
2015   11       30     2   9    2.9360   378.3    7.227      26.157
2015   11       30     2  16    2.9400   378.2    7.245      26.175
2015   11       30     2  23    2.9440   378.1    7.262      26.193
2015   11       30     2  30    2.9480   378.0    7.279      26.211
2015   11       30     2  37    2.9520   377.9    7.297      26.229
2015   11       30     2  43    2.9560   377.8    7.314      26.248
2015   11       30     2  50    2.9600   377.7    7.331      26.267
2015   11       30     2  57    2.9641   377.6    7.348      26.287
2015   11       30     3   4    2.9682   377.6    7.365      26.306
2015   11       30     3  11    2.9723   377.5    7.383      26.327
2015   11       30     3  18    2.9764   377.4    7.399      26.347
2015   11       30     3  24    2.9805   377.3    7.416      26.369
2015   11       30     3  31    2.9846   377.2    7.433      26.390
2015   11       30     3  38    2.9888   377.1    7.450      26.412
2015   11       30     3  45    2.9929   377.1    7.466      26.435
2015   11       30     3  52    2.9971   377.0    7.483      26.458
2015   11       30     3  58    3.0013   376.9    7.499      26.481
2015   11       30     4   5    3.0055   376.8    7.515      26.505
2015   11       30     4  12    3.0097   376.7    7.531      26.529
2015   11       30     4  19    3.0139   376.7    7.548      26.553
2015   11       30     4  26    3.0181   376.6    7.563      26.578
2015   11       30     4  32    3.0224   376.5    7.579      26.602
2015   11       30     4  39    3.0266   376.5    7.595      26.628
2015   11       30     4  46    3.0309   376.4    7.611      26.653
2015   11       30     4  53    3.0352   376.3    7.626      26.678
2015   11       30     5   0    3.0394   376.2    7.642      26.703
2015   11       30     5   7    3.0437   376.2    7.658      26.729
2015   11       30     5  13    3.0481   376.1    7.673      26.754
2015   11       30     5  20    3.0524   376.0    7.689      26.780
2015   11       30     5  27    3.0568   376.0    7.704      26.805
2015   11       30     5  34    3.0610   375.9    7.720      26.831
2015   11       30     5  41    3.0654   375.8    7.735      26.856
2015   11       30     5  47    3.0697   375.8    7.750      26.882
2015   11       30     5  54    3.0741   375.7    7.766      26.907
2015   11       30     6   1    3.0785   375.7    7.781      26.933
2015   11       30     6   8    3.0829   375.6    7.797      26.958
2015   11       30     6  15    3.0874   375.5    7.812      26.984
2015   11       30     6  21    3.0918   375.5    7.827      27.010
2015   11       30     6  28    3.0962   375.4    7.842      27.035
2015   11       30     6  35    3.1007   375.4    7.858      27.061
2015   11       30     6  42    3.1050   375.3    7.873      27.087
2015   11       30     6  49    3.1096   375.3    7.888      27.113
2015   11       30     6  56    3.1139   375.2    7.903      27.138
2015   11       30     7   2    3.1184   375.2    7.918      27.164
2015   11       30     7   9    3.1228   375.1    7.933      27.189
2015   11       30     7  16    3.1273   375.1    7.948      27.215
2015   11       30     7  23    3.1316   375.0    7.963      27.240
2015   11       30     7  30    3.1361   375.0    7.977      27.265
2015   11       30     7  36    3.1405   374.9    7.992      27.290
2015   11       30     7  43    3.1449   374.9    8.007      27.315
2015   11       30     7  50    3.1492   374.8    8.021      27.340
2015   11       30     7  57    3.1536   374.8    8.036      27.365
2015   11       30     8   4    3.1580   374.7    8.051      27.390
2015   11       30     8  11    3.1624   374.7    8.065      27.415
2015   11       30     8  17    3.1667   374.6    8.079      27.439
2015   11       30     8  24    3.1711   374.6    8.094      27.464
2015   11       30     8  31    3.1754   374.6    8.108      27.489
2015   11       30     8  38    3.1797   374.5    8.122      27.514
2015   11       30     8  45    3.1840   374.5    8.136      27.538
2015   11       30     8  51    3.1883   374.4    8.150      27.563
2015   11       30     8  58    3.1926   374.4    8.164      27.588
2015   11       30     9   5    3.1968   374.4    8.178      27.613
2015   11       30     9  12    3.2010   374.3    8.192      27.637
2015   11       30     9  19    3.2053   374.3    8.205      27.662
2015   11       30     9  25    3.2096   374.2    8.219      27.686
2015   11       30     9  32    3.2138   374.2    8.233      27.711
2015   11       30     9  39    3.2180   374.2    8.247      27.735
2015   11       30     9  46    3.2222   374.1    8.260      27.760
2015   11       30     9  53    3.2265   374.1    8.274      27.784
2015   11       30    10   0    3.2307   374.1    8.287      27.809
2015   11       30    10   6    3.2349   374.0    8.301      27.834
2015   11       30    10  13    3.2391   374.0    8.314      27.858
2015   11       30    10  20    3.2434   374.0    8.328      27.883
2015   11       30    10  27    3.2476   374.0    8.341      27.908
2015   11       30    10  34    3.2518   373.9    8.354      27.933
2015   11       30    10  40    3.2560   373.9    8.367      27.958
2015   11       30    10  47    3.2602   373.9    8.380      27.984
2015   11       30    10  54    3.2645   373.9    8.393      28.009
2015   11       30    11   1    3.2687   373.8    8.406      28.035
2015   11       30    11   8    3.2728   373.8    8.419      28.061
2015   11       30    11  15    3.2770   373.8    8.431      28.087
2015   11       30    11  21    3.2812   373.8    8.444      28.113
2015   11       30    11  28    3.2854   373.7    8.456      28.140
2015   11       30    11  35    3.2896   373.7    8.468      28.166
2015   11       30    11  42    3.2937   373.7    8.480      28.192
2015   11       30    11  49    3.2978   373.7    8.492      28.219
2015   11       30    11  55    3.3020   373.7    8.504      28.245
2015   11       30    12   2    3.3061   373.6    8.516      28.272
2015   11       30    12   9    3.3103   373.6    8.528      28.298
2015   11       30    12  16    3.3145   373.6    8.540      28.325
2015   11       30    12  23    3.3186   373.6    8.552      28.351
2015   11       30    12  30    3.3227   373.6    8.563      28.377
2015   11       30    12  36    3.3269   373.6    8.575      28.404
2015   11       30    12  43    3.3310   373.5    8.587      28.430
2015   11       30    12  50    3.3352   373.5    8.599      28.456
2015   11       30    12  57    3.3393   373.5    8.611      28.482
2015   11       30    13   4    3.3435   373.5    8.623      28.508
2015   11       30    13  10    3.3477   373.5    8.635      28.534
2015   11       30    13  17    3.3520   373.5    8.648      28.561
2015   11       30    13  24    3.3562   373.5    8.660      28.587
2015   11       30    13  31    3.3604   373.5    8.672      28.613
2015   11       30    13  38    3.3647   373.5    8.685      28.640
2015   11       30    13  44    3.3690   373.5    8.697      28.668
2015   11       30    13  51    3.3732   373.4    8.710      28.696
2015   11       30    13  58    3.3776   373.4    8.722      28.725
2015   11       30    14   5    3.3818   373.4    8.735      28.754
2015   11       30    14  12    3.3861   373.5    8.747      28.784
2015   11       30    14  19    3.3904   373.5    8.759      28.815
2015   11       30    14  25    3.3946   373.5    8.771      28.845
2015   11       30    14  32    3.3988   373.5    8.783      28.876
2015   11       30    14  39    3.4030   373.5    8.794      28.907
2015   11       30    14  46    3.4072   373.5    8.805      28.939
2015   11       30    14  53    3.4113   373.5    8.816      28.970
2015   11       30    14  59    3.4154   373.5    8.827      29.001
2015   11       30    15   6    3.4195   373.5    8.838      29.032
2015   11       30    15  13    3.4235   373.5    8.848      29.063
2015   11       30    15  20    3.4275   373.5    8.858      29.094
2015   11       30    15  27    3.4314   373.5    8.868      29.125
2015   11       30    15  33    3.4353   373.5    8.877      29.154
2015   11       30    15  40    3.4392   373.6    8.886      29.184
2015   11       30    15  47    3.4430   373.6    8.895      29.213
2015   11       30    15  54    3.4468   373.6    8.904      29.242
2015   11       30    16   1    3.4506   373.6    8.913      29.270
2015   11       30    16   8    3.4543   373.6    8.921      29.299
2015   11       30    16  14    3.4580   373.6    8.929      29.327
2015   11       30    16  21    3.4617   373.6    8.937      29.354
2015   11       30    16  28    3.4653   373.7    8.944      29.381
2015   11       30    16  35    3.4689   373.7    8.952      29.408
2015   11       30    16  42    3.4725   373.7    8.959      29.435
2015   11       30    16  48    3.4761   373.7    8.966      29.461
2015   11       30    16  55    3.4796   373.7    8.973      29.487
2015   11       30    17   2    3.4831   373.7    8.979      29.512
2015   11       30    17   9    3.4866   373.7    8.986      29.538
2015   11       30    17  16    3.4900   373.8    8.992      29.562
2015   11       30    17  23    3.4935   373.8    8.999      29.587
2015   11       30    17  29    3.4969   373.8    9.005      29.611
2015   11       30    17  36    3.5003   373.8    9.011      29.634
2015   11       30    17  43    3.5036   373.8    9.016      29.657
2015   11       30    17  50    3.5070   373.8    9.022      29.680
2015   11       30    17  57    3.5103   373.9    9.028      29.703
2015   11       30    18   3    3.5136   373.9    9.033      29.725
2015   11       30    18  10    3.5169   373.9    9.039      29.747
2015   11       30    18  17    3.5201   373.9    9.044      29.768
2015   11       30    18  24    3.5233   373.9    9.049      29.789
2015   11       30    18  31    3.5266   373.9    9.054      29.810
2015   11       30    18  38    3.5298   374.0    9.059      29.831
2015   11       30    18  44    3.5330   374.0    9.064      29.851
2015   11       30    18  51    3.5361   374.0    9.069      29.871
2015   11       30    18  58    3.5393   374.0    9.074      29.891
2015   11       30    19   5    3.5424   374.0    9.079      29.911
2015   11       30    19  12    3.5456   374.0    9.084      29.930
2015   11       30    19  18    3.5487   374.1    9.089      29.950
2015   11       30    19  25    3.5518   374.1    9.094      29.969
2015   11       30    19  32    3.5549   374.1    9.098      29.988
2015   11       30    19  39    3.5580   374.1    9.103      30.006
2015   11       30    19  46    3.5611   374.1    9.108      30.025
2015   11       30    19  52    3.5641   374.1    9.113      30.044
2015   11       30    19  59    3.5672   374.2    9.118      30.062
2015   11       30    20   6    3.5703   374.2    9.123      30.081
2015   11       30    20  13    3.5734   374.2    9.128      30.099
2015   11       30    20  20    3.5764   374.2    9.133      30.117
2015   11       30    20  27    3.5795   374.2    9.139      30.136
2015   11       30    20  33    3.5826   374.3    9.144      30.154
2015   11       30    20  40    3.5857   374.3    9.150      30.172
2015   11       30    20  47    3.5888   374.3    9.156      30.191
2015   11       30    20  54    3.5918   374.3    9.161      30.210
2015   11       30    21   1    3.5949   374.4    9.167      30.229
2015   11       30    21   7    3.5980   374.4    9.173      30.250
2015   11       30    21  14    3.6011   374.4    9.179      30.270
2015   11       30    21  21    3.6042   374.4    9.185      30.291
2015   11       30    21  28    3.6072   374.5    9.191      30.313
2015   11       30    21  35    3.6103   374.5    9.196      30.335
2015   11       30    21  41    3.6133   374.5    9.202      30.358
2015   11       30    21  48    3.6163   374.6    9.208      30.381
2015   11       30    21  55    3.6192   374.6    9.213      30.404
2015   11       30    22   2    3.6221   374.6    9.218      30.427
2015   11       30    22   9    3.6250   374.7    9.224      30.450
2015   11       30    22  16    3.6279   374.7    9.229      30.474
2015   11       30    22  22    3.6307   374.7    9.233      30.497
2015   11       30    22  29    3.6335   374.8    9.238      30.521
2015   11       30    22  36    3.6363   374.8    9.243      30.544
2015   11       30    22  43    3.6390   374.8    9.247      30.567
2015   11       30    22  50    3.6417   374.9    9.252      30.589
2015   11       30    22  56    3.6444   374.9    9.256      30.612
2015   11       30    23   3    3.6470   374.9    9.260      30.634
2015   11       30    23  10    3.6496   375.0    9.265      30.656
2015   11       30    23  17    3.6523   375.0    9.269      30.678
2015   11       30    23  24    3.6549   375.1    9.273      30.699
2015   11       30    23  31    3.6575   375.1    9.277      30.721
2015   11       30    23  37    3.6600   375.1    9.281      30.742
2015   11       30    23  44    3.6626   375.2    9.286      30.763
2015   11       30    23  51    3.6652   375.2    9.290      30.784
2015   11       30    23  58    3.6677   375.2    9.294      30.806
2015   12        1     0   5    3.6702   375.3    9.298      30.828
2015   12        1     0  11    3.6726   375.3    9.302      30.851
2015   12        1     0  18    3.6752   375.4    9.306      30.873
2015   12        1     0  25    3.6777   375.4    9.310      30.896
2015   12        1     0  32    3.6801   375.4    9.313      30.919
2015   12        1     0  39    3.6826   375.5    9.317      30.942
2015   12        1     0  46    3.6850   375.5    9.320      30.966
2015   12        1     0  52    3.6873   375.6    9.323      30.989
2015   12        1     0  59    3.6895   375.6    9.326      31.012
2015   12        1     1   6    3.6919   375.7    9.329      31.034
2015   12        1     1  13    3.6942   375.7    9.331      31.057
2015   12        1     1  20    3.6964   375.8    9.333      31.079
2015   12        1     1  26    3.6985   375.8    9.335      31.102
2015   12        1     1  33    3.7008   375.8    9.337      31.123
2015   12        1     1  40    3.7029   375.9    9.338      31.144
2015   12        1     1  47    3.7050   375.9    9.339      31.165
2015   12        1     1  54    3.7070   376.0    9.341      31.184
2015   12        1     2   0    3.7090   376.0    9.341      31.204
2015   12        1     2   7    3.7110   376.1    9.342      31.223
2015   12        1     2  14    3.7130   376.1    9.343      31.242
2015   12        1     2  21    3.7149   376.1    9.343      31.260
2015   12        1     2  28    3.7169   376.2    9.343      31.277
2015   12        1     2  35    3.7188   376.2    9.343      31.295
2015   12        1     2  41    3.7206   376.3    9.343      31.312
2015   12        1     2  48    3.7225   376.3    9.343      31.328
2015   12        1     2  55    3.7243   376.4    9.343      31.345
2015   12        1     3   2    3.7260   376.4    9.342      31.360
2015   12        1     3   9    3.7279   376.4    9.342      31.376
2015   12        1     3  15    3.7297   376.5    9.341      31.391
2015   12        1     3  22    3.7314   376.5    9.341      31.406
2015   12        1     3  29    3.7331   376.6    9.340      31.421
2015   12        1     3  36    3.7348   376.6    9.339      31.435
2015   12        1     3  43    3.7365   376.6    9.338      31.449
2015   12        1     3  49    3.7382   376.7    9.337      31.463
2015   12        1     3  56    3.7398   376.7    9.336      31.476
2015   12        1     4   3    3.7414   376.8    9.335      31.489
2015   12        1     4  10    3.7430   376.8    9.334      31.502
2015   12        1     4  17    3.7446   376.8    9.333      31.515
2015   12        1     4  24    3.7462   376.9    9.332      31.527
2015   12        1     4  30    3.7477   376.9    9.331      31.539
2015   12        1     4  37    3.7492   377.0    9.329      31.551
2015   12        1     4  44    3.7508   377.0    9.328      31.563
2015   12        1     4  51    3.7522   377.0    9.327      31.574
2015   12        1     4  58    3.7537   377.1    9.325      31.586
2015   12        1     5   4    3.7552   377.1    9.324      31.597
2015   12        1     5  11    3.7566   377.2    9.323      31.608
2015   12        1     5  18    3.7580   377.2    9.321      31.619
2015   12        1     5  25    3.7594   377.2    9.320      31.629
2015   12        1     5  32    3.7607   377.3    9.319      31.640
2015   12        1     5  39    3.7622   377.3    9.318      31.650
2015   12        1     5  45    3.7635   377.3    9.316      31.661
2015   12        1     5  52    3.7649   377.4    9.315      31.671
2015   12        1     5  59    3.7662   377.4    9.314      31.681
2015   12        1     6   6    3.7676   377.5    9.313      31.691
2015   12        1     6  13    3.7689   377.5    9.312      31.701
2015   12        1     6  19    3.7702   377.5    9.311      31.710
2015   12        1     6  26    3.7715   377.6    9.310      31.720
2015   12        1     6  33    3.7728   377.6    9.310      31.730
2015   12        1     6  40    3.7741   377.6    9.309      31.739
2015   12        1     6  47    3.7754   377.7    9.309      31.749
2015   12        1     6  53    3.7766   377.7    9.308      31.759
2015   12        1     7   0    3.7779   377.7    9.308      31.769
2015   12        1     7   7    3.7792   377.8    9.308      31.779
2015   12        1     7  14    3.7804   377.8    9.307      31.790
2015   12        1     7  21    3.7817   377.9    9.307      31.801
2015   12        1     7  28    3.7829   377.9    9.307      31.812
2015   12        1     7  34    3.7842   377.9    9.307      31.824
2015   12        1     7  41    3.7854   378.0    9.306      31.837
2015   12        1     7  48    3.7866   378.0    9.306      31.849
2015   12        1     7  55    3.7878   378.1    9.305      31.862
2015   12        1     8   2    3.7889   378.1    9.305      31.875
2015   12        1     8   8    3.7900   378.1    9.304      31.888
2015   12        1     8  15    3.7911   378.2    9.303      31.901
2015   12        1     8  22    3.7922   378.2    9.302      31.914
2015   12        1     8  29    3.7932   378.3    9.300      31.927
2015   12        1     8  36    3.7943   378.3    9.298      31.939
2015   12        1     8  43    3.7952   378.3    9.297      31.952
2015   12        1     8  49    3.7962   378.4    9.295      31.964
2015   12        1     8  56    3.7971   378.4    9.292      31.975
2015   12        1     9   3    3.7980   378.5    9.290      31.986
2015   12        1     9  10    3.7989   378.5    9.287      31.997
2015   12        1     9  17    3.7998   378.5    9.285      32.008
2015   12        1     9  23    3.8006   378.6    9.282      32.018
2015   12        1     9  30    3.8015   378.6    9.279      32.027
2015   12        1     9  37    3.8023   378.6    9.276      32.036
2015   12        1     9  44    3.8030   378.7    9.273      32.045
2015   12        1     9  51    3.8038   378.7    9.269      32.054
2015   12        1     9  58    3.8046   378.8    9.266      32.062
2015   12        1    10   4    3.8053   378.8    9.262      32.069
2015   12        1    10  11    3.8060   378.8    9.259      32.077
2015   12        1    10  18    3.8068   378.9    9.255      32.084
2015   12        1    10  25    3.8075   378.9    9.251      32.091
2015   12        1    10  32    3.8081   378.9    9.247      32.097
2015   12        1    10  38    3.8088   378.9    9.243      32.103
2015   12        1    10  45    3.8095   379.0    9.239      32.109
2015   12        1    10  52    3.8102   379.0    9.235      32.115
2015   12        1    10  59    3.8108   379.0    9.231      32.120
2015   12        1    11   6    3.8115   379.1    9.227      32.125
2015   12        1    11  12    3.8121   379.1    9.222      32.130
2015   12        1    11  19    3.8128   379.1    9.218      32.134
2015   12        1    11  26    3.8134   379.2    9.213      32.138
2015   12        1    11  33    3.8140   379.2    9.209      32.142
2015   12        1    11  40    3.8146   379.2    9.205      32.146
2015   12        1    11  47    3.8152   379.2    9.200      32.149
2015   12        1    11  53    3.8159   379.3    9.196      32.152
2015   12        1    12   0    3.8165   379.3    9.191      32.154
2015   12        1    12   7    3.8171   379.3    9.186      32.156
2015   12        1    12  14    3.8177   379.3    9.182      32.158
2015   12        1    12  21    3.8182   379.4    9.177      32.159
2015   12        1    12  27    3.8188   379.4    9.172      32.160
2015   12        1    12  34    3.8193   379.4    9.167      32.160
2015   12        1    12  41    3.8199   379.4    9.162      32.160
2015   12        1    12  48    3.8204   379.5    9.157      32.160
2015   12        1    12  55    3.8209   379.5    9.152      32.159
2015   12        1    13   1    3.8214   379.5    9.147      32.158
2015   12        1    13   8    3.8218   379.5    9.142      32.156
2015   12        1    13  15    3.8223   379.6    9.137      32.154
2015   12        1    13  22    3.8227   379.6    9.131      32.152
2015   12        1    13  29    3.8230   379.6    9.126      32.149
2015   12        1    13  36    3.8235   379.6    9.121      32.146
2015   12        1    13  42    3.8239   379.6    9.115      32.142
2015   12        1    13  49    3.8242   379.7    9.109      32.139
2015   12        1    13  56    3.8245   379.7    9.104      32.135
2015   12        1    14   3    3.8248   379.7    9.098      32.130
2015   12        1    14  10    3.8251   379.7    9.092      32.126
2015   12        1    14  16    3.8254   379.7    9.086      32.121
2015   12        1    14  23    3.8257   379.8    9.080      32.115
2015   12        1    14  30    3.8259   379.8    9.074      32.110
2015   12        1    14  37    3.8262   379.8    9.068      32.104
2015   12        1    14  44    3.8264   379.8    9.061      32.098
2015   12        1    14  51    3.8266   379.8    9.055      32.092
2015   12        1    14  57    3.8268   379.9    9.049      32.085
2015   12        1    15   4    3.8270   379.9    9.043      32.078
2015   12        1    15  11    3.8272   379.9    9.036      32.071
2015   12        1    15  18    3.8274   379.9    9.030      32.064
2015   12        1    15  25    3.8275   379.9    9.023      32.057
2015   12        1    15  31    3.8277   379.9    9.017      32.049
2015   12        1    15  38    3.8278   379.9    9.010      32.041
2015   12        1    15  45    3.8280   379.9    9.004      32.033
2015   12        1    15  52    3.8280   380.0    8.997      32.025
2015   12        1    15  59    3.8282   380.0    8.990      32.016
2015   12        1    16   5    3.8283   380.0    8.984      32.008
2015   12        1    16  12    3.8285   380.0    8.977      31.999
2015   12        1    16  19    3.8286   380.0    8.970      31.990
2015   12        1    16  26    3.8287   380.0    8.964      31.981
2015   12        1    16  33    3.8288   380.0    8.957      31.971
2015   12        1    16  40    3.8289   380.0    8.950      31.961
2015   12        1    16  46    3.8291   380.0    8.943      31.951
2015   12        1    16  53    3.8292   380.0    8.936      31.941
2015   12        1    17   0    3.8293   380.0    8.930      31.931
2015   12        1    17   7    3.8294   380.0    8.923      31.921
2015   12        1    17  14    3.8295   380.0    8.916      31.910
2015   12        1    17  20    3.8296   380.0    8.909      31.899
2015   12        1    17  27    3.8298   380.1    8.902      31.887
2015   12        1    17  34    3.8299   380.1    8.896      31.876
2015   12        1    17  41    3.8300   380.1    8.889      31.864
2015   12        1    17  48    3.8302   380.1    8.882      31.853
2015   12        1    17  55    3.8303   380.1    8.875      31.841
2015   12        1    18   1    3.8304   380.1    8.869      31.829
2015   12        1    18   8    3.8307   380.1    8.862      31.817
2015   12        1    18  15    3.8309   380.1    8.856      31.804
2015   12        1    18  22    3.8310   380.1    8.849      31.792
2015   12        1    18  29    3.8312   380.0    8.843      31.779
2015   12        1    18  35    3.8315   380.0    8.836      31.767
2015   12        1    18  42    3.8317   380.0    8.830      31.754
2015   12        1    18  49    3.8319   380.0    8.824      31.741
2015   12        1    18  56    3.8322   380.0    8.818      31.728
2015   12        1    19   3    3.8324   380.0    8.812      31.715
2015   12        1    19   9    3.8327   380.0    8.806      31.702
2015   12        1    19  16    3.8329   380.0    8.800      31.689
2015   12        1    19  23    3.8332   380.0    8.794      31.676
2015   12        1    19  30    3.8335   380.0    8.789      31.662
2015   12        1    19  37    3.8337   380.0    8.783      31.649
2015   12        1    19  44    3.8340   380.0    8.778      31.635
2015   12        1    19  50    3.8342   380.0    8.773      31.621
2015   12        1    19  57    3.8345   380.0    8.767      31.607
2015   12        1    20   4    3.8348   380.0    8.762      31.593
2015   12        1    20  11    3.8350   380.0    8.757      31.579
2015   12        1    20  18    3.8353   380.0    8.752      31.564
2015   12        1    20  24    3.8355   380.0    8.747      31.550
2015   12        1    20  31    3.8357   380.0    8.743      31.535
2015   12        1    20  38    3.8359   380.0    8.738      31.520
2015   12        1    20  45    3.8361   379.9    8.733      31.505
2015   12        1    20  52    3.8363   379.9    8.729      31.490
2015   12        1    20  58    3.8365   379.9    8.724      31.475
2015   12        1    21   5    3.8366   379.9    8.720      31.460
2015   12        1    21  12    3.8367   379.9    8.716      31.444
2015   12        1    21  19    3.8369   379.9    8.711      31.429
2015   12        1    21  26    3.8370   379.9    8.707      31.413
2015   12        1    21  33    3.8371   379.9    8.703      31.398
2015   12        1    21  39    3.8372   379.9    8.699      31.382
2015   12        1    21  46    3.8373   379.9    8.695      31.366
2015   12        1    21  53    3.8374   379.9    8.692      31.350
2015   12        1    22   0    3.8375   379.8    8.688      31.334
2015   12        1    22   7    3.8376   379.8    8.684      31.318
2015   12        1    22  13    3.8377   379.8    8.681      31.302
2015   12        1    22  20    3.8378   379.8    8.677      31.286
2015   12        1    22  27    3.8379   379.8    8.674      31.270
2015   12        1    22  34    3.8380   379.8    8.671      31.254
2015   12        1    22  41    3.8381   379.8    8.668      31.238
2015   12        1    22  48    3.8382   379.7    8.665      31.222
2015   12        1    22  54    3.8384   379.7    8.662      31.206
2015   12        1    23   1    3.8385   379.7    8.659      31.191
2015   12        1    23   8    3.8387   379.7    8.656      31.175
2015   12        1    23  15    3.8389   379.7    8.653      31.159
2015   12        1    23  22    3.8390   379.7    8.650      31.144
2015   12        1    23  28    3.8392   379.6    8.648      31.128
2015   12        1    23  35    3.8394   379.6    8.645      31.113
2015   12        1    23  42    3.8397   379.6    8.642      31.099
2015   12        1    23  49    3.8399   379.6    8.640      31.084
2015   12        1    23  56    3.8402   379.6    8.637      31.070
2015   12        2     0   2    3.8404   379.6    8.634      31.056
2015   12        2     0   9    3.8407   379.5    8.632      31.042
2015   12        2     0  16    3.8410   379.5    8.629      31.028
2015   12        2     0  23    3.8414   379.5    8.626      31.015
2015   12        2     0  30    3.8417   379.5    8.624      31.001
2015   12        2     0  37    3.8421   379.4    8.621      30.988
2015   12        2     0  43    3.8425   379.4    8.618      30.975
2015   12        2     0  50    3.8429   379.4    8.616      30.962
2015   12        2     0  57    3.8434   379.4    8.613      30.949
2015   12        2     1   4    3.8439   379.3    8.610      30.936
2015   12        2     1  11    3.8444   379.3    8.608      30.924
2015   12        2     1  17    3.8449   379.3    8.605      30.911
2015   12        2     1  24    3.8455   379.3    8.602      30.898
2015   12        2     1  31    3.8460   379.3    8.600      30.886
2015   12        2     1  38    3.8466   379.2    8.597      30.873
2015   12        2     1  45    3.8473   379.2    8.595      30.860
2015   12        2     1  52    3.8479   379.2    8.592      30.848
2015   12        2     1  58    3.8486   379.2    8.590      30.836
2015   12        2     2   5    3.8494   379.1    8.588      30.824
2015   12        2     2  12    3.8501   379.1    8.586      30.812
2015   12        2     2  19    3.8509   379.1    8.584      30.800
2015   12        2     2  26    3.8517   379.1    8.582      30.788
2015   12        2     2  32    3.8525   379.0    8.580      30.777
2015   12        2     2  39    3.8534   379.0    8.578      30.766
2015   12        2     2  46    3.8543   379.0    8.576      30.755
2015   12        2     2  53    3.8552   379.0    8.575      30.744
2015   12        2     3   0    3.8561   378.9    8.574      30.733
2015   12        2     3   6    3.8571   378.9    8.572      30.723
2015   12        2     3  13    3.8581   378.9    8.571      30.713
2015   12        2     3  20    3.8591   378.9    8.570      30.703
2015   12        2     3  27    3.8602   378.8    8.570      30.693
2015   12        2     3  34    3.8612   378.8    8.569      30.683
2015   12        2     3  41    3.8623   378.8    8.569      30.674
2015   12        2     3  47    3.8634   378.8    8.568      30.665
2015   12        2     3  54    3.8645   378.7    8.568      30.656
2015   12        2     4   1    3.8656   378.7    8.568      30.647
2015   12        2     4   8    3.8668   378.7    8.568      30.638
2015   12        2     4  15    3.8680   378.7    8.569      30.629
2015   12        2     4  21    3.8692   378.6    8.569      30.621
2015   12        2     4  28    3.8704   378.6    8.570      30.613
2015   12        2     4  35    3.8717   378.6    8.571      30.604
2015   12        2     4  42    3.8730   378.6    8.572      30.596
2015   12        2     4  49    3.8743   378.5    8.573      30.588
2015   12        2     4  55    3.8756   378.5    8.574      30.580
2015   12        2     5   2    3.8770   378.5    8.575      30.572
2015   12        2     5   9    3.8783   378.5    8.577      30.564
2015   12        2     5  16    3.8797   378.4    8.579      30.557
2015   12        2     5  23    3.8812   378.4    8.581      30.549
2015   12        2     5  30    3.8827   378.4    8.583      30.542
2015   12        2     5  36    3.8841   378.4    8.585      30.535
2015   12        2     5  43    3.8856   378.3    8.588      30.527
2015   12        2     5  50    3.8871   378.3    8.590      30.520
2015   12        2     5  57    3.8886   378.3    8.593      30.514
2015   12        2     6   4    3.8902   378.3    8.596      30.507
2015   12        2     6  10    3.8918   378.2    8.599      30.500
2015   12        2     6  17    3.8934   378.2    8.603      30.494
2015   12        2     6  24    3.8950   378.2    8.606      30.488
2015   12        2     6  31    3.8967   378.2    8.610      30.482
2015   12        2     6  38    3.8984   378.1    8.613      30.477
2015   12        2     6  45    3.9002   378.1    8.617      30.472
2015   12        2     6  51    3.9019   378.1    8.621      30.468
2015   12        2     6  58    3.9037   378.1    8.625      30.463
2015   12        2     7   5    3.9055   378.0    8.629      30.460
2015   12        2     7  12    3.9074   378.0    8.633      30.457
2015   12        2     7  19    3.9093   378.0    8.637      30.454
2015   12        2     7  25    3.9113   377.9    8.641      30.452
2015   12        2     7  32    3.9132   377.9    8.646      30.450
2015   12        2     7  39    3.9153   377.9    8.650      30.449
2015   12        2     7  46    3.9173   377.9    8.654      30.448
2015   12        2     7  53    3.9194   377.8    8.659      30.447
2015   12        2     7  59    3.9215   377.8    8.663      30.447
2015   12        2     8   6    3.9237   377.8    8.668      30.447
2015   12        2     8  13    3.9259   377.7    8.672      30.447
2015   12        2     8  20    3.9282   377.7    8.677      30.448
2015   12        2     8  27    3.9305   377.7    8.681      30.449
2015   12        2     8  34    3.9329   377.7    8.686      30.451
2015   12        2     8  40    3.9353   377.6    8.690      30.452
2015   12        2     8  47    3.9378   377.6    8.695      30.454
2015   12        2     8  54    3.9403   377.6    8.700      30.456
2015   12        2     9   1    3.9428   377.5    8.705      30.459
2015   12        2     9   8    3.9455   377.5    8.709      30.462
2015   12        2     9  14    3.9481   377.5    8.714      30.465
2015   12        2     9  21    3.9508   377.4    8.719      30.469
2015   12        2     9  28    3.9536   377.4    8.724      30.472
2015   12        2     9  35    3.9564   377.4    8.730      30.477
2015   12        2     9  42    3.9593   377.4    8.735      30.481
2015   12        2     9  49    3.9622   377.3    8.740      30.486
2015   12        2     9  55    3.9652   377.3    8.746      30.491
2015   12        2    10   2    3.9683   377.3    8.751      30.497
2015   12        2    10   9    3.9714   377.2    8.757      30.503
2015   12        2    10  16    3.9746   377.2    8.763      30.509
2015   12        2    10  23    3.9779   377.2    8.769      30.516
2015   12        2    10  29    3.9812   377.2    8.775      30.523
2015   12        2    10  36    3.9846   377.1    8.781      30.530
2015   12        2    10  43    3.9880   377.1    8.788      30.538
2015   12        2    10  50    3.9915   377.1    8.794      30.546
2015   12        2    10  57    3.9951   377.1    8.801      30.555
2015   12        2    11   3    3.9988   377.0    8.808      30.563
2015   12        2    11  10    4.0025   377.0    8.815      30.573
2015   12        2    11  17    4.0063   377.0    8.822      30.582
2015   12        2    11  24    4.0102   377.0    8.830      30.592
2015   12        2    11  31    4.0142   376.9    8.837      30.602
2015   12        2    11  38    4.0182   376.9    8.845      30.613
2015   12        2    11  44    4.0224   376.9    8.853      30.624
2015   12        2    11  51    4.0266   376.9    8.862      30.635
2015   12        2    11  58    4.0309   376.9    8.870      30.647
2015   12        2    12   5    4.0353   376.9    8.879      30.660
2015   12        2    12  12    4.0398   376.8    8.889      30.672
2015   12        2    12  18    4.0444   376.8    8.898      30.685
2015   12        2    12  25    4.0491   376.8    8.908      30.699
2015   12        2    12  32    4.0539   376.8    8.918      30.713
2015   12        2    12  39    4.0588   376.8    8.929      30.727
2015   12        2    12  46    4.0641   376.8    8.940      30.742
2015   12        2    12  53    4.0689   376.8    8.951      30.758
2015   12        2    12  59    4.0740   376.8    8.963      30.774
2015   12        2    13   6    4.0792   376.8    8.976      30.790
2015   12        2    13  13    4.0845   376.8    8.988      30.808
2015   12        2    13  20    4.0898   376.8    9.001      30.826
2015   12        2    13  27    4.0952   376.8    9.015      30.846
2015   12        2    13  33    4.1010   376.8    9.028      30.868
2015   12        2    13  40    4.1064   376.8    9.042      30.891
2015   12        2    13  47    4.1116   376.8    9.056      30.916
2015   12        2    13  54    4.1171   376.8    9.070      30.942
2015   12        2    14   1    4.1226   376.8    9.084      30.969
2015   12        2    14   7    4.1282   376.9    9.098      30.997
2015   12        2    14  14    4.1337   376.9    9.112      31.026
2015   12        2    14  21    4.1393   376.9    9.126      31.056
2015   12        2    14  28    4.1449   376.9    9.140      31.087
2015   12        2    14  35    4.1505   377.0    9.154      31.119
2015   12        2    14  42    4.1565   377.0    9.168      31.151
2015   12        2    14  48    4.1617   377.0    9.182      31.184
2015   12        2    14  55    4.1674   377.1    9.196      31.217
2015   12        2    15   2    4.1734   377.1    9.210      31.250
2015   12        2    15   9    4.1788   377.1    9.224      31.283
2015   12        2    15  16    4.1844   377.2    9.237      31.317
2015   12        2    15  22    4.1902   377.2    9.251      31.351
2015   12        2    15  29    4.1958   377.3    9.264      31.386
2015   12        2    15  36    4.2016   377.3    9.278      31.421
2015   12        2    15  43    4.2073   377.4    9.291      31.457
2015   12        2    15  50    4.2131   377.4    9.304      31.493
2015   12        2    15  56    4.2189   377.4    9.317      31.529
2015   12        2    16   3    4.2247   377.5    9.330      31.566
2015   12        2    16  10    4.2305   377.5    9.343      31.603
2015   12        2    16  17    4.2363   377.6    9.356      31.640
2015   12        2    16  24    4.2422   377.7    9.369      31.678
2015   12        2    16  31    4.2481   377.7    9.381      31.716
2015   12        2    16  37    4.2539   377.8    9.394      31.754
2015   12        2    16  44    4.2599   377.8    9.406      31.793
2015   12        2    16  51    4.2658   377.9    9.418      31.831
2015   12        2    16  58    4.2717   377.9    9.430      31.869
2015   12        2    17   5    4.2777   378.0    9.443      31.907
2015   12        2    17  11    4.2838   378.0    9.455      31.945
2015   12        2    17  18    4.2898   378.1    9.467      31.984
2015   12        2    17  25    4.2959   378.2    9.479      32.022
2015   12        2    17  32    4.3020   378.2    9.491      32.060
2015   12        2    17  39    4.3082   378.3    9.503      32.099
2015   12        2    17  46    4.3144   378.3    9.516      32.137
2015   12        2    17  52    4.3206   378.4    9.528      32.176
2015   12        2    17  59    4.3269   378.5    9.540      32.214
2015   12        2    18   6    4.3336   378.5    9.553      32.253
2015   12        2    18  13    4.3397   378.6    9.565      32.292
2015   12        2    18  20    4.3461   378.7    9.578      32.332
2015   12        2    18  26    4.3526   378.7    9.591      32.372
2015   12        2    18  33    4.3592   378.8    9.604      32.412
2015   12        2    18  40    4.3658   378.9    9.618      32.452
2015   12        2    18  47    4.3725   378.9    9.632      32.493
2015   12        2    18  54    4.3793   379.0    9.646      32.535
2015   12        2    19   0    4.3862   379.1    9.660      32.577
2015   12        2    19   7    4.3931   379.1    9.675      32.620
2015   12        2    19  14    4.4002   379.2    9.690      32.664
2015   12        2    19  21    4.4074   379.3    9.706      32.709
2015   12        2    19  28    4.4147   379.4    9.722      32.754
2015   12        2    19  35    4.4222   379.4    9.739      32.801
2015   12        2    19  41    4.4297   379.5    9.756      32.849
2015   12        2    19  48    4.4373   379.6    9.774      32.900
2015   12        2    19  55    4.4451   379.7    9.792      32.953
2015   12        2    20   2    4.4528   379.8    9.811      33.008
2015   12        2    20   9    4.4607   379.9    9.830      33.065
2015   12        2    20  15    4.4685   380.0    9.849      33.123
2015   12        2    20  22    4.4764   380.2    9.869      33.183
2015   12        2    20  29    4.4843   380.3    9.889      33.244
2015   12        2    20  36    4.4922   380.4    9.909      33.306
2015   12        2    20  43    4.5000   380.5    9.929      33.369
2015   12        2    20  50    4.5077   380.7    9.948      33.434
2015   12        2    20  56    4.5155   380.8    9.968      33.501
2015   12        2    21   3    4.5231   380.9    9.988      33.569
2015   12        2    21  10    4.5307   381.1   10.007      33.638
2015   12        2    21  17    4.5382   381.2   10.026      33.707
2015   12        2    21  24    4.5456   381.4   10.045      33.776
2015   12        2    21  30    4.5530   381.5   10.064      33.845
2015   12        2    21  37    4.5602   381.7   10.082      33.914
2015   12        2    21  44    4.5675   381.8   10.100      33.983
2015   12        2    21  51    4.5747   382.0   10.118      34.052
2015   12        2    21  58    4.5819   382.1   10.136      34.121
2015   12        2    22   4    4.5890   382.3   10.154      34.191
2015   12        2    22  11    4.5961   382.4   10.172      34.261
2015   12        2    22  18    4.6032   382.6   10.190      34.330
2015   12        2    22  25    4.6102   382.7   10.208      34.399
2015   12        2    22  32    4.6173   382.9   10.226      34.469
2015   12        2    22  39    4.6243   383.1   10.243      34.539
2015   12        2    22  45    4.6314   383.2   10.261      34.610
2015   12        2    22  52    4.6384   383.4   10.279      34.681
2015   12        2    22  59    4.6454   383.6   10.296      34.754
2015   12        2    23   6    4.6524   383.7   10.313      34.827
2015   12        2    23  13    4.6594   383.9   10.331      34.901
2015   12        2    23  19    4.6663   384.1   10.347      34.975
2015   12        2    23  26    4.6733   384.2   10.364      35.050
2015   12        2    23  33    4.6802   384.4   10.381      35.125
2015   12        2    23  40    4.6871   384.6   10.397      35.200
2015   12        2    23  47    4.6940   384.8   10.413      35.276
2015   12        2    23  53    4.7008   385.0   10.428      35.352
2015   12        3     0   0    4.7077   385.1   10.443      35.429
2015   12        3     0   7    4.7145   385.3   10.458      35.506
2015   12        3     0  14    4.7213   385.5   10.472      35.584
2015   12        3     0  21    4.7281   385.7   10.486      35.663
2015   12        3     0  28    4.7349   385.9   10.499      35.742
2015   12        3     0  34    4.7417   386.1   10.512      35.822
2015   12        3     0  41    4.7484   386.3   10.525      35.902
2015   12        3     0  48    4.7552   386.5   10.537      35.983
2015   12        3     0  55    4.7620   386.7   10.548      36.064
2015   12        3     1   2    4.7687   386.9   10.559      36.145
2015   12        3     1   8    4.7754   387.1   10.569      36.226
2015   12        3     1  15    4.7821   387.3   10.580      36.307
2015   12        3     1  22    4.7888   387.5   10.589      36.388
2015   12        3     1  29    4.7955   387.7   10.598      36.468
2015   12        3     1  36    4.8022   387.9   10.607      36.548
2015   12        3     1  42    4.8088   388.1   10.616      36.628
2015   12        3     1  49    4.8155   388.3   10.624      36.707
2015   12        3     1  56    4.8221   388.5   10.632      36.785
2015   12        3     2   3    4.8286   388.8   10.640      36.862
2015   12        3     2  10    4.8352   389.0   10.648      36.939
2015   12        3     2  17    4.8418   389.2   10.655      37.014
2015   12        3     2  23    4.8483   389.4   10.663      37.090
2015   12        3     2  30    4.8549   389.6   10.670      37.164
2015   12        3     2  37    4.8615   389.8   10.678      37.239
2015   12        3     2  44    4.8680   390.0   10.685      37.315
2015   12        3     2  51    4.8745   390.2   10.692      37.391
2015   12        3     2  57    4.8810   390.5   10.699      37.468
2015   12        3     3   4    4.8874   390.7   10.706      37.545
2015   12        3     3  11    4.8938   390.9   10.713      37.624
2015   12        3     3  18    4.9001   391.2   10.720      37.702
2015   12        3     3  25    4.9064   391.4   10.726      37.782
2015   12        3     3  32    4.9126   391.6   10.732      37.861
2015   12        3     3  38    4.9187   391.9   10.738      37.940
2015   12        3     3  45    4.9248   392.1   10.744      38.020
2015   12        3     3  52    4.9307   392.4   10.749      38.100
2015   12        3     3  59    4.9365   392.6   10.753      38.180
2015   12        3     4   6    4.9422   392.9   10.757      38.260
2015   12        3     4  12    4.9478   393.1   10.761      38.339
2015   12        3     4  19    4.9534   393.4   10.765      38.418
2015   12        3     4  26    4.9588   393.6   10.768      38.496
2015   12        3     4  33    4.9641   393.9   10.771      38.574
2015   12        3     4  40    4.9694   394.1   10.773      38.650
2015   12        3     4  46    4.9745   394.4   10.775      38.727
2015   12        3     4  53    4.9797   394.7   10.777      38.802
2015   12        3     5   0    4.9847   394.9   10.779      38.877
2015   12        3     5   7    4.9896   395.2   10.781      38.952
2015   12        3     5  14    4.9945   395.4   10.782      39.026
2015   12        3     5  21    4.9994   395.7   10.784      39.100
2015   12        3     5  27    5.0042   395.9   10.785      39.174
2015   12        3     5  34    5.0090   396.2   10.787      39.247
2015   12        3     5  41    5.0137   396.4   10.788      39.320
2015   12        3     5  48    5.0185   396.7   10.789      39.393
2015   12        3     5  55    5.0232   396.9   10.791      39.466
2015   12        3     6   1    5.0279   397.2   10.793      39.538
2015   12        3     6   8    5.0327   397.4   10.795      39.611
2015   12        3     6  15    5.0374   397.7   10.797      39.684
2015   12        3     6  22    5.0422   397.9   10.799      39.757
2015   12        3     6  29    5.0470   398.2   10.802      39.830
2015   12        3     6  36    5.0519   398.4   10.805      39.903
2015   12        3     6  42    5.0568   398.7   10.808      39.977
2015   12        3     6  49    5.0618   399.0   10.812      40.052
2015   12        3     6  56    5.0669   399.2   10.816      40.128
2015   12        3     7   3    5.0720   399.5   10.821      40.206
2015   12        3     7  10    5.0772   399.7   10.826      40.284
2015   12        3     7  16    5.0824   400.0   10.831      40.364
2015   12        3     7  23    5.0878   400.2   10.837      40.446
2015   12        3     7  30    5.0932   400.5   10.843      40.529
2015   12        3     7  37    5.0987   400.8   10.851      40.612
2015   12        3     7  44    5.1043   401.0   10.859      40.699
2015   12        3     7  50    5.1100   401.3   10.867      40.787
2015   12        3     7  57    5.1158   401.6   10.877      40.878
2015   12        3     8   4    5.1217   401.8   10.888      40.971
2015   12        3     8  11    5.1278   402.1   10.899      41.068
2015   12        3     8  18    5.1340   402.4   10.911      41.170
2015   12        3     8  25    5.1403   402.7   10.924      41.274
2015   12        3     8  31    5.1469   403.0   10.938      41.381
2015   12        3     8  38    5.1535   403.3   10.952      41.493
2015   12        3     8  45    5.1603   403.6   10.967      41.612
2015   12        3     8  52    5.1668   403.9   10.982      41.734
2015   12        3     8  59    5.1738   404.3   10.996      41.860
2015   12        3     9   5    5.1806   404.6   11.010      41.989
2015   12        3     9  12    5.1872   405.0   11.023      42.120
2015   12        3     9  19    5.1937   405.3   11.035      42.252
2015   12        3     9  26    5.2000   405.7   11.046      42.384
2015   12        3     9  33    5.2058   406.1   11.056      42.514
2015   12        3     9  39    5.2118   406.4   11.064      42.644
2015   12        3     9  46    5.2173   406.8   11.070      42.771
2015   12        3     9  53    5.2224   407.2   11.074      42.897
2015   12        3    10   0    5.2270   407.6   11.077      43.019
2015   12        3    10   7    5.2316   408.0   11.078      43.136
2015   12        3    10  14    5.2357   408.3   11.077      43.248
2015   12        3    10  20    5.2395   408.7   11.075      43.357
2015   12        3    10  27    5.2430   409.1   11.072      43.462
2015   12        3    10  34    5.2463   409.5   11.067      43.563
2015   12        3    10  41    5.2492   409.8   11.061      43.660
2015   12        3    10  48    5.2520   410.2   11.054      43.755
2015   12        3    10  54    5.2546   410.6   11.046      43.846
2015   12        3    11   1    5.2570   410.9   11.037      43.935
2015   12        3    11   8    5.2593   411.3   11.028      44.021
2015   12        3    11  15    5.2614   411.7   11.018      44.105
2015   12        3    11  22    5.2634   412.0   11.007      44.187
2015   12        3    11  29    5.2654   412.4   10.996      44.267
2015   12        3    11  35    5.2672   412.7   10.985      44.346
2015   12        3    11  42    5.2690   413.1   10.973      44.423
2015   12        3    11  49    5.2708   413.4   10.961      44.499
2015   12        3    11  56    5.2725   413.8   10.948      44.574
2015   12        3    12   3    5.2741   414.1   10.935      44.648
2015   12        3    12   9    5.2757   414.5   10.922      44.721
2015   12        3    12  16    5.2773   414.8   10.909      44.793
2015   12        3    12  23    5.2789   415.2   10.896      44.864
2015   12        3    12  30    5.2804   415.5   10.882      44.935
2015   12        3    12  37    5.2820   415.9   10.868      45.005
2015   12        3    12  43    5.2835   416.2   10.854      45.075
2015   12        3    12  50    5.2850   416.6   10.840      45.143
2015   12        3    12  57    5.2864   416.9   10.826      45.212
2015   12        3    13   4    5.2879   417.3   10.812      45.279
2015   12        3    13  11    5.2893   417.6   10.798      45.347
2015   12        3    13  18    5.2907   418.0   10.783      45.413
2015   12        3    13  24    5.2921   418.3   10.769      45.480
2015   12        3    13  31    5.2935   418.7   10.755      45.546
2015   12        3    13  38    5.2949   419.0   10.740      45.611
2015   12        3    13  45    5.2963   419.4   10.726      45.676
2015   12        3    13  52    5.2977   419.7   10.712      45.741
2015   12        3    13  58    5.2991   420.1   10.698      45.806
2015   12        3    14   5    5.3005   420.4   10.685      45.870
2015   12        3    14  12    5.3019   420.7   10.671      45.934
2015   12        3    14  19    5.3034   421.1   10.658      45.999
2015   12        3    14  26    5.3050   421.4   10.645      46.063
2015   12        3    14  32    5.3067   421.8   10.633      46.128
2015   12        3    14  39    5.3085   422.1   10.621      46.192
2015   12        3    14  46    5.3103   422.5   10.610      46.258
2015   12        3    14  53    5.3123   422.8   10.599      46.324
2015   12        3    15   0    5.3143   423.2   10.589      46.392
2015   12        3    15   7    5.3165   423.5   10.580      46.462
2015   12        3    15  13    5.3188   423.9   10.571      46.532
2015   12        3    15  20    5.3210   424.2   10.563      46.602
2015   12        3    15  27    5.3236   424.6   10.555      46.675
2015   12        3    15  34    5.3262   425.0   10.548      46.749
2015   12        3    15  41    5.3289   425.3   10.542      46.826
2015   12        3    15  47    5.3316   425.7   10.536      46.904
2015   12        3    15  54    5.3343   426.0   10.531      46.984
2015   12        3    16   1    5.3372   426.4   10.526      47.064
2015   12        3    16   8    5.3400   426.8   10.522      47.148
2015   12        3    16  15    5.3430   427.2   10.518      47.235
2015   12        3    16  21    5.3459   427.5   10.514      47.324
2015   12        3    16  28    5.3488   427.9   10.510      47.415
2015   12        3    16  35    5.3515   428.3   10.506      47.508
2015   12        3    16  42    5.3542   428.7   10.501      47.603
2015   12        3    16  49    5.3567   429.2   10.495      47.699
2015   12        3    16  56    5.3591   429.6   10.489      47.795
2015   12        3    17   2    5.3613   430.0   10.482      47.890
2015   12        3    17   9    5.3633   430.4   10.474      47.984
2015   12        3    17  16    5.3651   430.8   10.465      48.077
2015   12        3    17  23    5.3666   431.3   10.455      48.170
2015   12        3    17  30    5.3679   431.7   10.444      48.260
2015   12        3    17  36    5.3689   432.2   10.431      48.347
2015   12        3    17  43    5.3697   432.6   10.418      48.432
2015   12        3    17  50    5.3703   433.0   10.403      48.513
2015   12        3    17  57    5.3707   433.5   10.388      48.592
2015   12        3    18   4    5.3709   433.9   10.372      48.668
2015   12        3    18  11    5.3709   434.4   10.355      48.742
2015   12        3    18  17    5.3703   434.8   10.337      48.814
2015   12        3    18  24    5.3704   435.3   10.318      48.884
2015   12        3    18  31    5.3700   435.7   10.299      48.953
2015   12        3    18  38    5.3691   436.2   10.279      49.021
2015   12        3    18  45    5.3689   436.7   10.259      49.088
2015   12        3    18  51    5.3677   437.1   10.238      49.153
2015   12        3    18  58    5.3673   437.6   10.217      49.217
2015   12        3    19   5    5.3659   438.0   10.194      49.281
2015   12        3    19  12    5.3648   438.5   10.172      49.343
2015   12        3    19  19    5.3639   439.0   10.148      49.403
2015   12        3    19  25    5.3621   439.4   10.123      49.461
2015   12        3    19  32    5.3609   439.9   10.098      49.518
2015   12        3    19  39    5.3586   440.3   10.071      49.573
2015   12        3    19  46    5.3565   440.8   10.044      49.624
2015   12        3    19  53    5.3542   441.2   10.015      49.670
2015   12        3    20   0    5.3520   441.7    9.986      49.712
2015   12        3    20   6    5.3493   442.1    9.957      49.751
2015   12        3    20  13    5.3464   442.5    9.928      49.787
2015   12        3    20  20    5.3434   442.9    9.898      49.821
2015   12        3    20  27    5.3403   443.4    9.868      49.852
2015   12        3    20  34    5.3371   443.8    9.839      49.882
2015   12        3    20  40    5.3339   444.2    9.809      49.912
2015   12        3    20  47    5.3303   444.6    9.780      49.941
2015   12        3    20  54    5.3271   445.0    9.752      49.969
2015   12        3    21   1    5.3240   445.3    9.725      49.997
2015   12        3    21   8    5.3209   445.7    9.698      50.025
2015   12        3    21  15    5.3180   446.1    9.672      50.056
2015   12        3    21  21    5.3156   446.5    9.646      50.089
2015   12        3    21  28    5.3128   446.9    9.621      50.124
2015   12        3    21  35    5.3100   447.3    9.596      50.160
2015   12        3    21  42    5.3072   447.7    9.571      50.198
2015   12        3    21  49    5.3038   448.1    9.547      50.236
2015   12        3    21  55    5.3016   448.5    9.522      50.273
2015   12        3    22   2    5.2986   448.9    9.498      50.311
2015   12        3    22   9    5.2951   449.3    9.473      50.348
2015   12        3    22  16    5.2926   449.8    9.448      50.385
2015   12        3    22  23    5.2894   450.2    9.423      50.421
2015   12        3    22  29    5.2860   450.6    9.397      50.457
2015   12        3    22  36    5.2826   451.0    9.371      50.490
2015   12        3    22  43    5.2790   451.4    9.345      50.522
2015   12        3    22  50    5.2753   451.8    9.319      50.552
2015   12        3    22  57    5.2708   452.3    9.292      50.580
2015   12        3    23   4    5.2668   452.7    9.266      50.608
2015   12        3    23  10    5.2633   453.1    9.239      50.634
2015   12        3    23  17    5.2592   453.5    9.212      50.659
2015   12        3    23  24    5.2548   453.9    9.184      50.684
2015   12        3    23  31    5.2505   454.4    9.157      50.707
2015   12        3    23  38    5.2460   454.8    9.130      50.731
2015   12        3    23  44    5.2415   455.2    9.103      50.754
2015   12        3    23  51    5.2369   455.6    9.075      50.776
2015   12        3    23  58    5.2322   456.1    9.048      50.798
2015   12        4     0   5    5.2268   456.5    9.020      50.819
2015   12        4     0  12    5.2227   456.9    8.992      50.839
2015   12        4     0  18    5.2178   457.3    8.964      50.858
2015   12        4     0  25    5.2128   457.8    8.936      50.876
2015   12        4     0  32    5.2070   458.2    8.907      50.891
2015   12        4     0  39    5.2017   458.6    8.878      50.904
2015   12        4     0  46    5.1964   459.0    8.849      50.914
2015   12        4     0  53    5.1910   459.4    8.821      50.922
2015   12        4     0  59    5.1862   459.8    8.792      50.929
2015   12        4     1   6    5.1807   460.2    8.763      50.933
2015   12        4     1  13    5.1744   460.6    8.735      50.937
2015   12        4     1  20    5.1688   461.0    8.707      50.939
2015   12        4     1  27    5.1632   461.4    8.680      50.941
2015   12        4     1  33    5.1583   461.8    8.652      50.943
2015   12        4     1  40    5.1520   462.2    8.625      50.945
2015   12        4     1  47    5.1463   462.6    8.598      50.946
2015   12        4     1  54    5.1413   463.0    8.571      50.948
2015   12        4     2   1    5.1357   463.4    8.545      50.951
2015   12        4     2   8    5.1292   463.8    8.518      50.954
2015   12        4     2  14    5.1235   464.3    8.491      50.957
2015   12        4     2  21    5.1175   464.7    8.464      50.960
2015   12        4     2  28    5.1121   465.1    8.436      50.962
2015   12        4     2  35    5.1058   465.6    8.408      50.963
2015   12        4     2  42    5.0987   466.0    8.379      50.961
2015   12        4     2  48    5.0926   466.4    8.349      50.957
2015   12        4     2  55    5.0850   466.9    8.319      50.951
2015   12        4     3   2    5.0778   467.3    8.287      50.943
2015   12        4     3   9    5.0709   467.8    8.254      50.927
2015   12        4     3  16    5.0625   468.2    8.221      50.906
2015   12        4     3  22    5.0551   468.6    8.187      50.880
2015   12        4     3  29    5.0464   469.0    8.153      50.849
2015   12        4     3  36    5.0388   469.4    8.119      50.813
2015   12        4     3  43    5.0298   469.7    8.085      50.774
2015   12        4     3  50    5.0221   470.1    8.051      50.732
2015   12        4     3  57    5.0132   470.4    8.017      50.689
2015   12        4     4   3    5.0054   470.8    7.984      50.645
2015   12        4     4  10    4.9966   471.2    7.951      50.600
2015   12        4     4  17    4.9889   471.5    7.920      50.554
2015   12        4     4  24    4.9802   471.8    7.889      50.508
2015   12        4     4  31    4.9727   472.2    7.859      50.464
2015   12        4     4  37    4.9643   472.5    7.829      50.423
2015   12        4     4  44    4.9570   472.9    7.801      50.384
2015   12        4     4  51    4.9488   473.2    7.773      50.348
2015   12        4     4  58    4.9417   473.5    7.745      50.313
2015   12        4     5   5    4.9341   473.9    7.718      50.279
2015   12        4     5  11    4.9261   474.2    7.692      50.245
2015   12        4     5  18    4.9189   474.6    7.665      50.213
2015   12        4     5  25    4.9114   474.9    7.639      50.181
2015   12        4     5  32    4.9038   475.3    7.613      50.149
2015   12        4     5  39    4.8963   475.6    7.588      50.116
2015   12        4     5  46    4.8887   475.9    7.562      50.083
2015   12        4     5  52    4.8811   476.3    7.537      50.049
2015   12        4     5  59    4.8732   476.6    7.511      50.015
2015   12        4     6   6    4.8660   476.9    7.486      49.980
2015   12        4     6  13    4.8584   477.2    7.461      49.944
2015   12        4     6  20    4.8506   477.6    7.436      49.909
2015   12        4     6  26    4.8430   477.9    7.412      49.874
2015   12        4     6  33    4.8355   478.2    7.387      49.838
2015   12        4     6  40    4.8283   478.5    7.362      49.802
2015   12        4     6  47    4.8208   478.8    7.338      49.766
2015   12        4     6  54    4.8132   479.2    7.313      49.730
2015   12        4     7   0    4.8057   479.5    7.289      49.694
2015   12        4     7   7    4.7982   479.8    7.264      49.656
2015   12        4     7  14    4.7906   480.1    7.240      49.618
2015   12        4     7  21    4.7830   480.4    7.215      49.578
2015   12        4     7  28    4.7753   480.8    7.190      49.537
2015   12        4     7  35    4.7676   481.1    7.165      49.494
2015   12        4     7  41    4.7598   481.4    7.140      49.447
2015   12        4     7  48    4.7520   481.7    7.115      49.398
2015   12        4     7  55    4.7441   481.9    7.090      49.348
2015   12        4     8   2    4.7363   482.2    7.065      49.296
2015   12        4     8   9    4.7284   482.5    7.041      49.243
2015   12        4     8  15    4.7206   482.7    7.017      49.190
2015   12        4     8  22    4.7129   483.0    6.994      49.136
2015   12        4     8  29    4.7052   483.2    6.971      49.083
2015   12        4     8  36    4.6976   483.5    6.948      49.031
2015   12        4     8  43    4.6900   483.7    6.926      48.980
2015   12        4     8  50    4.6826   483.9    6.905      48.929
2015   12        4     8  56    4.6752   484.2    6.884      48.878
2015   12        4     9   3    4.6678   484.4    6.864      48.829
2015   12        4     9  10    4.6605   484.6    6.844      48.782
2015   12        4     9  17    4.6533   484.9    6.825      48.735
2015   12        4     9  24    4.6461   485.1    6.806      48.690
2015   12        4     9  30    4.6388   485.3    6.787      48.645
2015   12        4     9  37    4.6316   485.6    6.769      48.600
2015   12        4     9  44    4.6244   485.8    6.751      48.556
2015   12        4     9  51    4.6172   486.0    6.733      48.513
2015   12        4     9  58    4.6101   486.2    6.716      48.469
2015   12        4    10   4    4.6029   486.4    6.698      48.427
2015   12        4    10  11    4.5958   486.6    6.682      48.385
2015   12        4    10  18    4.5888   486.8    6.665      48.343
2015   12        4    10  25    4.5819   487.0    6.649      48.303
2015   12        4    10  32    4.5751   487.2    6.633      48.263
2015   12        4    10  39    4.5683   487.4    6.618      48.224
2015   12        4    10  45    4.5617   487.5    6.602      48.186
2015   12        4    10  52    4.5552   487.7    6.588      48.149
2015   12        4    10  59    4.5488   487.9    6.573      48.113
2015   12        4    11   6    4.5426   488.0    6.559      48.078
2015   12        4    11  13    4.5364   488.2    6.545      48.044
2015   12        4    11  19    4.5304   488.3    6.532      48.011
2015   12        4    11  26    4.5244   488.5    6.519      47.979
2015   12        4    11  33    4.5185   488.7    6.506      47.948
2015   12        4    11  40    4.5127   488.8    6.493      47.919
2015   12        4    11  47    4.5069   489.0    6.480      47.892
2015   12        4    11  53    4.5011   489.2    6.468      47.865
2015   12        4    12   0    4.4954   489.4    6.456      47.838
2015   12        4    12   7    4.4897   489.6    6.443      47.812
2015   12        4    12  14    4.4840   489.8    6.431      47.786
2015   12        4    12  21    4.4782   490.0    6.418      47.760
2015   12        4    12  28    4.4725   490.2    6.406      47.733
2015   12        4    12  34    4.4669   490.3    6.394      47.706
2015   12        4    12  41    4.4609   490.5    6.381      47.679
2015   12        4    12  48    4.4550   490.7    6.368      47.651
2015   12        4    12  55    4.4492   490.9    6.356      47.623
2015   12        4    13   2    4.4433   491.1    6.343      47.593
2015   12        4    13   8    4.4374   491.3    6.330      47.563
2015   12        4    13  15    4.4316   491.4    6.318      47.533
2015   12        4    13  22    4.4257   491.6    6.305      47.502
2015   12        4    13  29    4.4202   491.8    6.293      47.471
2015   12        4    13  36    4.4141   491.9    6.280      47.440
2015   12        4    13  43    4.4084   492.1    6.268      47.408
2015   12        4    13  49    4.4027   492.2    6.256      47.377
2015   12        4    13  56    4.3971   492.4    6.244      47.346
2015   12        4    14   3    4.3915   492.5    6.232      47.316
2015   12        4    14  10    4.3860   492.7    6.221      47.285
2015   12        4    14  17    4.3806   492.8    6.209      47.254
2015   12        4    14  23    4.3752   492.9    6.198      47.224
2015   12        4    14  30    4.3700   493.1    6.187      47.194
2015   12        4    14  37    4.3650   493.2    6.176      47.164
2015   12        4    14  44    4.3598   493.3    6.165      47.135
2015   12        4    14  51    4.3547   493.4    6.155      47.107
2015   12        4    14  57    4.3494   493.6    6.144      47.079
2015   12        4    15   4    4.3444   493.7    6.134      47.052
2015   12        4    15  11    4.3395   493.8    6.124      47.026
2015   12        4    15  18    4.3346   494.0    6.114      47.000
2015   12        4    15  25    4.3297   494.1    6.104      46.975
2015   12        4    15  32    4.3249   494.2    6.094      46.950
2015   12        4    15  38    4.3201   494.4    6.085      46.925
2015   12        4    15  45    4.3153   494.5    6.075      46.901
2015   12        4    15  52    4.3106   494.6    6.066      46.877
2015   12        4    15  59    4.3059   494.8    6.057      46.852
2015   12        4    16   6    4.3011   494.9    6.048      46.828
2015   12        4    16  12    4.2965   495.0    6.039      46.804
2015   12        4    16  19    4.2918   495.2    6.030      46.780
2015   12        4    16  26    4.2871   495.3    6.021      46.756
2015   12        4    16  33    4.2825   495.4    6.012      46.731
2015   12        4    16  40    4.2782   495.5    6.003      46.707
2015   12        4    16  46    4.2733   495.7    5.995      46.683
2015   12        4    16  53    4.2688   495.8    5.986      46.659
2015   12        4    17   0    4.2643   495.9    5.978      46.635
2015   12        4    17   7    4.2599   496.0    5.970      46.612
2015   12        4    17  14    4.2554   496.1    5.961      46.589
2015   12        4    17  21    4.2511   496.3    5.953      46.567
2015   12        4    17  27    4.2468   496.4    5.945      46.545
2015   12        4    17  34    4.2425   496.5    5.937      46.523
2015   12        4    17  41    4.2383   496.6    5.930      46.502
2015   12        4    17  48    4.2341   496.7    5.922      46.481
2015   12        4    17  55    4.2300   496.8    5.914      46.461
2015   12        4    18   1    4.2259   496.9    5.907      46.441
2015   12        4    18   8    4.2218   497.1    5.899      46.422
2015   12        4    18  15    4.2177   497.2    5.891      46.403
2015   12        4    18  22    4.2137   497.3    5.884      46.384
2015   12        4    18  29    4.2097   497.4    5.877      46.365
2015   12        4    18  36    4.2058   497.5    5.869      46.347
2015   12        4    18  42    4.2021   497.6    5.862      46.329
2015   12        4    18  49    4.1979   497.7    5.855      46.311
2015   12        4    18  56    4.1940   497.8    5.848      46.294
2015   12        4    19   3    4.1901   497.9    5.840      46.276
2015   12        4    19  10    4.1864   498.0    5.833      46.259
2015   12        4    19  16    4.1823   498.1    5.826      46.242
2015   12        4    19  23    4.1784   498.3    5.819      46.224
2015   12        4    19  30    4.1746   498.4    5.812      46.207
2015   12        4    19  37    4.1710   498.5    5.805      46.190
2015   12        4    19  44    4.1672   498.6    5.798      46.172
2015   12        4    19  50    4.1634   498.7    5.791      46.155
2015   12        4    19  57    4.1596   498.8    5.784      46.137
2015   12        4    20   4    4.1558   498.9    5.777      46.120
2015   12        4    20  11    4.1521   499.0    5.770      46.102
2015   12        4    20  18    4.1484   499.1    5.764      46.084
2015   12        4    20  25    4.1447   499.2    5.757      46.066
2015   12        4    20  31    4.1410   499.3    5.750      46.049
2015   12        4    20  38    4.1373   499.4    5.743      46.031
2015   12        4    20  45    4.1337   499.5    5.737      46.013
2015   12        4    20  52    4.1301   499.6    5.730      45.995
2015   12        4    20  59    4.1265   499.7    5.724      45.977
2015   12        4    21   5    4.1229   499.8    5.717      45.960
2015   12        4    21  12    4.1194   499.8    5.711      45.942
2015   12        4    21  19    4.1159   499.9    5.704      45.924
2015   12        4    21  26    4.1124   500.0    5.698      45.906
2015   12        4    21  33    4.1089   500.1    5.692      45.889
2015   12        4    21  39    4.1055   500.2    5.686      45.871
2015   12        4    21  46    4.1021   500.3    5.679      45.854
2015   12        4    21  53    4.0987   500.4    5.673      45.836
2015   12        4    22   0    4.0953   500.5    5.667      45.819
2015   12        4    22   7    4.0919   500.6    5.661      45.802
2015   12        4    22  14    4.0886   500.6    5.655      45.785
2015   12        4    22  20    4.0853   500.7    5.650      45.768
2015   12        4    22  27    4.0820   500.8    5.644      45.751
2015   12        4    22  34    4.0787   500.9    5.638      45.734
2015   12        4    22  41    4.0755   501.0    5.632      45.717
2015   12        4    22  48    4.0722   501.0    5.627      45.700
2015   12        4    22  54    4.0690   501.1    5.621      45.684
2015   12        4    23   1    4.0658   501.2    5.616      45.667
2015   12        4    23   8    4.0627   501.3    5.610      45.651
2015   12        4    23  15    4.0595   501.3    5.605      45.635
2015   12        4    23  22    4.0564   501.4    5.599      45.618
2015   12        4    23  28    4.0533   501.5    5.594      45.602
2015   12        4    23  35    4.0502   501.6    5.589      45.586
2015   12        4    23  42    4.0471   501.6    5.584      45.570
2015   12        4    23  49    4.0441   501.7    5.578      45.554
2015   12        4    23  56    4.0411   501.8    5.573      45.538
2015   12        5     0   3    4.0381   501.9    5.568      45.522
2015   12        5     0   9    4.0349   501.9    5.563      45.506
2015   12        5     0  16    4.0319   502.0    5.558      45.490
2015   12        5     0  23    4.0290   502.1    5.553      45.474
2015   12        5     0  30    4.0261   502.1    5.548      45.459
2015   12        5     0  37    4.0232   502.2    5.543      45.443
2015   12        5     0  43    4.0204   502.3    5.538      45.428
2015   12        5     0  50    4.0175   502.3    5.533      45.412
2015   12        5     0  57    4.0147   502.4    5.529      45.397
2015   12        5     1   4    4.0119   502.4    5.524      45.381
2015   12        5     1  11    4.0092   502.5    5.519      45.366
2015   12        5     1  18    4.0064   502.6    5.514      45.351
2015   12        5     1  24    4.0037   502.6    5.510      45.336
2015   12        5     1  31    4.0010   502.7    5.505      45.321
2015   12        5     1  38    3.9983   502.8    5.501      45.306
2015   12        5     1  45    3.9956   502.8    5.496      45.291
2015   12        5     1  52    3.9930   502.9    5.492      45.276
2015   12        5     1  58    3.9903   502.9    5.487      45.261
2015   12        5     2   5    3.9877   503.0    5.483      45.247
2015   12        5     2  12    3.9851   503.1    5.479      45.232
2015   12        5     2  19    3.9825   503.1    5.474      45.218
2015   12        5     2  26    3.9800   503.2    5.470      45.203
2015   12        5     2  32    3.9774   503.2    5.466      45.189
2015   12        5     2  39    3.9750   503.3    5.461      45.175
2015   12        5     2  46    3.9723   503.3    5.457      45.160
2015   12        5     2  53    3.9698   503.4    5.453      45.146
2015   12        5     3   0    3.9673   503.4    5.449      45.132
2015   12        5     3   7    3.9648   503.5    5.445      45.118
2015   12        5     3  13    3.9623   503.6    5.441      45.104
2015   12        5     3  20    3.9599   503.6    5.437      45.090
2015   12        5     3  27    3.9574   503.7    5.433      45.077
2015   12        5     3  34    3.9550   503.7    5.429      45.063
2015   12        5     3  41    3.9526   503.8    5.425      45.049
2015   12        5     3  47    3.9502   503.8    5.421      45.035
2015   12        5     3  54    3.9478   503.9    5.417      45.022
2015   12        5     4   1    3.9454   503.9    5.414      45.008
2015   12        5     4   8    3.9430   504.0    5.410      44.995
2015   12        5     4  15    3.9407   504.0    5.406      44.982
2015   12        5     4  21    3.9384   504.1    5.402      44.968
2015   12        5     4  28    3.9361   504.1    5.399      44.955
2015   12        5     4  35    3.9338   504.1    5.395      44.942
2015   12        5     4  42    3.9316   504.2    5.392      44.929
2015   12        5     4  49    3.9292   504.2    5.388      44.916
2015   12        5     4  56    3.9270   504.3    5.385      44.903
2015   12        5     5   2    3.9248   504.3    5.381      44.889
2015   12        5     5   9    3.9226   504.4    5.378      44.876
2015   12        5     5  16    3.9204   504.4    5.374      44.863
2015   12        5     5  23    3.9182   504.5    5.371      44.850
2015   12        5     5  30    3.9160   504.5    5.367      44.837
2015   12        5     5  36    3.9139   504.5    5.364      44.824
2015   12        5     5  43    3.9117   504.6    5.361      44.811
2015   12        5     5  50    3.9096   504.6    5.357      44.798
2015   12        5     5  57    3.9075   504.6    5.354      44.785
2015   12        5     6   4    3.9054   504.7    5.351      44.772
2015   12        5     6  11    3.9033   504.7    5.348      44.759
2015   12        5     6  17    3.9013   504.8    5.345      44.746
2015   12        5     6  24    3.8992   504.8    5.341      44.733
2015   12        5     6  31    3.8972   504.8    5.338      44.719
2015   12        5     6  38    3.8952   504.9    5.335      44.706
2015   12        5     6  45    3.8932   504.9    5.332      44.693
2015   12        5     6  51    3.8912   504.9    5.329      44.680
2015   12        5     6  58    3.8893   505.0    5.326      44.666
2015   12        5     7   5    3.8873   505.0    5.323      44.653
2015   12        5     7  12    3.8855   505.0    5.320      44.639
2015   12        5     7  19    3.8836   505.0    5.317      44.626
2015   12        5     7  25    3.8816   505.1    5.314      44.613
2015   12        5     7  32    3.8797   505.1    5.311      44.599
2015   12        5     7  39    3.8778   505.1    5.308      44.586
2015   12        5     7  46    3.8760   505.2    5.305      44.572
2015   12        5     7  53    3.8741   505.2    5.302      44.558
2015   12        5     8   0    3.8723   505.2    5.299      44.545
2015   12        5     8   6    3.8706   505.2    5.296      44.531
2015   12        5     8  13    3.8687   505.3    5.294      44.517
2015   12        5     8  20    3.8669   505.3    5.291      44.504
2015   12        5     8  27    3.8652   505.3    5.288      44.490
2015   12        5     8  34    3.8633   505.3    5.285      44.477
2015   12        5     8  40    3.8616   505.4    5.282      44.463
2015   12        5     8  47    3.8599   505.4    5.280      44.450
2015   12        5     8  54    3.8581   505.4    5.277      44.436
2015   12        5     9   1    3.8564   505.4    5.274      44.423
2015   12        5     9   8    3.8547   505.5    5.272      44.410
2015   12        5     9  14    3.8532   505.5    5.269      44.397
2015   12        5     9  21    3.8514   505.5    5.267      44.384
2015   12        5     9  28    3.8497   505.5    5.264      44.371
2015   12        5     9  35    3.8481   505.5    5.262      44.358
2015   12        5     9  42    3.8465   505.6    5.259      44.345
2015   12        5     9  49    3.8449   505.6    5.257      44.333
2015   12        5     9  55    3.8433   505.6    5.254      44.320
2015   12        5    10   2    3.8417   505.6    5.252      44.308
2015   12        5    10   9    3.8401   505.6    5.250      44.296
2015   12        5    10  16    3.8386   505.7    5.248      44.284
2015   12        5    10  23    3.8371   505.7    5.245      44.273
2015   12        5    10  29    3.8355   505.7    5.243      44.261
2015   12        5    10  36    3.8340   505.7    5.241      44.250
2015   12        5    10  43    3.8325   505.7    5.239      44.239
2015   12        5    10  50    3.8311   505.8    5.237      44.228
2015   12        5    10  57    3.8296   505.8    5.235      44.218
2015   12        5    11   3    3.8283   505.8    5.233      44.207
2015   12        5    11  10    3.8267   505.8    5.231      44.197
2015   12        5    11  17    3.8253   505.8    5.229      44.187
2015   12        5    11  24    3.8239   505.8    5.227      44.177
2015   12        5    11  31    3.8226   505.9    5.225      44.167
2015   12        5    11  38    3.8212   505.9    5.223      44.157
2015   12        5    11  44    3.8198   505.9    5.222      44.148
2015   12        5    11  51    3.8185   505.9    5.220      44.139
2015   12        5    11  58    3.8172   505.9    5.218      44.129
2015   12        5    12   5    3.8160   505.9    5.216      44.120
2015   12        5    12  12    3.8146   505.9    5.215      44.111
2015   12        5    12  18    3.8133   505.9    5.213      44.102
2015   12        5    12  25    3.8120   506.0    5.211      44.093
2015   12        5    12  32    3.8108   506.0    5.210      44.084
2015   12        5    12  39    3.8095   506.0    5.208      44.075
2015   12        5    12  46    3.8083   506.0    5.206      44.066
2015   12        5    12  53    3.8072   506.0    5.205      44.057
2015   12        5    12  59    3.8059   506.0    5.203      44.049
2015   12        5    13   6    3.8047   506.0    5.202      44.040
2015   12        5    13  13    3.8035   506.0    5.200      44.031
2015   12        5    13  20    3.8024   506.0    5.198      44.022
2015   12        5    13  27    3.8012   506.1    5.197      44.013
2015   12        5    13  33    3.8001   506.1    5.195      44.004
2015   12        5    13  40    3.7990   506.1    5.194      43.995
2015   12        5    13  47    3.7978   506.1    5.192      43.986
2015   12        5    13  54    3.7967   506.1    5.191      43.977
2015   12        5    14   1    3.7956   506.1    5.189      43.968
2015   12        5    14   7    3.7946   506.1    5.188      43.959
2015   12        5    14  14    3.7935   506.1    5.186      43.950
2015   12        5    14  21    3.7924   506.1    5.185      43.941
2015   12        5    14  28    3.7914   506.1    5.183      43.932
2015   12        5    14  35    3.7903   506.1    5.182      43.922
2015   12        5    14  42    3.7893   506.1    5.181      43.913
2015   12        5    14  48    3.7883   506.1    5.179      43.904
2015   12        5    14  55    3.7874   506.1    5.178      43.895
2015   12        5    15   2    3.7864   506.1    5.176      43.885
2015   12        5    15   9    3.7854   506.1    5.175      43.876
2015   12        5    15  16    3.7843   506.2    5.174      43.867
2015   12        5    15  22    3.7834   506.2    5.172      43.857
2015   12        5    15  29    3.7823   506.2    5.171      43.848
2015   12        5    15  36    3.7815   506.2    5.170      43.839
2015   12        5    15  43    3.7805   506.2    5.168      43.830
2015   12        5    15  50    3.7795   506.2    5.167      43.821
2015   12        5    15  57    3.7786   506.2    5.166      43.811
2015   12        5    16   3    3.7777   506.2    5.165      43.802
2015   12        5    16  10    3.7768   506.2    5.164      43.793
2015   12        5    16  17    3.7760   506.2    5.162      43.784
2015   12        5    16  24    3.7750   506.2    5.161      43.775
2015   12        5    16  31    3.7742   506.2    5.160      43.767
2015   12        5    16  37    3.7733   506.2    5.159      43.758
2015   12        5    16  44    3.7725   506.2    5.158      43.749
2015   12        5    16  51    3.7717   506.2    5.157      43.741
2015   12        5    16  58    3.7708   506.2    5.156      43.733
2015   12        5    17   5    3.7700   506.2    5.155      43.724
2015   12        5    17  11    3.7692   506.2    5.154      43.716
2015   12        5    17  18    3.7685   506.2    5.153      43.708
2015   12        5    17  25    3.7678   506.2    5.152      43.700
2015   12        5    17  32    3.7670   506.2    5.151      43.693
2015   12        5    17  39    3.7663   506.2    5.150      43.685
2015   12        5    17  46    3.7656   506.2    5.149      43.678
2015   12        5    17  52    3.7649   506.2    5.149      43.671
2015   12        5    17  59    3.7642   506.2    5.148      43.664
2015   12        5    18   6    3.7634   506.2    5.147      43.657
2015   12        5    18  13    3.7628   506.2    5.146      43.650
2015   12        5    18  20    3.7621   506.2    5.145      43.644
2015   12        5    18  26    3.7615   506.2    5.145      43.637
2015   12        5    18  33    3.7609   506.2    5.144      43.631
2015   12        5    18  40    3.7603   506.2    5.143      43.625
2015   12        5    18  47    3.7597   506.2    5.143      43.619
2015   12        5    18  54    3.7591   506.2    5.142      43.613
2015   12        5    19   0    3.7586   506.2    5.141      43.608
2015   12        5    19   7    3.7581   506.2    5.141      43.603
2015   12        5    19  14    3.7576   506.2    5.140      43.597
2015   12        5    19  21    3.7570   506.2    5.140      43.592
2015   12        5    19  28    3.7566   506.2    5.139      43.587
2015   12        5    19  35    3.7561   506.2    5.139      43.583
2015   12        5    19  41    3.7556   506.1    5.138      43.578
2015   12        5    19  48    3.7552   506.1    5.138      43.574
2015   12        5    19  55    3.7547   506.1    5.137      43.569
2015   12        5    20   2    3.7542   506.1    5.137      43.565
2015   12        5    20   9    3.7538   506.1    5.136      43.561
2015   12        5    20  15    3.7534   506.1    5.136      43.556
2015   12        5    20  22    3.7530   506.1    5.135      43.552
2015   12        5    20  29    3.7527   506.1    5.135      43.548
2015   12        5    20  36    3.7522   506.1    5.134      43.544
2015   12        5    20  43    3.7519   506.1    5.134      43.541
2015   12        5    20  49    3.7515   506.1    5.134      43.537
2015   12        5    20  56    3.7511   506.1    5.133      43.533
2015   12        5    21   3    3.7508   506.1    5.133      43.529
2015   12        5    21  10    3.7504   506.1    5.133      43.525
2015   12        5    21  17    3.7501   506.1    5.132      43.522
2015   12        5    21  24    3.7497   506.1    5.132      43.518
2015   12        5    21  30    3.7494   506.1    5.131      43.514
2015   12        5    21  37    3.7491   506.1    5.131      43.511
2015   12        5    21  44    3.7487   506.1    5.131      43.507
2015   12        5    21  51    3.7484   506.1    5.131      43.503
2015   12        5    21  58    3.7481   506.1    5.130      43.499
2015   12        5    22   4    3.7477   506.1    5.130      43.496
2015   12        5    22  11    3.7474   506.1    5.130      43.492
2015   12        5    22  18    3.7471   506.1    5.129      43.489
2015   12        5    22  25    3.7468   506.1    5.129      43.485
2015   12        5    22  32    3.7465   506.1    5.129      43.482
2015   12        5    22  39    3.7462   506.1    5.129      43.478
2015   12        5    22  45    3.7459   506.0    5.129      43.475
2015   12        5    22  52    3.7456   506.0    5.128      43.472
2015   12        5    22  59    3.7454   506.0    5.128      43.469
2015   12        5    23   6    3.7451   506.0    5.128      43.465
2015   12        5    23  13    3.7448   506.0    5.128      43.462
2015   12        5    23  19    3.7445   506.0    5.128      43.459
2015   12        5    23  26    3.7443   506.0    5.128      43.457
2015   12        5    23  33    3.7440   506.0    5.128      43.454
2015   12        5    23  40    3.7438   506.0    5.128      43.451
2015   12        5    23  47    3.7436   506.0    5.128      43.449
2015   12        5    23  53    3.7434   506.0    5.128      43.447
2015   12        6     0   0    3.7432   506.0    5.128      43.444
2015   12        6     0   7    3.7430   506.0    5.128      43.442
2015   12        6     0  14    3.7428   506.0    5.128      43.440
2015   12        6     0  21    3.7427   506.0    5.128      43.438
2015   12        6     0  28    3.7425   506.0    5.128      43.436
2015   12        6     0  34    3.7424   506.0    5.128      43.434
2015   12        6     0  41    3.7423   506.0    5.128      43.433
2015   12        6     0  48    3.7422   506.0    5.129      43.431
2015   12        6     0  55    3.7421   506.0    5.129      43.430
2015   12        6     1   2    3.7420   506.0    5.129      43.428
2015   12        6     1   8    3.7419   506.0    5.129      43.427
2015   12        6     1  15    3.7419   506.0    5.129      43.426
2015   12        6     1  22    3.7419   506.0    5.129      43.424
2015   12        6     1  29    3.7418   506.0    5.130      43.423
2015   12        6     1  36    3.7418   505.9    5.130      43.422
2015   12        6     1  42    3.7419   505.9    5.130      43.421
2015   12        6     1  49    3.7419   505.9    5.130      43.420
2015   12        6     1  56    3.7419   505.9    5.130      43.420
2015   12        6     2   3    3.7420   505.9    5.131      43.419
2015   12        6     2  10    3.7421   505.9    5.131      43.419
2015   12        6     2  17    3.7422   505.9    5.131      43.418
2015   12        6     2  23    3.7423   505.9    5.132      43.418
2015   12        6     2  30    3.7424   505.9    5.132      43.418
2015   12        6     2  37    3.7425   505.9    5.132      43.419
2015   12        6     2  44    3.7427   505.9    5.133      43.419
2015   12        6     2  51    3.7428   505.9    5.133      43.420
2015   12        6     2  57    3.7430   505.9    5.133      43.420
2015   12        6     3   4    3.7432   505.9    5.134      43.422
2015   12        6     3  11    3.7434   505.9    5.134      43.423
2015   12        6     3  18    3.7436   505.9    5.135      43.425
2015   12        6     3  25    3.7439   505.9    5.135      43.426
2015   12        6     3  31    3.7441   505.9    5.136      43.428
2015   12        6     3  38    3.7444   505.9    5.137      43.431
2015   12        6     3  45    3.7447   505.9    5.137      43.433
2015   12        6     3  52    3.7449   505.9    5.138      43.436
2015   12        6     3  59    3.7452   505.9    5.139      43.439
2015   12        6     4   6    3.7455   505.9    5.139      43.443
2015   12        6     4  12    3.7457   505.9    5.140      43.446
2015   12        6     4  19    3.7460   505.9    5.141      43.450
2015   12        6     4  26    3.7462   505.9    5.142      43.454
2015   12        6     4  33    3.7465   505.9    5.142      43.458
2015   12        6     4  40    3.7468   505.9    5.143      43.462
2015   12        6     4  46    3.7471   505.9    5.144      43.467
2015   12        6     4  53    3.7474   505.9    5.145      43.472
2015   12        6     5   0    3.7476   505.9    5.146      43.477
2015   12        6     5   7    3.7478   505.9    5.146      43.482
2015   12        6     5  14    3.7481   505.9    5.147      43.487
2015   12        6     5  21    3.7484   505.9    5.148      43.492
2015   12        6     5  27    3.7486   505.9    5.149      43.498
2015   12        6     5  34    3.7488   505.9    5.149      43.503
2015   12        6     5  41    3.7491   505.9    5.150      43.508
2015   12        6     5  48    3.7493   505.9    5.151      43.514
2015   12        6     5  55    3.7496   505.9    5.151      43.519
2015   12        6     6   1    3.7498   506.0    5.152      43.523
2015   12        6     6   8    3.7501   506.0    5.152      43.528
2015   12        6     6  15    3.7504   506.0    5.153      43.533
2015   12        6     6  22    3.7507   506.0    5.154      43.538
2015   12        6     6  29    3.7509   506.0    5.154      43.542
2015   12        6     6  35    3.7513   506.0    5.155      43.547
2015   12        6     6  42    3.7515   506.0    5.155      43.551
2015   12        6     6  49    3.7518   506.0    5.156      43.555
2015   12        6     6  56    3.7522   506.0    5.157      43.560
2015   12        6     7   3    3.7526   506.0    5.157      43.564
2015   12        6     7  10    3.7529   506.0    5.158      43.568
2015   12        6     7  16    3.7533   506.0    5.158      43.572
2015   12        6     7  23    3.7536   506.0    5.159      43.577
2015   12        6     7  30    3.7540   506.0    5.160      43.581
2015   12        6     7  37    3.7545   506.0    5.160      43.586
2015   12        6     7  44    3.7549   506.0    5.161      43.590
2015   12        6     7  50    3.7554   506.0    5.162      43.595
2015   12        6     7  57    3.7559   506.0    5.162      43.599
2015   12        6     8   4    3.7564   506.1    5.163      43.604
2015   12        6     8  11    3.7570   506.1    5.164      43.609
2015   12        6     8  18    3.7576   506.1    5.165      43.614
2015   12        6     8  25    3.7581   506.1    5.166      43.619
2015   12        6     8  31    3.7587   506.1    5.166      43.624
2015   12        6     8  38    3.7593   506.1    5.167      43.630
2015   12        6     8  45    3.7600   506.1    5.168      43.635
2015   12        6     8  52    3.7607   506.1    5.169      43.641
2015   12        6     8  59    3.7613   506.1    5.170      43.647
2015   12        6     9   5    3.7621   506.1    5.171      43.653
2015   12        6     9  12    3.7627   506.1    5.172      43.659
2015   12        6     9  19    3.7635   506.2    5.173      43.665
2015   12        6     9  26    3.7642   506.2    5.175      43.671
2015   12        6     9  33    3.7649   506.2    5.176      43.678
2015   12        6     9  39    3.7658   506.2    5.177      43.685
2015   12        6     9  46    3.7664   506.2    5.178      43.692
2015   12        6     9  53    3.7672   506.2    5.180      43.700
2015   12        6    10   0    3.7680   506.2    5.181      43.708
2015   12        6    10   7    3.7687   506.3    5.182      43.717
2015   12        6    10  14    3.7695   506.3    5.184      43.726
2015   12        6    10  20    3.7703   506.3    5.185      43.735
2015   12        6    10  27    3.7710   506.3    5.186      43.745
2015   12        6    10  34    3.7718   506.3    5.188      43.756
2015   12        6    10  41    3.7727   506.3    5.189      43.767
2015   12        6    10  48    3.7734   506.4    5.190      43.778
2015   12        6    10  54    3.7742   506.4    5.192      43.790
2015   12        6    11   1    3.7749   506.4    5.193      43.802
2015   12        6    11   8    3.7757   506.4    5.194      43.814
2015   12        6    11  15    3.7765   506.4    5.196      43.826
2015   12        6    11  22    3.7772   506.5    5.197      43.838
2015   12        6    11  28    3.7780   506.5    5.199      43.851
2015   12        6    11  35    3.7787   506.5    5.200      43.863
2015   12        6    11  42    3.7795   506.5    5.202      43.876
2015   12        6    11  49    3.7802   506.6    5.203      43.889
2015   12        6    11  56    3.7809   506.6    5.204      43.902
2015   12        6    12   3    3.7817   506.6    5.206      43.916
2015   12        6    12   9    3.7824   506.6    5.207      43.930
2015   12        6    12  16    3.7831   506.7    5.208      43.944
2015   12        6    12  23    3.7838   506.7    5.209      43.958
2015   12        6    12  30    3.7845   506.7    5.211      43.973
2015   12        6    12  37    3.7852   506.7    5.212      43.988
2015   12        6    12  43    3.7859   506.8    5.213      44.002
2015   12        6    12  50    3.7866   506.8    5.214      44.017
2015   12        6    12  57    3.7873   506.8    5.215      44.032
2015   12        6    13   4    3.7880   506.8    5.215      44.046
2015   12        6    13  11    3.7887   506.9    5.216      44.060
2015   12        6    13  18    3.7894   506.9    5.217      44.075
2015   12        6    13  24    3.7902   506.9    5.218      44.088
2015   12        6    13  31    3.7909   507.0    5.219      44.102
2015   12        6    13  38    3.7916   507.0    5.219      44.115
2015   12        6    13  45    3.7924   507.0    5.220      44.129
2015   12        6    13  52    3.7932   507.0    5.221      44.142
2015   12        6    13  58    3.7939   507.1    5.221      44.155
2015   12        6    14   5    3.7947   507.1    5.222      44.168
2015   12        6    14  12    3.7955   507.1    5.223      44.181
2015   12        6    14  19    3.7964   507.2    5.223      44.193
2015   12        6    14  26    3.7972   507.2    5.224      44.206
2015   12        6    14  32    3.7980   507.2    5.225      44.219
2015   12        6    14  39    3.7989   507.3    5.225      44.231
2015   12        6    14  46    3.7998   507.3    5.226      44.244
2015   12        6    14  53    3.8007   507.3    5.227      44.257
2015   12        6    15   0    3.8016   507.4    5.228      44.270
2015   12        6    15   7    3.8025   507.4    5.228      44.282
2015   12        6    15  13    3.8035   507.4    5.229      44.295
2015   12        6    15  20    3.8045   507.5    5.230      44.309
2015   12        6    15  27    3.8054   507.5    5.231      44.322
2015   12        6    15  34    3.8064   507.5    5.232      44.336
2015   12        6    15  41    3.8074   507.6    5.233      44.349
2015   12        6    15  47    3.8085   507.6    5.234      44.363
2015   12        6    15  54    3.8096   507.6    5.235      44.378
2015   12        6    16   1    3.8106   507.7    5.236      44.392
2015   12        6    16   8    3.8116   507.7    5.237      44.407
2015   12        6    16  15    3.8127   507.8    5.239      44.422
2015   12        6    16  21    3.8138   507.8    5.240      44.437
2015   12        6    16  28    3.8149   507.9    5.241      44.452
2015   12        6    16  35    3.8160   507.9    5.243      44.468
2015   12        6    16  42    3.8171   507.9    5.244      44.483
2015   12        6    16  49    3.8181   508.0    5.246      44.500
2015   12        6    16  56    3.8192   508.0    5.247      44.516
2015   12        6    17   2    3.8203   508.1    5.249      44.533
2015   12        6    17   9    3.8214   508.1    5.251      44.550
2015   12        6    17  16    3.8224   508.2    5.253      44.567
2015   12        6    17  23    3.8235   508.2    5.254      44.585
2015   12        6    17  30    3.8245   508.3    5.256      44.603
2015   12        6    17  36    3.8256   508.4    5.258      44.622
2015   12        6    17  43    3.8266   508.4    5.259      44.642
2015   12        6    17  50    3.8276   508.5    5.261      44.661
2015   12        6    17  57    3.8286   508.5    5.262      44.681
2015   12        6    18   4    3.8295   508.6    5.264      44.701
2015   12        6    18  10    3.8305   508.6    5.266      44.721
2015   12        6    18  17    3.8314   508.7    5.267      44.742
2015   12        6    18  24    3.8324   508.7    5.268      44.762
2015   12        6    18  31    3.8333   508.8    5.270      44.782
2015   12        6    18  38    3.8342   508.9    5.271      44.803
2015   12        6    18  45    3.8351   508.9    5.273      44.823
2015   12        6    18  51    3.8361   509.0    5.274      44.843
2015   12        6    18  58    3.8370   509.0    5.275      44.863
2015   12        6    19   5    3.8379   509.1    5.276      44.883
2015   12        6    19  12    3.8388   509.2    5.278      44.903
2015   12        6    19  19    3.8397   509.2    5.279      44.923
2015   12        6    19  25    3.8406   509.3    5.280      44.943
2015   12        6    19  32    3.8415   509.3    5.281      44.963
2015   12        6    19  39    3.8424   509.4    5.282      44.984
2015   12        6    19  46    3.8433   509.4    5.283      45.005
2015   12        6    19  53    3.8442   509.5    5.284      45.025
2015   12        6    20   0    3.8451   509.6    5.284      45.047
2015   12        6    20   6    3.8461   509.6    5.285      45.068
2015   12        6    20  13    3.8470   509.7    5.286      45.089
2015   12        6    20  20    3.8479   509.8    5.286      45.111
2015   12        6    20  27    3.8488   509.8    5.287      45.133
2015   12        6    20  34    3.8498   509.9    5.287      45.154
2015   12        6    20  40    3.8508   509.9    5.288      45.176
2015   12        6    20  47    3.8517   510.0    5.288      45.198
2015   12        6    20  54    3.8527   510.1    5.288      45.219
2015   12        6    21   1    3.8537   510.1    5.289      45.241
2015   12        6    21   8    3.8547   510.2    5.289      45.263
2015   12        6    21  14    3.8557   510.2    5.289      45.284
2015   12        6    21  21    3.8568   510.3    5.289      45.305
2015   12        6    21  28    3.8578   510.4    5.290      45.327
2015   12        6    21  35    3.8589   510.4    5.290      45.348
2015   12        6    21  42    3.8600   510.5    5.290      45.369
2015   12        6    21  49    3.8611   510.6    5.290      45.390
2015   12        6    21  55    3.8622   510.6    5.291      45.411
2015   12        6    22   2    3.8634   510.7    5.291      45.432
2015   12        6    22   9    3.8645   510.8    5.291      45.453
2015   12        6    22  16    3.8657   510.8    5.292      45.474
2015   12        6    22  23    3.8669   510.9    5.292      45.496
2015   12        6    22  29    3.8681   511.0    5.292      45.517
2015   12        6    22  36    3.8692   511.0    5.293      45.538
2015   12        6    22  43    3.8704   511.1    5.293      45.559
2015   12        6    22  50    3.8716   511.2    5.294      45.581
2015   12        6    22  57    3.8728   511.2    5.294      45.602
2015   12        6    23   3    3.8740   511.3    5.295      45.624
2015   12        6    23  10    3.8751   511.4    5.295      45.645
2015   12        6    23  17    3.8763   511.4    5.296      45.667
2015   12        6    23  24    3.8775   511.5    5.296      45.689
2015   12        6    23  31    3.8786   511.6    5.297      45.711
2015   12        6    23  38    3.8798   511.6    5.298      45.733
2015   12        6    23  44    3.8809   511.7    5.299      45.755
2015   12        6    23  51    3.8821   511.8    5.299      45.777
2015   12        6    23  58    3.8832   511.8    5.300      45.799
2015   12        7     0   5    3.8843   511.9    5.301      45.820
2015   12        7     0  12    3.8855   512.0    5.302      45.842
2015   12        7     0  18    3.8865   512.1    5.303      45.864
2015   12        7     0  25    3.8876   512.1    5.304      45.886
2015   12        7     0  32    3.8887   512.2    5.305      45.908
2015   12        7     0  39    3.8898   512.3    5.306      45.930
2015   12        7     0  46    3.8908   512.4    5.307      45.952
2015   12        7     0  52    3.8918   512.5    5.308      45.974
2015   12        7     0  59    3.8928   512.5    5.309      45.996
2015   12        7     1   6    3.8938   512.6    5.310      46.018
2015   12        7     1  13    3.8948   512.7    5.311      46.040
2015   12        7     1  20    3.8957   512.8    5.312      46.062
2015   12        7     1  27    3.8967   512.8    5.313      46.083
2015   12        7     1  33    3.8976   512.9    5.314      46.104
2015   12        7     1  40    3.8985   513.0    5.315      46.125
2015   12        7     1  47    3.8995   513.1    5.317      46.146
2015   12        7     1  54    3.9004   513.2    5.318      46.167
2015   12        7     2   1    3.9013   513.2    5.319      46.188
2015   12        7     2   7    3.9023   513.3    5.320      46.209
2015   12        7     2  14    3.9032   513.4    5.321      46.229
2015   12        7     2  21    3.9042   513.5    5.323      46.250
2015   12        7     2  28    3.9052   513.6    5.324      46.271
2015   12        7     2  35    3.9062   513.7    5.325      46.294
2015   12        7     2  42    3.9072   513.8    5.327      46.317
2015   12        7     2  48    3.9083   513.8    5.328      46.341
2015   12        7     2  55    3.9093   513.9    5.329      46.367
2015   12        7     3   2    3.9104   514.0    5.331      46.393
2015   12        7     3   9    3.9114   514.1    5.332      46.420
2015   12        7     3  16    3.9125   514.2    5.333      46.449
2015   12        7     3  22    3.9135   514.3    5.334      46.477
2015   12        7     3  29    3.9146   514.4    5.335      46.506
2015   12        7     3  36    3.9156   514.5    5.335      46.535
2015   12        7     3  43    3.9167   514.6    5.336      46.565
2015   12        7     3  50    3.9177   514.7    5.336      46.594
2015   12        7     3  56    3.9187   514.8    5.337      46.623
2015   12        7     4   3    3.9197   514.9    5.337      46.651
2015   12        7     4  10    3.9207   515.0    5.338      46.680
2015   12        7     4  17    3.9218   515.1    5.338      46.708
2015   12        7     4  24    3.9228   515.2    5.338      46.736
2015   12        7     4  31    3.9238   515.3    5.339      46.764
2015   12        7     4  37    3.9249   515.4    5.339      46.792
2015   12        7     4  44    3.9260   515.5    5.339      46.821
2015   12        7     4  51    3.9270   515.6    5.339      46.849
2015   12        7     4  58    3.9281   515.7    5.340      46.879
2015   12        7     5   5    3.9293   515.8    5.340      46.908
2015   12        7     5  11    3.9304   515.9    5.340      46.938
2015   12        7     5  18    3.9315   516.0    5.340      46.967
2015   12        7     5  25    3.9326   516.1    5.340      46.997
2015   12        7     5  32    3.9338   516.2    5.340      47.028
2015   12        7     5  39    3.9349   516.3    5.340      47.058
2015   12        7     5  46    3.9360   516.4    5.339      47.088
2015   12        7     5  52    3.9372   516.5    5.339      47.118
2015   12        7     5  59    3.9383   516.6    5.339      47.147
2015   12        7     6   6    3.9395   516.7    5.339      47.177
2015   12        7     6  13    3.9406   516.8    5.338      47.206
2015   12        7     6  20    3.9417   516.9    5.338      47.235
2015   12        7     6  26    3.9428   517.0    5.338      47.263
2015   12        7     6  33    3.9439   517.1    5.338      47.292
2015   12        7     6  40    3.9450   517.2    5.338      47.320
2015   12        7     6  47    3.9461   517.3    5.337      47.348
2015   12        7     6  54    3.9471   517.4    5.337      47.376
2015   12        7     7   0    3.9482   517.5    5.337      47.403
2015   12        7     7   7    3.9492   517.6    5.337      47.430
2015   12        7     7  14    3.9502   517.7    5.337      47.457
2015   12        7     7  21    3.9512   517.8    5.336      47.484
2015   12        7     7  28    3.9522   517.9    5.336      47.510
2015   12        7     7  34    3.9532   518.0    5.336      47.536
2015   12        7     7  41    3.9542   518.1    5.336      47.562
2015   12        7     7  48    3.9552   518.2    5.336      47.587
2015   12        7     7  55    3.9561   518.3    5.335      47.612
2015   12        7     8   2    3.9570   518.4    5.335      47.636
2015   12        7     8   9    3.9579   518.5    5.335      47.660
2015   12        7     8  15    3.9588   518.6    5.334      47.684
2015   12        7     8  22    3.9597   518.7    5.334      47.706
2015   12        7     8  29    3.9605   518.8    5.334      47.729
2015   12        7     8  36    3.9614   518.9    5.333      47.751
2015   12        7     8  43    3.9622   519.0    5.333      47.772
2015   12        7     8  49    3.9630   519.1    5.333      47.792
2015   12        7     8  56    3.9639   519.2    5.332      47.813
2015   12        7     9   3    3.9647   519.3    5.332      47.832
2015   12        7     9  10    3.9655   519.4    5.331      47.851
2015   12        7     9  17    3.9663   519.5    5.331      47.870
2015   12        7     9  24    3.9672   519.7    5.330      47.889
2015   12        7     9  30    3.9680   519.8    5.330      47.908
2015   12        7     9  37    3.9689   519.9    5.330      47.926
2015   12        7     9  44    3.9698   520.0    5.330      47.945
2015   12        7     9  51    3.9707   520.1    5.329      47.964
2015   12        7     9  58    3.9716   520.2    5.329      47.983
2015   12        7    10   4    3.9726   520.3    5.329      48.004
2015   12        7    10  11    3.9736   520.4    5.329      48.025
2015   12        7    10  18    3.9746   520.5    5.329      48.048
2015   12        7    10  25    3.9756   520.6    5.329      48.071
2015   12        7    10  32    3.9767   520.8    5.329      48.095
2015   12        7    10  38    3.9778   520.9    5.329      48.120
2015   12        7    10  45    3.9788   521.0    5.330      48.146
2015   12        7    10  52    3.9799   521.1    5.330      48.174
2015   12        7    10  59    3.9809   521.3    5.330      48.202
2015   12        7    11   6    3.9819   521.4    5.329      48.232
2015   12        7    11  13    3.9829   521.5    5.329      48.263
2015   12        7    11  19    3.9839   521.6    5.329      48.294
2015   12        7    11  26    3.9849   521.8    5.329      48.325
2015   12        7    11  33    3.9859   521.9    5.328      48.356
2015   12        7    11  40    3.9868   522.0    5.328      48.388
2015   12        7    11  47    3.9877   522.2    5.328      48.420
2015   12        7    11  53    3.9886   522.3    5.327      48.453
2015   12        7    12   0    3.9896   522.4    5.327      48.485
2015   12        7    12   7    3.9904   522.6    5.326      48.517
2015   12        7    12  14    3.9914   522.7    5.326      48.550
2015   12        7    12  21    3.9922   522.8    5.325      48.582
2015   12        7    12  28    3.9932   523.0    5.325      48.615
2015   12        7    12  34    3.9942   523.1    5.324      48.649
2015   12        7    12  41    3.9951   523.2    5.324      48.683
2015   12        7    12  48    3.9960   523.4    5.323      48.718
2015   12        7    12  55    3.9970   523.5    5.323      48.753
2015   12        7    13   2    3.9980   523.6    5.323      48.788
2015   12        7    13   8    3.9990   523.8    5.322      48.824
2015   12        7    13  15    4.0000   523.9    5.322      48.860
2015   12        7    13  22    4.0009   524.1    5.321      48.896
2015   12        7    13  29    4.0019   524.2    5.321      48.933
2015   12        7    13  36    4.0028   524.3    5.320      48.970
2015   12        7    13  42    4.0037   524.5    5.320      49.007
2015   12        7    13  49    4.0046   524.6    5.319      49.045
2015   12        7    13  56    4.0055   524.8    5.319      49.082
2015   12        7    14   3    4.0063   524.9    5.318      49.120
2015   12        7    14  10    4.0071   525.1    5.318      49.157
2015   12        7    14  17    4.0080   525.2    5.317      49.195
2015   12        7    14  23    4.0088   525.4    5.317      49.233
2015   12        7    14  30    4.0095   525.5    5.317      49.271
2015   12        7    14  37    4.0103   525.7    5.316      49.309
2015   12        7    14  44    4.0111   525.8    5.316      49.346
2015   12        7    14  51    4.0119   526.0    5.316      49.384
2015   12        7    14  57    4.0127   526.1    5.316      49.423
2015   12        7    15   4    4.0135   526.3    5.315      49.463
2015   12        7    15  11    4.0142   526.4    5.315      49.504
2015   12        7    15  18    4.0150   526.6    5.315      49.545
2015   12        7    15  25    4.0157   526.8    5.314      49.586
2015   12        7    15  31    4.0165   526.9    5.313      49.627
2015   12        7    15  38    4.0172   527.1    5.313      49.668
2015   12        7    15  45    4.0178   527.3    5.312      49.708
2015   12        7    15  52    4.0185   527.4    5.310      49.748
2015   12        7    15  59    4.0191   527.6    5.309      49.786
2015   12        7    16   6    4.0196   527.8    5.307      49.823
2015   12        7    16  12    4.0202   528.0    5.305      49.858
2015   12        7    16  19    4.0207   528.1    5.303      49.892
2015   12        7    16  26    4.0212   528.3    5.301      49.924
2015   12        7    16  33    4.0217   528.5    5.298      49.955
2015   12        7    16  40    4.0221   528.7    5.295      49.985
2015   12        7    16  46    4.0225   528.9    5.293      50.014
2015   12        7    16  53    4.0229   529.0    5.290      50.042
2015   12        7    17   0    4.0233   529.2    5.287      50.069
2015   12        7    17   7    4.0237   529.4    5.284      50.095
2015   12        7    17  14    4.0241   529.6    5.281      50.121
2015   12        7    17  21    4.0245   529.7    5.277      50.145
2015   12        7    17  27    4.0249   529.9    5.274      50.170
2015   12        7    17  34    4.0252   530.1    5.271      50.193
2015   12        7    17  41    4.0256   530.3    5.268      50.217
2015   12        7    17  48    4.0260   530.4    5.264      50.239
2015   12        7    17  55    4.0264   530.6    5.261      50.262
2015   12        7    18   1    4.0267   530.8    5.258      50.285
2015   12        7    18   8    4.0271   531.0    5.255      50.307
2015   12        7    18  15    4.0274   531.2    5.252      50.330
2015   12        7    18  22    4.0277   531.3    5.248      50.354
2015   12        7    18  29    4.0280   531.5    5.245      50.379
2015   12        7    18  35    4.0283   531.7    5.242      50.404
2015   12        7    18  42    4.0285   531.9    5.239      50.431
2015   12        7    18  49    4.0287   532.1    5.236      50.458
2015   12        7    18  56    4.0289   532.3    5.233      50.486
2015   12        7    19   3    4.0291   532.5    5.230      50.514
2015   12        7    19  10    4.0293   532.6    5.227      50.543
2015   12        7    19  16    4.0294   532.8    5.223      50.573
2015   12        7    19  23    4.0296   533.0    5.221      50.604
2015   12        7    19  30    4.0297   533.2    5.218      50.634
2015   12        7    19  37    4.0298   533.4    5.215      50.666
2015   12        7    19  44    4.0299   533.6    5.212      50.697
2015   12        7    19  50    4.0301   533.8    5.210      50.730
2015   12        7    19  57    4.0302   534.0    5.208      50.763
2015   12        7    20   4    4.0302   534.1    5.205      50.799
2015   12        7    20  11    4.0304   534.3    5.203      50.836
2015   12        7    20  18    4.0304   534.5    5.201      50.875
2015   12        7    20  24    4.0305   534.7    5.199      50.914
2015   12        7    20  31    4.0305   535.0    5.197      50.955
2015   12        7    20  38    4.0304   535.2    5.195      50.996
2015   12        7    20  45    4.0303   535.4    5.193      51.037
2015   12        7    20  52    4.0302   535.6    5.191      51.079
2015   12        7    20  59    4.0300   535.8    5.189      51.120
2015   12        7    21   5    4.0298   536.0    5.186      51.161
2015   12        7    21  12    4.0295   536.2    5.183      51.202
2015   12        7    21  19    4.0291   536.4    5.181      51.241
2015   12        7    21  26    4.0287   536.7    5.178      51.280
2015   12        7    21  33    4.0283   536.9    5.175      51.318
2015   12        7    21  39    4.0279   537.1    5.172      51.356
2015   12        7    21  46    4.0274   537.3    5.169      51.394
2015   12        7    21  53    4.0269   537.5    5.166      51.432
2015   12        7    22   0    4.0264   537.8    5.163      51.471
2015   12        7    22   7    4.0259   538.0    5.160      51.510
2015   12        7    22  13    4.0253   538.2    5.157      51.550
2015   12        7    22  20    4.0247   538.4    5.153      51.591
2015   12        7    22  27    4.0242   538.7    5.150      51.632
2015   12        7    22  34    4.0236   538.9    5.146      51.674
2015   12        7    22  41    4.0229   539.1    5.143      51.716
2015   12        7    22  48    4.0223   539.4    5.139      51.758
2015   12        7    22  54    4.0216   539.6    5.135      51.798
2015   12        7    23   1    4.0209   539.8    5.130      51.838
2015   12        7    23   8    4.0201   540.1    5.126      51.877
2015   12        7    23  15    4.0193   540.3    5.121      51.916
2015   12        7    23  22    4.0184   540.6    5.116      51.952
2015   12        7    23  28    4.0175   540.8    5.111      51.987
2015   12        7    23  35    4.0165   541.0    5.106      52.021
2015   12        7    23  42    4.0155   541.3    5.100      52.054
2015   12        7    23  49    4.0144   541.5    5.095      52.085
2015   12        7    23  56    4.0132   541.8    5.089      52.115
2015   12        8     0   3    4.0120   542.0    5.083      52.144
