year    month   day   hour  minute  B_enl V_enl   n_enl       T_enl
[year] [month] [day] [hour][minute] [nT]  [km/s]  [cm-3]      [kK]
2015   11        4     0   4    4.3227   471.3    7.401      51.211
2015   11        4     0  11    4.3055   471.7    7.351      51.054
2015   11        4     0  18    4.2877   472.0    7.300      50.895
2015   11        4     0  26    4.2704   472.3    7.250      50.734
2015   11        4     0  33    4.2536   472.6    7.201      50.572
2015   11        4     0  40    4.2362   472.9    7.152      50.407
2015   11        4     0  47    4.2188   473.2    7.103      50.240
2015   11        4     0  54    4.2010   473.5    7.055      50.071
2015   11        4     1   1    4.1835   473.8    7.007      49.899
2015   11        4     1   8    4.1659   474.0    6.959      49.725
2015   11        4     1  15    4.1482   474.3    6.913      49.549
2015   11        4     1  22    4.1308   474.5    6.866      49.371
2015   11        4     1  29    4.1129   474.8    6.820      49.191
2015   11        4     1  36    4.0950   475.0    6.775      49.009
2015   11        4     1  43    4.0773   475.3    6.730      48.825
2015   11        4     1  50    4.0594   475.5    6.686      48.639
2015   11        4     1  57    4.0416   475.7    6.643      48.452
2015   11        4     2   5    4.0239   475.9    6.600      48.264
2015   11        4     2  12    4.0062   476.1    6.558      48.074
2015   11        4     2  19    3.9885   476.3    6.517      47.884
2015   11        4     2  26    3.9712   476.4    6.476      47.692
2015   11        4     2  33    3.9538   476.6    6.436      47.501
2015   11        4     2  40    3.9363   476.7    6.397      47.308
2015   11        4     2  47    3.9196   476.9    6.358      47.117
2015   11        4     2  54    3.9027   477.0    6.321      46.924
2015   11        4     3   1    3.8857   477.1    6.284      46.733
2015   11        4     3   8    3.8697   477.3    6.248      46.542
2015   11        4     3  15    3.8535   477.4    6.213      46.352
2015   11        4     3  22    3.8372   477.4    6.179      46.164
2015   11        4     3  29    3.8221   477.5    6.146      45.977
2015   11        4     3  36    3.8062   477.6    6.114      45.791
2015   11        4     3  43    3.7917   477.6    6.083      45.608
2015   11        4     3  51    3.7770   477.7    6.053      45.427
2015   11        4     3  58    3.7624   477.7    6.024      45.249
2015   11        4     4   5    3.7475   477.7    5.995      45.074
2015   11        4     4  12    3.7335   477.8    5.968      44.901
2015   11        4     4  19    3.7205   477.8    5.942      44.732
2015   11        4     4  26    3.7063   477.8    5.916      44.566
2015   11        4     4  33    3.6931   477.7    5.891      44.404
2015   11        4     4  40    3.6808   477.7    5.868      44.245
2015   11        4     4  47    3.6681   477.7    5.845      44.089
2015   11        4     4  54    3.6555   477.7    5.822      43.937
2015   11        4     5   1    3.6423   477.6    5.801      43.788
2015   11        4     5   8    3.6300   477.6    5.780      43.642
2015   11        4     5  15    3.6189   477.5    5.760      43.499
2015   11        4     5  22    3.6061   477.5    5.740      43.360
2015   11        4     5  29    3.5945   477.4    5.721      43.224
2015   11        4     5  37    3.5837   477.4    5.702      43.090
2015   11        4     5  44    3.5714   477.3    5.684      42.959
2015   11        4     5  51    3.5601   477.3    5.666      42.831
2015   11        4     5  58    3.5490   477.2    5.648      42.706
2015   11        4     6   5    3.5378   477.2    5.631      42.582
2015   11        4     6  12    3.5269   477.1    5.614      42.461
2015   11        4     6  19    3.5168   477.1    5.597      42.341
2015   11        4     6  26    3.5060   477.0    5.580      42.223
2015   11        4     6  33    3.4952   477.0    5.564      42.107
2015   11        4     6  40    3.4837   476.9    5.547      41.992
2015   11        4     6  47    3.4731   476.9    5.531      41.878
2015   11        4     6  54    3.4625   476.8    5.515      41.765
2015   11        4     7   1    3.4529   476.8    5.499      41.654
2015   11        4     7   8    3.4424   476.7    5.483      41.543
2015   11        4     7  15    3.4311   476.7    5.467      41.433
2015   11        4     7  23    3.4216   476.6    5.450      41.323
2015   11        4     7  30    3.4113   476.6    5.434      41.215
2015   11        4     7  37    3.4011   476.5    5.418      41.106
2015   11        4     7  44    3.3908   476.4    5.402      40.997
2015   11        4     7  51    3.3799   476.4    5.387      40.889
2015   11        4     7  58    3.3706   476.3    5.371      40.780
2015   11        4     8   5    3.3598   476.2    5.356      40.672
2015   11        4     8  12    3.3498   476.2    5.340      40.564
2015   11        4     8  19    3.3399   476.1    5.325      40.457
2015   11        4     8  26    3.3300   476.0    5.310      40.349
2015   11        4     8  33    3.3211   475.9    5.296      40.242
2015   11        4     8  40    3.3114   475.8    5.281      40.136
2015   11        4     8  47    3.3011   475.7    5.267      40.030
2015   11        4     8  54    3.2915   475.6    5.253      39.925
2015   11        4     9   2    3.2829   475.5    5.239      39.820
2015   11        4     9   9    3.2729   475.4    5.226      39.717
2015   11        4     9  16    3.2644   475.3    5.212      39.614
2015   11        4     9  23    3.2553   475.2    5.199      39.511
2015   11        4     9  30    3.2463   475.1    5.187      39.410
2015   11        4     9  37    3.2373   475.0    5.174      39.310
2015   11        4     9  44    3.2285   474.9    5.162      39.211
2015   11        4     9  51    3.2190   474.8    5.150      39.114
2015   11        4     9  58    3.2104   474.7    5.138      39.018
2015   11        4    10   5    3.2025   474.6    5.126      38.923
2015   11        4    10  12    3.1940   474.5    5.115      38.828
2015   11        4    10  19    3.1848   474.4    5.103      38.735
2015   11        4    10  26    3.1772   474.3    5.092      38.642
2015   11        4    10  33    3.1689   474.2    5.080      38.550
2015   11        4    10  40    3.1600   474.1    5.069      38.458
2015   11        4    10  48    3.1519   473.9    5.058      38.367
2015   11        4    10  55    3.1445   473.8    5.047      38.276
2015   11        4    11   2    3.1365   473.7    5.036      38.187
2015   11        4    11   9    3.1286   473.6    5.025      38.097
2015   11        4    11  16    3.1200   473.5    5.014      38.009
2015   11        4    11  23    3.1123   473.4    5.003      37.920
2015   11        4    11  30    3.1045   473.3    4.992      37.831
2015   11        4    11  37    3.0976   473.2    4.982      37.743
2015   11        4    11  44    3.0899   473.1    4.971      37.655
2015   11        4    11  51    3.0817   473.0    4.960      37.567
2015   11        4    11  58    3.0742   472.8    4.950      37.479
2015   11        4    12   5    3.0668   472.7    4.939      37.392
2015   11        4    12  12    3.0600   472.6    4.929      37.305
2015   11        4    12  19    3.0527   472.5    4.919      37.218
2015   11        4    12  26    3.0447   472.4    4.908      37.131
2015   11        4    12  34    3.0381   472.2    4.898      37.045
2015   11        4    12  41    3.0309   472.1    4.888      36.959
2015   11        4    12  48    3.0238   472.0    4.878      36.873
2015   11        4    12  55    3.0166   471.9    4.868      36.788
2015   11        4    13   2    3.0090   471.7    4.858      36.703
2015   11        4    13   9    3.0025   471.6    4.849      36.618
2015   11        4    13  16    2.9956   471.5    4.839      36.534
2015   11        4    13  23    2.9880   471.3    4.829      36.450
2015   11        4    13  30    2.9817   471.2    4.820      36.366
2015   11        4    13  37    2.9748   471.1    4.811      36.283
2015   11        4    13  44    2.9675   470.9    4.801      36.200
2015   11        4    13  51    2.9607   470.8    4.792      36.118
2015   11        4    13  58    2.9545   470.6    4.783      36.037
2015   11        4    14   5    2.9472   470.5    4.774      35.955
2015   11        4    14  12    2.9411   470.3    4.766      35.874
2015   11        4    14  20    2.9339   470.2    4.757      35.794
2015   11        4    14  27    2.9274   470.0    4.748      35.713
2015   11        4    14  34    2.9213   469.9    4.740      35.633
2015   11        4    14  41    2.9148   469.7    4.732      35.554
2015   11        4    14  48    2.9079   469.6    4.724      35.474
2015   11        4    14  55    2.9015   469.4    4.716      35.394
2015   11        4    15   2    2.8951   469.2    4.708      35.315
2015   11        4    15   9    2.8892   469.0    4.701      35.235
2015   11        4    15  16    2.8830   468.9    4.693      35.156
2015   11        4    15  23    2.8767   468.7    4.686      35.078
2015   11        4    15  30    2.8706   468.5    4.679      34.999
2015   11        4    15  37    2.8640   468.3    4.672      34.922
2015   11        4    15  44    2.8584   468.1    4.666      34.844
2015   11        4    15  51    2.8519   467.9    4.659      34.768
2015   11        4    15  59    2.8460   467.7    4.653      34.692
2015   11        4    16   6    2.8401   467.5    4.646      34.617
2015   11        4    16  13    2.8342   467.3    4.640      34.542
2015   11        4    16  20    2.8284   467.1    4.634      34.468
2015   11        4    16  27    2.8231   466.9    4.628      34.395
2015   11        4    16  34    2.8174   466.7    4.623      34.322
2015   11        4    16  41    2.8113   466.5    4.617      34.250
2015   11        4    16  48    2.8057   466.3    4.612      34.179
2015   11        4    16  55    2.8006   466.1    4.607      34.110
2015   11        4    17   2    2.7951   465.9    4.602      34.041
2015   11        4    17   9    2.7896   465.7    4.597      33.974
2015   11        4    17  16    2.7842   465.5    4.592      33.907
2015   11        4    17  23    2.7788   465.3    4.587      33.842
2015   11        4    17  30    2.7735   465.1    4.582      33.777
2015   11        4    17  38    2.7678   464.9    4.577      33.712
2015   11        4    17  45    2.7626   464.7    4.572      33.648
2015   11        4    17  52    2.7573   464.5    4.568      33.584
2015   11        4    17  59    2.7521   464.3    4.563      33.521
2015   11        4    18   6    2.7470   464.1    4.558      33.458
2015   11        4    18  13    2.7419   463.9    4.553      33.395
2015   11        4    18  20    2.7371   463.7    4.549      33.333
2015   11        4    18  27    2.7318   463.5    4.544      33.271
2015   11        4    18  34    2.7271   463.3    4.539      33.209
2015   11        4    18  41    2.7221   463.1    4.534      33.147
2015   11        4    18  48    2.7172   462.9    4.529      33.085
2015   11        4    18  55    2.7123   462.7    4.524      33.023
2015   11        4    19   2    2.7074   462.5    4.519      32.961
2015   11        4    19   9    2.7022   462.3    4.514      32.899
2015   11        4    19  16    2.6974   462.1    4.510      32.837
2015   11        4    19  24    2.6929   461.9    4.505      32.775
2015   11        4    19  31    2.6879   461.6    4.500      32.714
2015   11        4    19  38    2.6835   461.4    4.495      32.652
2015   11        4    19  45    2.6784   461.2    4.491      32.590
2015   11        4    19  52    2.6741   461.0    4.486      32.528
2015   11        4    19  59    2.6694   460.8    4.481      32.467
2015   11        4    20   6    2.6648   460.6    4.477      32.405
2015   11        4    20  13    2.6602   460.4    4.472      32.343
2015   11        4    20  20    2.6554   460.2    4.468      32.282
2015   11        4    20  27    2.6511   460.0    4.463      32.220
2015   11        4    20  34    2.6464   459.7    4.459      32.159
2015   11        4    20  41    2.6419   459.5    4.454      32.098
2015   11        4    20  48    2.6374   459.3    4.450      32.036
2015   11        4    20  55    2.6330   459.1    4.446      31.975
2015   11        4    21   2    2.6286   458.9    4.441      31.914
2015   11        4    21   9    2.6243   458.7    4.437      31.853
2015   11        4    21  16    2.6202   458.4    4.433      31.792
2015   11        4    21  24    2.6159   458.2    4.429      31.732
2015   11        4    21  31    2.6113   458.0    4.425      31.671
2015   11        4    21  38    2.6073   457.8    4.421      31.611
2015   11        4    21  45    2.6029   457.5    4.417      31.550
2015   11        4    21  52    2.5986   457.3    4.413      31.490
2015   11        4    21  59    2.5945   457.1    4.409      31.430
2015   11        4    22   6    2.5903   456.9    4.406      31.371
2015   11        4    22  13    2.5864   456.7    4.402      31.311
2015   11        4    22  20    2.5820   456.4    4.398      31.251
2015   11        4    22  27    2.5782   456.2    4.395      31.192
2015   11        4    22  34    2.5739   456.0    4.391      31.133
2015   11        4    22  41    2.5701   455.7    4.387      31.073
2015   11        4    22  48    2.5661   455.5    4.384      31.014
2015   11        4    22  55    2.5618   455.3    4.380      30.954
2015   11        4    23   2    2.5579   455.1    4.377      30.895
2015   11        4    23   9    2.5539   454.8    4.373      30.836
2015   11        4    23  16    2.5503   454.6    4.370      30.777
2015   11        4    23  23    2.5461   454.3    4.366      30.718
2015   11        4    23  30    2.5423   454.1    4.363      30.659
2015   11        4    23  37    2.5384   453.9    4.360      30.599
2015   11        4    23  44    2.5346   453.6    4.356      30.541
2015   11        4    23  51    2.5310   453.4    4.353      30.481
2015   11        4    23  58    2.5271   453.2    4.350      30.422
2015   11        5     0   5    2.5233   452.9    4.347      30.363
2015   11        5     0  12    2.5196   452.7    4.344      30.305
2015   11        5     0  20    2.5159   452.4    4.341      30.246
2015   11        5     0  27    2.5125   452.2    4.338      30.188
2015   11        5     0  34    2.5086   451.9    4.335      30.130
2015   11        5     0  41    2.5050   451.7    4.332      30.072
2015   11        5     0  48    2.5016   451.4    4.329      30.014
2015   11        5     0  55    2.4981   451.2    4.326      29.956
2015   11        5     1   2    2.4946   450.9    4.323      29.899
2015   11        5     1   9    2.4911   450.7    4.321      29.842
2015   11        5     1  16    2.4875   450.4    4.318      29.786
2015   11        5     1  23    2.4842   450.2    4.316      29.730
2015   11        5     1  30    2.4809   449.9    4.314      29.674
2015   11        5     1  37    2.4775   449.7    4.311      29.619
2015   11        5     1  44    2.4740   449.4    4.309      29.564
2015   11        5     1  51    2.4709   449.2    4.307      29.510
2015   11        5     1  58    2.4677   448.9    4.305      29.456
2015   11        5     2   5    2.4645   448.6    4.303      29.403
2015   11        5     2  12    2.4611   448.4    4.302      29.350
2015   11        5     2  19    2.4579   448.1    4.300      29.298
2015   11        5     2  26    2.4548   447.9    4.298      29.246
2015   11        5     2  33    2.4518   447.6    4.296      29.195
2015   11        5     2  40    2.4486   447.3    4.295      29.144
2015   11        5     2  47    2.4455   447.1    4.293      29.093
2015   11        5     2  55    2.4424   446.8    4.292      29.042
2015   11        5     3   2    2.4393   446.6    4.290      28.992
2015   11        5     3   9    2.4363   446.3    4.289      28.942
2015   11        5     3  16    2.4332   446.0    4.288      28.892
2015   11        5     3  23    2.4302   445.8    4.286      28.842
2015   11        5     3  30    2.4273   445.5    4.285      28.792
2015   11        5     3  37    2.4243   445.2    4.283      28.742
2015   11        5     3  44    2.4211   445.0    4.282      28.692
2015   11        5     3  51    2.4181   444.7    4.281      28.642
2015   11        5     3  58    2.4153   444.4    4.279      28.593
2015   11        5     4   5    2.4122   444.2    4.278      28.543
2015   11        5     4  12    2.4093   443.9    4.276      28.493
2015   11        5     4  19    2.4064   443.6    4.275      28.444
2015   11        5     4  26    2.4033   443.4    4.273      28.394
2015   11        5     4  33    2.4003   443.1    4.272      28.344
2015   11        5     4  40    2.3974   442.8    4.270      28.295
2015   11        5     4  48    2.3947   442.5    4.269      28.245
2015   11        5     4  55    2.3916   442.3    4.267      28.195
2015   11        5     5   2    2.3889   442.0    4.266      28.145
2015   11        5     5   9    2.3859   441.7    4.264      28.096
2015   11        5     5  16    2.3831   441.5    4.262      28.046
2015   11        5     5  23    2.3802   441.2    4.261      27.996
2015   11        5     5  30    2.3775   440.9    4.259      27.945
2015   11        5     5  37    2.3747   440.7    4.257      27.895
2015   11        5     5  44    2.3718   440.4    4.256      27.845
2015   11        5     5  51    2.3690   440.1    4.254      27.795
2015   11        5     5  58    2.3663   439.9    4.252      27.744
2015   11        5     6   5    2.3636   439.6    4.250      27.694
2015   11        5     6  12    2.3608   439.3    4.248      27.643
2015   11        5     6  19    2.3582   439.0    4.247      27.592
2015   11        5     6  26    2.3556   438.8    4.245      27.541
2015   11        5     6  33    2.3529   438.5    4.243      27.490
2015   11        5     6  40    2.3501   438.2    4.241      27.439
2015   11        5     6  47    2.3476   438.0    4.239      27.388
2015   11        5     6  54    2.3450   437.7    4.237      27.337
2015   11        5     7   2    2.3424   437.4    4.236      27.286
2015   11        5     7   9    2.3398   437.1    4.234      27.235
2015   11        5     7  16    2.3373   436.9    4.232      27.184
2015   11        5     7  23    2.3347   436.6    4.230      27.132
2015   11        5     7  30    2.3321   436.3    4.229      27.081
2015   11        5     7  37    2.3297   436.1    4.227      27.030
2015   11        5     7  44    2.3271   435.8    4.225      26.980
2015   11        5     7  51    2.3248   435.5    4.224      26.929
2015   11        5     7  58    2.3222   435.2    4.222      26.878
2015   11        5     8   5    2.3199   435.0    4.221      26.828
2015   11        5     8  12    2.3174   434.7    4.219      26.778
2015   11        5     8  19    2.3151   434.4    4.218      26.727
2015   11        5     8  26    2.3126   434.1    4.216      26.678
2015   11        5     8  33    2.3102   433.9    4.215      26.628
2015   11        5     8  40    2.3080   433.6    4.214      26.579
2015   11        5     8  48    2.3056   433.3    4.213      26.530
2015   11        5     8  55    2.3034   433.0    4.211      26.481
2015   11        5     9   2    2.3010   432.7    4.210      26.432
2015   11        5     9   9    2.2988   432.5    4.209      26.384
2015   11        5     9  16    2.2965   432.2    4.208      26.336
2015   11        5     9  23    2.2942   431.9    4.207      26.289
2015   11        5     9  30    2.2920   431.6    4.207      26.241
2015   11        5     9  37    2.2897   431.4    4.206      26.194
2015   11        5     9  44    2.2874   431.1    4.205      26.148
2015   11        5     9  51    2.2852   430.8    4.204      26.102
2015   11        5     9  58    2.2831   430.5    4.203      26.055
2015   11        5    10   5    2.2808   430.3    4.202      26.009
2015   11        5    10  12    2.2786   430.0    4.202      25.964
2015   11        5    10  19    2.2763   429.7    4.201      25.918
2015   11        5    10  26    2.2741   429.4    4.200      25.873
2015   11        5    10  33    2.2719   429.2    4.200      25.828
2015   11        5    10  41    2.2698   428.9    4.199      25.782
2015   11        5    10  48    2.2675   428.6    4.198      25.737
2015   11        5    10  55    2.2654   428.3    4.197      25.692
2015   11        5    11   2    2.2631   428.0    4.197      25.647
2015   11        5    11   9    2.2609   427.8    4.196      25.602
2015   11        5    11  16    2.2587   427.5    4.195      25.557
2015   11        5    11  23    2.2565   427.2    4.194      25.512
2015   11        5    11  30    2.2544   426.9    4.194      25.467
2015   11        5    11  37    2.2521   426.6    4.193      25.422
2015   11        5    11  44    2.2499   426.3    4.192      25.377
2015   11        5    11  51    2.2478   426.0    4.192      25.332
2015   11        5    11  58    2.2457   425.8    4.191      25.287
2015   11        5    12   5    2.2435   425.5    4.190      25.242
2015   11        5    12  12    2.2413   425.2    4.190      25.198
2015   11        5    12  19    2.2392   424.9    4.189      25.153
2015   11        5    12  26    2.2371   424.6    4.188      25.108
2015   11        5    12  33    2.2350   424.3    4.188      25.063
2015   11        5    12  40    2.2329   424.0    4.187      25.018
2015   11        5    12  47    2.2309   423.8    4.187      24.974
2015   11        5    12  55    2.2288   423.5    4.186      24.929
2015   11        5    13   2    2.2267   423.2    4.186      24.884
2015   11        5    13   9    2.2247   422.9    4.186      24.840
2015   11        5    13  16    2.2227   422.6    4.185      24.796
2015   11        5    13  23    2.2207   422.3    4.185      24.751
2015   11        5    13  30    2.2187   422.0    4.185      24.707
2015   11        5    13  37    2.2168   421.7    4.185      24.663
2015   11        5    13  44    2.2149   421.4    4.185      24.619
2015   11        5    13  51    2.2130   421.1    4.185      24.576
2015   11        5    13  58    2.2111   420.9    4.185      24.532
2015   11        5    14   5    2.2093   420.6    4.185      24.489
2015   11        5    14  12    2.2075   420.3    4.186      24.447
2015   11        5    14  19    2.2057   420.0    4.186      24.404
2015   11        5    14  26    2.2039   419.7    4.187      24.362
2015   11        5    14  33    2.2021   419.4    4.187      24.320
2015   11        5    14  40    2.2004   419.1    4.188      24.278
2015   11        5    14  47    2.1987   418.8    4.188      24.237
2015   11        5    14  54    2.1970   418.5    4.189      24.196
2015   11        5    15   2    2.1953   418.2    4.190      24.155
2015   11        5    15   9    2.1936   417.9    4.190      24.115
2015   11        5    15  16    2.1919   417.6    4.191      24.075
2015   11        5    15  23    2.1902   417.4    4.192      24.034
2015   11        5    15  30    2.1886   417.1    4.192      23.994
2015   11        5    15  37    2.1870   416.8    4.193      23.954
2015   11        5    15  44    2.1853   416.5    4.194      23.915
2015   11        5    15  51    2.1837   416.2    4.194      23.875
2015   11        5    15  58    2.1820   415.9    4.195      23.835
2015   11        5    16   5    2.1803   415.6    4.196      23.795
2015   11        5    16  12    2.1787   415.3    4.196      23.756
2015   11        5    16  19    2.1770   415.0    4.196      23.716
2015   11        5    16  26    2.1753   414.7    4.197      23.676
2015   11        5    16  33    2.1737   414.4    4.197      23.636
2015   11        5    16  40    2.1720   414.2    4.197      23.596
2015   11        5    16  48    2.1703   413.9    4.198      23.556
2015   11        5    16  55    2.1687   413.6    4.198      23.516
2015   11        5    17   2    2.1670   413.3    4.198      23.476
2015   11        5    17   9    2.1654   413.0    4.198      23.436
2015   11        5    17  16    2.1636   412.7    4.198      23.396
2015   11        5    17  23    2.1620   412.4    4.198      23.356
2015   11        5    17  30    2.1604   412.1    4.198      23.316
2015   11        5    17  37    2.1587   411.8    4.198      23.275
2015   11        5    17  44    2.1570   411.5    4.197      23.235
2015   11        5    17  51    2.1554   411.2    4.197      23.194
2015   11        5    17  58    2.1537   410.9    4.197      23.154
2015   11        5    18   5    2.1521   410.7    4.196      23.113
2015   11        5    18  12    2.1505   410.4    4.196      23.072
2015   11        5    18  19    2.1489   410.1    4.195      23.031
2015   11        5    18  26    2.1473   409.8    4.195      22.989
2015   11        5    18  33    2.1457   409.5    4.194      22.948
2015   11        5    18  41    2.1441   409.2    4.194      22.906
2015   11        5    18  48    2.1425   408.9    4.193      22.865
2015   11        5    18  55    2.1409   408.6    4.193      22.823
2015   11        5    19   2    2.1393   408.3    4.192      22.781
2015   11        5    19   9    2.1378   408.0    4.191      22.739
2015   11        5    19  16    2.1362   407.7    4.191      22.698
2015   11        5    19  23    2.1347   407.4    4.190      22.655
2015   11        5    19  30    2.1331   407.1    4.189      22.613
2015   11        5    19  37    2.1316   406.8    4.189      22.571
2015   11        5    19  44    2.1300   406.5    4.188      22.529
2015   11        5    19  51    2.1285   406.2    4.188      22.487
2015   11        5    19  58    2.1270   405.9    4.187      22.445
2015   11        5    20   5    2.1255   405.6    4.186      22.403
2015   11        5    20  12    2.1240   405.4    4.186      22.361
2015   11        5    20  19    2.1225   405.1    4.185      22.320
2015   11        5    20  26    2.1210   404.8    4.185      22.278
2015   11        5    20  33    2.1195   404.5    4.185      22.237
2015   11        5    20  40    2.1180   404.2    4.184      22.196
2015   11        5    20  47    2.1167   403.9    4.184      22.155
2015   11        5    20  54    2.1152   403.6    4.184      22.114
2015   11        5    21   2    2.1138   403.3    4.184      22.074
2015   11        5    21   9    2.1124   403.0    4.184      22.034
2015   11        5    21  16    2.1110   402.7    4.184      21.994
2015   11        5    21  23    2.1097   402.4    4.184      21.955
2015   11        5    21  30    2.1083   402.1    4.185      21.916
2015   11        5    21  37    2.1070   401.8    4.185      21.877
2015   11        5    21  44    2.1056   401.5    4.185      21.839
2015   11        5    21  51    2.1043   401.2    4.186      21.801
2015   11        5    21  58    2.1030   400.9    4.187      21.763
2015   11        5    22   5    2.1017   400.6    4.187      21.726
2015   11        5    22  12    2.1004   400.3    4.188      21.690
2015   11        5    22  19    2.0992   400.0    4.189      21.653
2015   11        5    22  26    2.0979   399.7    4.189      21.617
2015   11        5    22  33    2.0966   399.4    4.190      21.581
2015   11        5    22  40    2.0954   399.1    4.191      21.546
2015   11        5    22  47    2.0941   398.8    4.192      21.510
2015   11        5    22  54    2.0929   398.5    4.193      21.475
2015   11        5    23   2    2.0917   398.2    4.194      21.440
2015   11        5    23   9    2.0904   397.9    4.195      21.405
2015   11        5    23  16    2.0892   397.6    4.196      21.370
2015   11        5    23  23    2.0879   397.3    4.197      21.335
2015   11        5    23  30    2.0867   397.0    4.198      21.300
2015   11        5    23  37    2.0855   396.6    4.199      21.265
2015   11        5    23  44    2.0843   396.3    4.200      21.231
2015   11        5    23  51    2.0831   396.0    4.201      21.196
2015   11        5    23  58    2.0819   395.7    4.202      21.161
2015   11        6     0   5    2.0807   395.4    4.204      21.127
2015   11        6     0  12    2.0795   395.1    4.205      21.093
2015   11        6     0  19    2.0784   394.8    4.206      21.058
2015   11        6     0  26    2.0772   394.5    4.208      21.024
2015   11        6     0  33    2.0761   394.2    4.209      20.991
2015   11        6     0  40    2.0751   393.9    4.211      20.957
2015   11        6     0  48    2.0740   393.6    4.212      20.924
2015   11        6     0  55    2.0730   393.3    4.214      20.890
2015   11        6     1   2    2.0719   393.0    4.216      20.857
2015   11        6     1   9    2.0709   392.6    4.218      20.824
2015   11        6     1  16    2.0700   392.3    4.220      20.792
2015   11        6     1  23    2.0691   392.0    4.222      20.759
2015   11        6     1  30    2.0682   391.7    4.224      20.727
2015   11        6     1  37    2.0674   391.4    4.227      20.696
2015   11        6     1  44    2.0665   391.1    4.229      20.664
2015   11        6     1  51    2.0657   390.8    4.232      20.633
2015   11        6     1  58    2.0650   390.5    4.235      20.602
2015   11        6     2   5    2.0643   390.2    4.237      20.571
2015   11        6     2  12    2.0636   389.9    4.240      20.540
2015   11        6     2  19    2.0629   389.5    4.244      20.510
2015   11        6     2  26    2.0623   389.2    4.247      20.480
2015   11        6     2  33    2.0617   388.9    4.250      20.451
2015   11        6     2  40    2.0611   388.6    4.254      20.421
2015   11        6     2  48    2.0605   388.3    4.257      20.392
2015   11        6     2  55    2.0600   388.0    4.261      20.364
2015   11        6     3   2    2.0594   387.7    4.265      20.335
2015   11        6     3   9    2.0589   387.4    4.269      20.307
2015   11        6     3  16    2.0584   387.1    4.272      20.279
2015   11        6     3  23    2.0579   386.8    4.276      20.251
2015   11        6     3  30    2.0574   386.5    4.280      20.224
2015   11        6     3  37    2.0570   386.1    4.284      20.196
2015   11        6     3  44    2.0566   385.8    4.289      20.169
2015   11        6     3  51    2.0561   385.5    4.293      20.142
2015   11        6     3  58    2.0557   385.2    4.297      20.116
2015   11        6     4   5    2.0553   384.9    4.301      20.089
2015   11        6     4  12    2.0548   384.6    4.305      20.062
2015   11        6     4  19    2.0544   384.3    4.309      20.036
2015   11        6     4  26    2.0539   384.0    4.313      20.009
2015   11        6     4  33    2.0536   383.7    4.317      19.983
2015   11        6     4  40    2.0532   383.4    4.321      19.956
2015   11        6     4  47    2.0528   383.1    4.325      19.930
2015   11        6     4  54    2.0524   382.7    4.329      19.904
2015   11        6     5   1    2.0520   382.4    4.333      19.877
2015   11        6     5   9    2.0516   382.1    4.337      19.851
2015   11        6     5  16    2.0512   381.8    4.341      19.825
2015   11        6     5  23    2.0507   381.5    4.345      19.798
2015   11        6     5  30    2.0504   381.2    4.349      19.771
2015   11        6     5  37    2.0501   380.9    4.353      19.745
2015   11        6     5  44    2.0497   380.6    4.356      19.718
2015   11        6     5  51    2.0494   380.3    4.360      19.691
2015   11        6     5  58    2.0490   379.9    4.364      19.664
2015   11        6     6   5    2.0487   379.6    4.367      19.637
2015   11        6     6  12    2.0484   379.3    4.371      19.610
2015   11        6     6  19    2.0480   379.0    4.375      19.583
2015   11        6     6  26    2.0478   378.7    4.378      19.555
2015   11        6     6  33    2.0476   378.4    4.382      19.528
2015   11        6     6  40    2.0473   378.1    4.385      19.500
2015   11        6     6  47    2.0471   377.7    4.389      19.473
2015   11        6     6  54    2.0469   377.4    4.393      19.445
2015   11        6     7   2    2.0468   377.1    4.396      19.418
2015   11        6     7   9    2.0466   376.8    4.400      19.391
2015   11        6     7  16    2.0465   376.5    4.404      19.363
2015   11        6     7  23    2.0464   376.2    4.408      19.336
2015   11        6     7  30    2.0464   375.8    4.412      19.309
2015   11        6     7  37    2.0463   375.5    4.416      19.282
2015   11        6     7  44    2.0463   375.2    4.420      19.255
2015   11        6     7  51    2.0464   374.9    4.425      19.228
2015   11        6     7  58    2.0465   374.6    4.429      19.202
2015   11        6     8   5    2.0466   374.3    4.434      19.176
2015   11        6     8  12    2.0467   373.9    4.439      19.150
2015   11        6     8  19    2.0468   373.6    4.443      19.124
2015   11        6     8  26    2.0471   373.3    4.449      19.099
2015   11        6     8  33    2.0474   373.0    4.454      19.074
2015   11        6     8  40    2.0478   372.7    4.459      19.050
2015   11        6     8  48    2.0481   372.4    4.465      19.026
2015   11        6     8  55    2.0485   372.0    4.471      19.003
2015   11        6     9   2    2.0490   371.7    4.477      18.980
2015   11        6     9   9    2.0495   371.4    4.484      18.957
2015   11        6     9  16    2.0501   371.1    4.490      18.936
2015   11        6     9  23    2.0507   370.8    4.497      18.914
2015   11        6     9  30    2.0513   370.5    4.504      18.894
2015   11        6     9  37    2.0520   370.2    4.512      18.874
2015   11        6     9  44    2.0528   369.9    4.519      18.854
2015   11        6     9  51    2.0536   369.5    4.527      18.835
2015   11        6     9  58    2.0544   369.2    4.536      18.817
2015   11        6    10   5    2.0553   368.9    4.544      18.799
2015   11        6    10  12    2.0563   368.6    4.553      18.782
2015   11        6    10  19    2.0572   368.3    4.562      18.766
2015   11        6    10  26    2.0583   368.0    4.571      18.750
2015   11        6    10  33    2.0593   367.7    4.580      18.735
2015   11        6    10  40    2.0604   367.4    4.590      18.720
2015   11        6    10  47    2.0615   367.1    4.599      18.706
2015   11        6    10  54    2.0627   366.8    4.609      18.692
2015   11        6    11   2    2.0639   366.5    4.620      18.679
2015   11        6    11   9    2.0652   366.2    4.630      18.666
2015   11        6    11  16    2.0665   365.9    4.641      18.654
2015   11        6    11  23    2.0678   365.6    4.651      18.642
2015   11        6    11  30    2.0691   365.3    4.662      18.631
2015   11        6    11  37    2.0704   365.0    4.673      18.620
2015   11        6    11  44    2.0719   364.7    4.685      18.609
2015   11        6    11  51    2.0733   364.4    4.696      18.599
2015   11        6    11  58    2.0748   364.2    4.707      18.589
2015   11        6    12   5    2.0763   363.9    4.719      18.579
2015   11        6    12  12    2.0776   363.6    4.731      18.569
2015   11        6    12  19    2.0792   363.3    4.742      18.560
2015   11        6    12  26    2.0807   363.0    4.754      18.551
2015   11        6    12  33    2.0823   362.7    4.766      18.542
2015   11        6    12  40    2.0839   362.4    4.778      18.533
2015   11        6    12  47    2.0857   362.1    4.790      18.525
2015   11        6    12  54    2.0872   361.8    4.802      18.516
2015   11        6    13   1    2.0891   361.6    4.815      18.508
2015   11        6    13   8    2.0907   361.3    4.827      18.500
2015   11        6    13  16    2.0925   361.0    4.839      18.492
2015   11        6    13  23    2.0944   360.7    4.851      18.484
2015   11        6    13  30    2.0961   360.4    4.864      18.476
2015   11        6    13  37    2.0979   360.1    4.876      18.468
2015   11        6    13  44    2.0998   359.9    4.889      18.460
2015   11        6    13  51    2.1017   359.6    4.901      18.453
2015   11        6    13  58    2.1037   359.3    4.914      18.445
2015   11        6    14   5    2.1056   359.0    4.927      18.438
2015   11        6    14  12    2.1077   358.8    4.939      18.430
2015   11        6    14  19    2.1097   358.5    4.952      18.423
2015   11        6    14  26    2.1120   358.2    4.965      18.415
2015   11        6    14  33    2.1138   357.9    4.977      18.408
2015   11        6    14  40    2.1160   357.7    4.990      18.401
2015   11        6    14  47    2.1183   357.4    5.003      18.394
2015   11        6    14  54    2.1203   357.1    5.016      18.387
2015   11        6    15   2    2.1225   356.9    5.029      18.380
2015   11        6    15   9    2.1247   356.6    5.042      18.373
2015   11        6    15  16    2.1270   356.3    5.055      18.366
2015   11        6    15  23    2.1295   356.0    5.068      18.359
2015   11        6    15  30    2.1318   355.8    5.081      18.352
2015   11        6    15  37    2.1339   355.5    5.095      18.346
2015   11        6    15  44    2.1363   355.2    5.108      18.339
2015   11        6    15  51    2.1387   355.0    5.121      18.333
2015   11        6    15  58    2.1413   354.7    5.135      18.326
2015   11        6    16   5    2.1436   354.5    5.148      18.320
2015   11        6    16  12    2.1461   354.2    5.162      18.314
2015   11        6    16  19    2.1488   353.9    5.176      18.308
2015   11        6    16  26    2.1513   353.7    5.189      18.303
2015   11        6    16  33    2.1537   353.4    5.203      18.297
2015   11        6    16  40    2.1565   353.1    5.217      18.292
2015   11        6    16  47    2.1591   352.9    5.231      18.286
2015   11        6    16  55    2.1616   352.6    5.245      18.281
2015   11        6    17   2    2.1645   352.4    5.260      18.276
2015   11        6    17   9    2.1672   352.1    5.274      18.272
2015   11        6    17  16    2.1698   351.9    5.289      18.267
2015   11        6    17  23    2.1728   351.6    5.303      18.263
2015   11        6    17  30    2.1756   351.4    5.318      18.259
2015   11        6    17  37    2.1784   351.1    5.333      18.256
2015   11        6    17  44    2.1811   350.9    5.348      18.252
2015   11        6    17  51    2.1842   350.6    5.363      18.249
2015   11        6    17  58    2.1870   350.4    5.378      18.246
2015   11        6    18   5    2.1900   350.1    5.394      18.244
2015   11        6    18  12    2.1930   349.9    5.410      18.241
2015   11        6    18  19    2.1961   349.6    5.425      18.239
2015   11        6    18  26    2.1992   349.4    5.441      18.238
2015   11        6    18  33    2.2025   349.1    5.457      18.236
2015   11        6    18  40    2.2054   348.9    5.474      18.235
2015   11        6    18  47    2.2088   348.6    5.490      18.234
2015   11        6    18  54    2.2121   348.4    5.506      18.233
2015   11        6    19   1    2.2151   348.2    5.523      18.233
2015   11        6    19   9    2.2186   347.9    5.540      18.233
2015   11        6    19  16    2.2220   347.7    5.557      18.234
2015   11        6    19  23    2.2253   347.5    5.574      18.234
2015   11        6    19  30    2.2285   347.2    5.591      18.235
2015   11        6    19  37    2.2322   347.0    5.609      18.236
2015   11        6    19  44    2.2357   346.8    5.627      18.238
2015   11        6    19  51    2.2390   346.5    5.644      18.240
2015   11        6    19  58    2.2425   346.3    5.662      18.242
2015   11        6    20   5    2.2463   346.1    5.680      18.245
2015   11        6    20  12    2.2499   345.9    5.698      18.247
2015   11        6    20  19    2.2536   345.6    5.717      18.250
2015   11        6    20  26    2.2571   345.4    5.735      18.254
2015   11        6    20  33    2.2608   345.2    5.754      18.258
2015   11        6    20  40    2.2647   345.0    5.773      18.262
2015   11        6    20  47    2.2685   344.8    5.792      18.266
2015   11        6    20  54    2.2723   344.6    5.811      18.270
2015   11        6    21   1    2.2760   344.4    5.830      18.275
2015   11        6    21   8    2.2799   344.1    5.849      18.281
2015   11        6    21  16    2.2840   343.9    5.869      18.286
2015   11        6    21  23    2.2879   343.7    5.888      18.292
2015   11        6    21  30    2.2917   343.5    5.908      18.298
2015   11        6    21  37    2.2957   343.3    5.928      18.304
2015   11        6    21  44    2.2999   343.1    5.947      18.311
2015   11        6    21  51    2.3038   342.9    5.967      18.318
2015   11        6    21  58    2.3079   342.7    5.988      18.325
2015   11        6    22   5    2.3122   342.5    6.008      18.333
2015   11        6    22  12    2.3162   342.3    6.028      18.340
2015   11        6    22  19    2.3205   342.1    6.049      18.348
2015   11        6    22  26    2.3248   341.9    6.069      18.357
2015   11        6    22  33    2.3288   341.8    6.090      18.365
2015   11        6    22  40    2.3331   341.6    6.111      18.374
2015   11        6    22  47    2.3374   341.4    6.132      18.383
2015   11        6    22  54    2.3417   341.2    6.153      18.393
2015   11        6    23   2    2.3460   341.0    6.174      18.402
2015   11        6    23   9    2.3504   340.8    6.195      18.412
2015   11        6    23  16    2.3548   340.6    6.216      18.422
2015   11        6    23  23    2.3594   340.5    6.238      18.433
2015   11        6    23  30    2.3638   340.3    6.259      18.443
2015   11        6    23  37    2.3681   340.1    6.281      18.454
2015   11        6    23  44    2.3726   339.9    6.303      18.465
2015   11        6    23  51    2.3773   339.8    6.324      18.476
2015   11        6    23  58    2.3816   339.6    6.346      18.488
2015   11        7     0   5    2.3862   339.4    6.368      18.499
2015   11        7     0  12    2.3909   339.2    6.390      18.511
2015   11        7     0  19    2.3954   339.1    6.412      18.523
2015   11        7     0  26    2.4001   338.9    6.434      18.535
2015   11        7     0  33    2.4048   338.7    6.457      18.548
2015   11        7     0  40    2.4094   338.6    6.479      18.560
2015   11        7     0  47    2.4141   338.4    6.501      18.573
2015   11        7     0  54    2.4185   338.2    6.524      18.586
2015   11        7     1   1    2.4234   338.1    6.546      18.599
2015   11        7     1   9    2.4279   337.9    6.569      18.613
2015   11        7     1  16    2.4329   337.8    6.591      18.626
2015   11        7     1  23    2.4374   337.6    6.614      18.640
2015   11        7     1  30    2.4423   337.4    6.636      18.654
2015   11        7     1  37    2.4471   337.3    6.659      18.668
2015   11        7     1  44    2.4517   337.1    6.682      18.682
2015   11        7     1  51    2.4566   337.0    6.705      18.697
2015   11        7     1  58    2.4613   336.8    6.728      18.711
2015   11        7     2   5    2.4661   336.7    6.750      18.726
2015   11        7     2  12    2.4711   336.5    6.773      18.741
2015   11        7     2  19    2.4758   336.4    6.796      18.756
2015   11        7     2  26    2.4808   336.2    6.819      18.771
2015   11        7     2  33    2.4857   336.1    6.842      18.786
2015   11        7     2  40    2.4906   335.9    6.865      18.802
2015   11        7     2  47    2.4955   335.8    6.888      18.817
2015   11        7     2  54    2.5004   335.6    6.912      18.833
2015   11        7     3   1    2.5053   335.5    6.935      18.849
2015   11        7     3   8    2.5102   335.3    6.958      18.865
2015   11        7     3  15    2.5153   335.2    6.981      18.881
2015   11        7     3  22    2.5203   335.0    7.004      18.898
2015   11        7     3  30    2.5253   334.9    7.028      18.915
2015   11        7     3  37    2.5303   334.8    7.051      18.931
2015   11        7     3  44    2.5354   334.6    7.074      18.948
2015   11        7     3  51    2.5403   334.5    7.098      18.965
2015   11        7     3  58    2.5454   334.3    7.121      18.983
2015   11        7     4   5    2.5507   334.2    7.145      19.000
2015   11        7     4  12    2.5556   334.1    7.168      19.018
2015   11        7     4  19    2.5608   333.9    7.192      19.036
2015   11        7     4  26    2.5660   333.8    7.215      19.054
2015   11        7     4  33    2.5713   333.7    7.239      19.072
2015   11        7     4  40    2.5764   333.5    7.263      19.091
2015   11        7     4  47    2.5818   333.4    7.286      19.110
2015   11        7     4  54    2.5871   333.3    7.310      19.128
2015   11        7     5   1    2.5924   333.2    7.334      19.148
2015   11        7     5   8    2.5977   333.0    7.358      19.167
2015   11        7     5  15    2.6029   332.9    7.382      19.186
2015   11        7     5  23    2.6083   332.8    7.406      19.206
2015   11        7     5  30    2.6137   332.7    7.430      19.226
2015   11        7     5  37    2.6193   332.6    7.454      19.247
2015   11        7     5  44    2.6246   332.4    7.479      19.267
2015   11        7     5  51    2.6301   332.3    7.503      19.288
2015   11        7     5  58    2.6356   332.2    7.527      19.310
2015   11        7     6   5    2.6413   332.1    7.552      19.331
2015   11        7     6  12    2.6467   332.0    7.576      19.354
2015   11        7     6  19    2.6525   331.9    7.601      19.377
2015   11        7     6  26    2.6580   331.7    7.626      19.401
2015   11        7     6  33    2.6638   331.6    7.651      19.426
2015   11        7     6  40    2.6696   331.5    7.676      19.453
2015   11        7     6  47    2.6754   331.4    7.702      19.482
2015   11        7     6  54    2.6812   331.3    7.728      19.516
2015   11        7     7   1    2.6873   331.2    7.755      19.555
2015   11        7     7   8    2.6936   331.2    7.782      19.602
2015   11        7     7  16    2.7002   331.1    7.811      19.660
2015   11        7     7  23    2.7070   331.0    7.841      19.736
2015   11        7     7  30    2.7142   331.0    7.874      19.837
2015   11        7     7  37    2.7222   331.0    7.910      19.975
2015   11        7     7  44    2.7309   331.0    7.949      20.167
2015   11        7     7  51    2.7407   331.1    7.994      20.438
2015   11        7     7  58    2.7521   331.2    8.047      20.823
2015   11        7     8   5    2.7657   331.5    8.110      21.376
2015   11        7     8  12    2.7820   331.9    8.188      22.168
2015   11        7     8  19    2.8023   332.5    8.285      23.305
2015   11        7     8  26    2.8282   333.5    8.408      24.921
2015   11        7     8  33    2.8613   334.8    8.566      27.211
2015   11        7     8  40    2.9041   336.7    8.770      30.392
2015   11        7     8  47    2.9598   339.3    9.035      34.767
2015   11        7     8  54    3.0326   342.7    9.377      40.625
2015   11        7     9   1    3.1283   347.1    9.818      48.318
2015   11        7     9   8    3.2521   352.6   10.379      58.013
2015   11        7     9  15    3.4130   359.4   11.093      69.997
2015   11        7     9  22    3.6181   367.2   11.987      84.174
2015   11        7     9  30    3.8788   376.1   13.094     100.425
2015   11        7     9  37    4.2062   385.3   14.449     117.897
2015   11        7     9  44    4.6092   395.5   16.079     136.934
2015   11        7     9  51    5.0827   405.6   17.995     156.330
2015   11        7     9  58    5.6164   416.0   20.166     175.543
2015   11        7    10   5    6.1895   425.9   22.512     193.294
2015   11        7    10  12    6.7915   435.0   24.990     209.231
2015   11        7    10  19    7.3970   443.1   27.515     222.978
2015   11        7    10  26    7.9991   450.3   30.043     234.713
2015   11        7    10  33    8.5783   456.5   32.501     244.481
2015   11        7    10  40    9.1248   461.9   34.863     252.568
2015   11        7    10  47    9.6200   466.6   37.045     259.198
2015   11        7    10  54   10.0571   470.6   39.037     264.364
2015   11        7    11   1   10.4340   473.9   40.781     268.192
2015   11        7    11   8   10.7580   476.6   42.305     270.846
2015   11        7    11  15   11.0305   478.7   43.613     272.557
2015   11        7    11  22   11.2583   480.4   44.727     273.551
2015   11        7    11  29   11.4426   481.8   45.657     273.950
2015   11        7    11  36   11.5904   482.8   46.423     273.899
2015   11        7    11  43   11.7066   483.6   47.039     273.497
2015   11        7    11  51   11.7958   484.1   47.527     272.843
2015   11        7    11  58   11.8617   484.5   47.901     272.005
2015   11        7    12   5   11.9080   484.8   48.174     271.063
2015   11        7    12  12   11.9376   484.9   48.358     270.062
2015   11        7    12  19   11.9534   484.9   48.467     269.028
2015   11        7    12  26   11.9570   484.9   48.510     267.982
2015   11        7    12  33   11.9505   484.8   48.497     266.922
2015   11        7    12  40   11.9351   484.7   48.436     265.834
2015   11        7    12  47   11.9110   484.5   48.333     264.686
2015   11        7    12  54   11.8787   484.3   48.192     263.462
2015   11        7    13   1   11.8379   484.1   48.016     262.126
2015   11        7    13   8   11.7884   483.8   47.807     260.661
2015   11        7    13  15   11.7295   483.4   47.565     259.024
2015   11        7    13  22   11.6610   482.9   47.289     257.195
2015   11        7    13  29   11.5819   482.4   46.978     255.149
2015   11        7    13  37   11.4924   481.8   46.632     252.869
2015   11        7    13  44   11.3917   481.1   46.250     250.322
2015   11        7    13  51   11.2807   480.3   45.834     247.531
2015   11        7    13  58   11.1594   479.4   45.383     244.500
2015   11        7    14   5   11.0293   478.3   44.903     241.283
2015   11        7    14  12   10.8912   477.2   44.397     237.933
2015   11        7    14  19   10.7463   476.1   43.870     234.513
2015   11        7    14  26   10.5962   475.0   43.327     231.052
2015   11        7    14  33   10.4434   473.8   42.777     227.598
2015   11        7    14  40   10.2873   472.7   42.221     224.163
2015   11        7    14  47   10.1314   471.5   41.666     220.788
2015   11        7    14  54    9.9741   470.4   41.113     217.495
2015   11        7    15   1    9.8186   469.4   40.565     214.309
2015   11        7    15   8    9.6630   468.4   40.022     211.236
2015   11        7    15  15    9.5097   467.5   39.488     208.283
2015   11        7    15  22    9.3578   466.6   38.960     205.416
2015   11        7    15  29    9.2082   465.7   38.441     202.639
2015   11        7    15  37    9.0606   464.8   37.928     199.929
2015   11        7    15  44    8.9142   464.0   37.421     197.301
2015   11        7    15  51    8.7700   463.2   36.919     194.735
2015   11        7    15  58    8.6271   462.3   36.423     192.245
2015   11        7    16   5    8.4858   461.5   35.930     189.813
2015   11        7    16  12    8.3468   460.7   35.445     187.454
2015   11        7    16  19    8.2089   459.9   34.962     185.150
2015   11        7    16  26    8.0733   459.2   34.486     182.919
2015   11        7    16  33    7.9387   458.4   34.012     180.740
2015   11        7    16  40    7.8063   457.6   33.545     178.632
2015   11        7    16  47    7.6756   456.9   33.080     176.574
2015   11        7    16  54    7.5457   456.1   32.621     174.583
2015   11        7    17   1    7.4181   455.4   32.164     172.640
2015   11        7    17   8    7.2914   454.7   31.713     170.761
2015   11        7    17  15    7.1669   454.0   31.264     168.926
2015   11        7    17  22    7.0431   453.3   30.820     167.152
2015   11        7    17  29    6.9210   452.6   30.378     165.420
2015   11        7    17  36    6.8016   451.9   29.941     163.745
2015   11        7    17  43    6.6825   451.2   29.505     162.111
2015   11        7    17  50    6.5653   450.5   29.074     160.530
2015   11        7    17  57    6.4484   449.9   28.644     158.990
2015   11        7    18   4    6.3343   449.2   28.218     157.501
2015   11        7    18  12    6.2213   448.6   27.793     156.051
2015   11        7    18  19    6.1111   447.9   27.372     154.652
2015   11        7    18  26    6.0013   447.3   26.951     153.291
2015   11        7    18  33    5.8937   446.7   26.534     151.980
2015   11        7    18  40    5.7873   446.1   26.118     150.707
2015   11        7    18  47    5.6831   445.4   25.705     149.482
2015   11        7    18  54    5.5803   444.8   25.292     148.294
2015   11        7    19   1    5.4798   444.2   24.883     147.154
2015   11        7    19   8    5.3809   443.6   24.474     146.050
2015   11        7    19  15    5.2843   443.0   24.069     144.991
2015   11        7    19  22    5.1893   442.4   23.665     143.967
2015   11        7    19  29    5.0968   441.8   23.264     142.985
2015   11        7    19  36    5.0060   441.3   22.865     142.036
2015   11        7    19  43    4.9169   440.7   22.468     141.125
2015   11        7    19  50    4.8312   440.1   22.073     140.245
2015   11        7    19  57    4.7465   439.5   21.682     139.399
2015   11        7    20   5    4.6651   439.0   21.293     138.582
2015   11        7    20  12    4.5854   438.4   20.907     137.794
2015   11        7    20  19    4.5078   437.9   20.523     137.032
2015   11        7    20  26    4.4326   437.4   20.142     136.294
2015   11        7    20  33    4.3595   436.9   19.764     135.579
2015   11        7    20  40    4.2888   436.4   19.390     134.887
2015   11        7    20  47    4.2204   435.9   19.018     134.213
2015   11        7    20  54    4.1542   435.4   18.650     133.559
2015   11        7    21   1    4.0900   434.9   18.286     132.921
2015   11        7    21   8    4.0287   434.5   17.926     132.301
2015   11        7    21  15    3.9695   434.0   17.569     131.696
2015   11        7    21  22    3.9125   433.6   17.216     131.108
2015   11        7    21  29    3.8579   433.1   16.868     130.533
2015   11        7    21  36    3.8055   432.7   16.524     129.973
2015   11        7    21  43    3.7555   432.3   16.184     129.426
2015   11        7    21  50    3.7077   431.8   15.849     128.894
2015   11        7    21  58    3.6623   431.4   15.519     128.374
2015   11        7    22   5    3.6190   431.0   15.195     127.869
2015   11        7    22  12    3.5780   430.5   14.875     127.377
2015   11        7    22  19    3.5394   430.1   14.560     126.899
2015   11        7    22  26    3.5027   429.7   14.251     126.436
2015   11        7    22  33    3.4684   429.3   13.948     125.988
2015   11        7    22  40    3.4358   428.8   13.649     125.553
2015   11        7    22  47    3.4055   428.4   13.357     125.134
2015   11        7    22  54    3.3773   428.0   13.070     124.729
2015   11        7    23   1    3.3509   427.5   12.789     124.341
2015   11        7    23   8    3.3266   427.1   12.513     123.966
2015   11        7    23  15    3.3040   426.6   12.244     123.610
2015   11        7    23  22    3.2833   426.2   11.979     123.267
2015   11        7    23  29    3.2642   425.7   11.720     122.942
2015   11        7    23  36    3.2468   425.3   11.466     122.632
2015   11        7    23  43    3.2310   424.8   11.218     122.339
2015   11        7    23  50    3.2167   424.4   10.974     122.061
2015   11        7    23  57    3.2037   423.9   10.737     121.799
2015   11        8     0   4    3.1928   423.4   10.503     121.552
2015   11        8     0  11    3.1818   423.0   10.276     121.321
2015   11        8     0  19    3.1735   422.5   10.052     121.105
2015   11        8     0  26    3.1655   422.0    9.834     120.903
2015   11        8     0  33    3.1582   421.6    9.619     120.715
2015   11        8     0  40    3.1530   421.1    9.410     120.541
2015   11        8     0  47    3.1484   420.6    9.204     120.380
2015   11        8     0  54    3.1447   420.1    9.003     120.231
2015   11        8     1   1    3.1421   419.6    8.805     120.094
2015   11        8     1   8    3.1403   419.2    8.612     119.968
2015   11        8     1  15    3.1397   418.7    8.423     119.852
2015   11        8     1  22    3.1391   418.2    8.237     119.746
2015   11        8     1  29    3.1405   417.7    8.054     119.648
2015   11        8     1  36    3.1438   417.2    7.876     119.559
2015   11        8     1  43    3.1474   416.8    7.700     119.475
2015   11        8     1  50    3.1520   416.3    7.528     119.398
2015   11        8     1  57    3.1569   415.8    7.359     119.325
2015   11        8     2   4    3.1652   415.3    7.193     119.255
2015   11        8     2  11    3.1738   414.8    7.030     119.188
2015   11        8     2  18    3.1837   414.4    6.870     119.122
2015   11        8     2  25    3.1952   413.9    6.713     119.055
2015   11        8     2  32    3.2065   413.4    6.558     118.987
2015   11        8     2  39    3.2211   413.0    6.406     118.916
2015   11        8     2  47    3.2387   412.5    6.257     118.840
2015   11        8     2  54    3.2550   412.1    6.111     118.759
2015   11        8     3   1    3.2743   411.6    5.967     118.671
2015   11        8     3   8    3.2959   411.2    5.825     118.573
2015   11        8     3  15    3.3206   410.7    5.686     118.465
2015   11        8     3  22    3.3457   410.3    5.549     118.345
2015   11        8     3  29    3.3721   409.9    5.414     118.211
2015   11        8     3  36    3.3986   409.5    5.282     118.062
2015   11        8     3  43    3.4283   409.0    5.152     117.897
2015   11        8     3  50    3.4617   408.6    5.024     117.713
2015   11        8     3  57    3.4928   408.2    4.899     117.510
2015   11        8     4   4    3.5291   407.8    4.776     117.285
2015   11        8     4  11    3.5646   407.5    4.655     117.037
2015   11        8     4  18    3.6013   407.1    4.536     116.764
2015   11        8     4  25    3.6387   406.7    4.419     116.465
2015   11        8     4  33    3.6770   406.4    4.304     116.136
2015   11        8     4  40    3.7157   406.0    4.192     115.776
2015   11        8     4  47    3.7548   405.7    4.081     115.381
2015   11        8     4  54    3.7939   405.4    3.973     114.951
2015   11        8     5   1    3.8331   405.0    3.867     114.481
2015   11        8     5   8    3.8719   404.8    3.763     113.972
2015   11        8     5  15    3.9103   404.5    3.660     113.419
2015   11        8     5  22    3.9482   404.2    3.560     112.822
2015   11        8     5  29    3.9852   404.0    3.462     112.175
2015   11        8     5  36    4.0211   403.8    3.366     111.480
2015   11        8     5  43    4.0560   403.6    3.271     110.725
2015   11        8     5  50    4.0896   403.4    3.179     109.912
2015   11        8     5  57    4.1210   403.2    3.088     109.034
2015   11        8     6   4    4.1531   403.1    3.000     108.096
2015   11        8     6  11    4.1820   403.0    2.913     107.091
2015   11        8     6  18    4.2112   403.0    2.828     106.022
2015   11        8     6  25    4.2380   402.9    2.745     104.877
2015   11        8     6  32    4.2633   402.9    2.665     103.658
2015   11        8     6  40    4.2871   403.0    2.585     102.356
2015   11        8     6  47    4.3095   403.0    2.508     100.983
2015   11        8     6  54    4.3299   403.1    2.433      99.528
2015   11        8     7   1    4.3494   403.3    2.359      98.002
2015   11        8     7   8    4.3680   403.5    2.287      96.396
2015   11        8     7  15    4.3839   403.7    2.218      94.726
2015   11        8     7  22    4.3996   404.0    2.149      92.983
2015   11        8     7  29    4.4135   404.3    2.083      91.185
2015   11        8     7  36    4.4254   404.6    2.019      89.316
2015   11        8     7  43    4.4365   405.1    1.956      87.396
2015   11        8     7  50    4.4463   405.5    1.895      85.408
2015   11        8     7  57    4.4539   406.0    1.836      83.375
2015   11        8     8   4    4.4606   406.5    1.778      81.283
2015   11        8     8  11    4.4656   407.1    1.723      79.163
2015   11        8     8  18    4.4689   407.7    1.669      76.996
2015   11        8     8  25    4.4706   408.4    1.617      74.805
2015   11        8     8  32    4.4702   409.1    1.566      72.574
2015   11        8     8  39    4.4679   409.9    1.518      70.326
2015   11        8     8  46    4.4633   410.7    1.471      68.046
2015   11        8     8  53    4.4570   411.6    1.426      65.759
2015   11        8     9   0    4.4471   412.5    1.382      63.451
2015   11        8     9   7    4.4352   413.4    1.340      61.146
2015   11        8     9  14    4.4210   414.4    1.300      58.832
2015   11        8     9  21    4.4033   415.4    1.261      56.532
2015   11        8     9  29    4.3822   416.5    1.225      54.235
2015   11        8     9  36    4.3564   417.6    1.189      51.965
2015   11        8     9  43    4.3275   418.7    1.156      49.710
2015   11        8     9  50    4.2971   419.9    1.124      47.495
2015   11        8     9  57    4.2594   421.1    1.093      45.309
2015   11        8    10   4    4.2221   422.4    1.064      43.175
2015   11        8    10  11    4.1772   423.6    1.037      41.083
2015   11        8    10  18    4.1313   424.9    1.011      39.054
2015   11        8    10  25    4.0814   426.2    1.000      37.080
2015   11        8    10  32    4.0290   427.5    1.000      35.178
2015   11        8    10  39    3.9756   428.9    1.000      33.342
2015   11        8    10  46    3.9165   430.2    1.000      31.587
2015   11        8    10  53    3.8594   431.6    1.000      29.908
2015   11        8    11   0    3.7993   432.9    1.000      28.314
2015   11        8    11   7    3.7357   434.2    1.000      26.801
2015   11        8    11  15    3.6768   435.6    1.000      25.377
2015   11        8    11  22    3.6137   436.8    1.000      24.039
2015   11        8    11  29    3.5561   438.1    1.000      22.792
2015   11        8    11  36    3.4973   439.3    1.000      21.631
2015   11        8    11  43    3.4380   440.5    1.000      20.559
2015   11        8    11  50    3.3826   441.6    1.000      19.571
2015   11        8    11  57    3.3294   442.6    1.000      18.669
2015   11        8    12   4    3.2786   443.7    1.000      17.847
2015   11        8    12  11    3.2324   444.6    1.000      17.103
2015   11        8    12  18    3.1867   445.5    1.000      16.431
2015   11        8    12  25    3.1438   446.4    1.000      15.830
2015   11        8    12  32    3.1033   447.1    1.000      15.293
2015   11        8    12  39    3.0639   447.9    1.000      14.818
2015   11        8    12  46    3.0287   448.6    1.000      14.398
2015   11        8    12  53    2.9960   449.3    1.000      14.030
2015   11        8    13   0    2.9656   449.9    1.000      13.706
2015   11        8    13   7    2.9387   450.5    1.000      13.424
2015   11        8    13  14    2.9125   451.1    1.000      13.178
2015   11        8    13  22    2.8882   451.7    1.000      12.964
2015   11        8    13  29    2.8646   452.2    1.000      12.778
2015   11        8    13  36    2.8439   452.7    1.000      12.617
2015   11        8    13  43    2.8249   453.1    1.000      12.475
2015   11        8    13  50    2.8073   453.5    1.000      12.352
2015   11        8    13  57    2.7912   453.9    1.000      12.245
2015   11        8    14   4    2.7763   454.3    1.000      12.152
2015   11        8    14  11    2.7626   454.7    1.000      12.070
2015   11        8    14  18    2.7500   454.9    1.000      12.000
2015   11        8    14  25    2.7394   455.2    1.000      11.940
2015   11        8    14  32    2.7280   455.4    1.000      11.890
2015   11        8    14  39    2.7191   455.5    1.000      11.849
2015   11        8    14  46    2.7103   455.6    1.000      11.817
2015   11        8    14  53    2.7016   455.6    1.000      11.794
2015   11        8    15   0    2.6943   455.6    1.000      11.782
2015   11        8    15   7    2.6883   455.5    1.000      11.779
2015   11        8    15  14    2.6823   455.3    1.000      11.785
2015   11        8    15  21    2.6770   455.1    1.000      11.802
2015   11        8    15  28    2.6721   454.9    1.000      11.829
2015   11        8    15  35    2.6678   454.6    1.000      11.865
2015   11        8    15  42    2.6635   454.3    1.000      11.911
2015   11        8    15  49    2.6602   453.9    1.000      11.965
2015   11        8    15  56    2.6573   453.6    1.000      12.028
2015   11        8    16   3    2.6548   453.1    1.000      12.100
2015   11        8    16  11    2.6526   452.7    1.019      12.180
2015   11        8    16  18    2.6508   452.2    1.041      12.267
2015   11        8    16  25    2.6495   451.8    1.064      12.360
2015   11        8    16  32    2.6483   451.3    1.087      12.459
2015   11        8    16  39    2.6471   450.8    1.112      12.560
2015   11        8    16  46    2.6465   450.3    1.137      12.666
2015   11        8    16  53    2.6460   449.8    1.162      12.773
2015   11        8    17   0    2.6460   449.4    1.188      12.883
2015   11        8    17   7    2.6458   448.9    1.214      12.994
2015   11        8    17  14    2.6461   448.4    1.241      13.106
2015   11        8    17  21    2.6463   447.9    1.268      13.218
2015   11        8    17  28    2.6469   447.5    1.295      13.329
2015   11        8    17  35    2.6476   447.0    1.323      13.439
2015   11        8    17  42    2.6484   446.6    1.350      13.547
2015   11        8    17  49    2.6493   446.2    1.378      13.652
2015   11        8    17  56    2.6505   445.7    1.405      13.754
2015   11        8    18   3    2.6516   445.3    1.433      13.854
2015   11        8    18  11    2.6530   444.9    1.461      13.952
2015   11        8    18  18    2.6544   444.5    1.488      14.048
2015   11        8    18  25    2.6559   444.1    1.516      14.141
2015   11        8    18  32    2.6575   443.7    1.543      14.231
2015   11        8    18  39    2.6592   443.3    1.570      14.319
2015   11        8    18  46    2.6610   443.0    1.597      14.403
2015   11        8    18  53    2.6629   442.6    1.624      14.486
2015   11        8    19   0    2.6647   442.2    1.651      14.566
2015   11        8    19   7    2.6667   441.9    1.678      14.645
2015   11        8    19  14    2.6688   441.5    1.704      14.721
2015   11        8    19  21    2.6709   441.2    1.731      14.796
2015   11        8    19  28    2.6731   440.8    1.757      14.869
2015   11        8    19  35    2.6752   440.5    1.784      14.941
2015   11        8    19  42    2.6774   440.2    1.810      15.012
2015   11        8    19  49    2.6797   439.9    1.837      15.082
2015   11        8    19  56    2.6820   439.5    1.863      15.151
2015   11        8    20   3    2.6843   439.2    1.889      15.220
2015   11        8    20  11    2.6866   438.9    1.916      15.287
2015   11        8    20  18    2.6890   438.6    1.942      15.355
2015   11        8    20  25    2.6913   438.3    1.969      15.422
2015   11        8    20  32    2.6937   438.0    1.995      15.490
2015   11        8    20  39    2.6961   437.7    2.022      15.557
2015   11        8    20  46    2.6984   437.4    2.049      15.625
2015   11        8    20  53    2.7008   437.1    2.077      15.694
2015   11        8    21   0    2.7032   436.7    2.104      15.763
2015   11        8    21   7    2.7054   436.4    2.132      15.832
2015   11        8    21  14    2.7079   436.1    2.160      15.902
2015   11        8    21  21    2.7102   435.8    2.189      15.973
2015   11        8    21  28    2.7125   435.5    2.218      16.046
2015   11        8    21  35    2.7149   435.2    2.247      16.118
2015   11        8    21  42    2.7172   434.8    2.277      16.192
2015   11        8    21  49    2.7196   434.5    2.307      16.267
2015   11        8    21  56    2.7220   434.2    2.338      16.342
2015   11        8    22   3    2.7243   433.9    2.369      16.419
2015   11        8    22  10    2.7267   433.6    2.400      16.496
2015   11        8    22  17    2.7290   433.2    2.433      16.574
2015   11        8    22  24    2.7313   432.9    2.466      16.653
2015   11        8    22  31    2.7339   432.6    2.499      16.733
2015   11        8    22  38    2.7363   432.3    2.533      16.813
2015   11        8    22  45    2.7386   431.9    2.567      16.894
2015   11        8    22  52    2.7410   431.6    2.603      16.976
2015   11        8    22  59    2.7435   431.3    2.638      17.058
2015   11        8    23   7    2.7461   431.0    2.675      17.141
2015   11        8    23  14    2.7485   430.7    2.711      17.224
2015   11        8    23  21    2.7510   430.3    2.749      17.307
2015   11        8    23  28    2.7537   430.0    2.787      17.391
2015   11        8    23  35    2.7563   429.7    2.825      17.475
2015   11        8    23  42    2.7589   429.4    2.864      17.559
2015   11        8    23  49    2.7614   429.1    2.903      17.644
2015   11        8    23  56    2.7641   428.8    2.942      17.729
2015   11        9     0   3    2.7669   428.5    2.983      17.814
2015   11        9     0  10    2.7695   428.2    3.023      17.900
2015   11        9     0  17    2.7722   427.8    3.063      17.986
2015   11        9     0  24    2.7750   427.5    3.104      18.072
2015   11        9     0  31    2.7779   427.2    3.145      18.159
2015   11        9     0  38    2.7806   426.9    3.186      18.246
2015   11        9     0  45    2.7836   426.6    3.228      18.334
2015   11        9     0  52    2.7863   426.3    3.269      18.422
2015   11        9     0  59    2.7892   426.0    3.311      18.511
2015   11        9     1   6    2.7923   425.8    3.353      18.600
2015   11        9     1  13    2.7951   425.5    3.394      18.691
2015   11        9     1  21    2.7982   425.2    3.436      18.782
2015   11        9     1  28    2.8012   424.9    3.478      18.874
2015   11        9     1  35    2.8041   424.6    3.519      18.966
2015   11        9     1  42    2.8072   424.3    3.561      19.061
2015   11        9     1  49    2.8103   424.0    3.602      19.155
2015   11        9     1  56    2.8135   423.8    3.644      19.252
2015   11        9     2   3    2.8165   423.5    3.685      19.349
2015   11        9     2  10    2.8198   423.2    3.726      19.447
2015   11        9     2  17    2.8230   422.9    3.768      19.547
2015   11        9     2  24    2.8262   422.7    3.809      19.648
2015   11        9     2  31    2.8295   422.4    3.850      19.750
2015   11        9     2  38    2.8327   422.1    3.891      19.854
2015   11        9     2  45    2.8361   421.9    3.931      19.958
2015   11        9     2  52    2.8394   421.6    3.972      20.065
2015   11        9     2  59    2.8428   421.3    4.013      20.172
2015   11        9     3   6    2.8462   421.1    4.054      20.282
2015   11        9     3  14    2.8497   420.8    4.094      20.392
2015   11        9     3  21    2.8531   420.6    4.135      20.505
2015   11        9     3  28    2.8566   420.3    4.176      20.618
2015   11        9     3  35    2.8602   420.0    4.217      20.733
2015   11        9     3  42    2.8638   419.8    4.257      20.849
2015   11        9     3  49    2.8674   419.5    4.299      20.967
2015   11        9     3  56    2.8711   419.3    4.340      21.086
2015   11        9     4   3    2.8748   419.1    4.381      21.207
2015   11        9     4  10    2.8786   418.8    4.422      21.329
2015   11        9     4  17    2.8824   418.6    4.464      21.452
2015   11        9     4  24    2.8863   418.3    4.506      21.576
2015   11        9     4  31    2.8901   418.1    4.548      21.702
2015   11        9     4  38    2.8941   417.9    4.590      21.829
2015   11        9     4  45    2.8981   417.6    4.633      21.958
2015   11        9     4  52    2.9022   417.4    4.675      22.087
2015   11        9     4  59    2.9063   417.2    4.719      22.218
2015   11        9     5   6    2.9104   417.0    4.762      22.349
2015   11        9     5  13    2.9147   416.7    4.805      22.482
2015   11        9     5  20    2.9190   416.5    4.849      22.615
2015   11        9     5  27    2.9233   416.3    4.894      22.750
2015   11        9     5  34    2.9277   416.1    4.938      22.886
2015   11        9     5  41    2.9322   415.9    4.983      23.023
2015   11        9     5  48    2.9367   415.7    5.028      23.160
2015   11        9     5  55    2.9414   415.5    5.074      23.299
2015   11        9     6   2    2.9460   415.3    5.119      23.438
2015   11        9     6  10    2.9508   415.1    5.165      23.578
2015   11        9     6  17    2.9557   414.9    5.211      23.718
2015   11        9     6  24    2.9607   414.7    5.258      23.861
2015   11        9     6  31    2.9657   414.5    5.305      24.003
2015   11        9     6  38    2.9708   414.3    5.352      24.146
2015   11        9     6  45    2.9760   414.1    5.399      24.290
2015   11        9     6  52    2.9814   413.9    5.447      24.435
2015   11        9     6  59    2.9867   413.7    5.494      24.580
2015   11        9     7   6    2.9923   413.6    5.542      24.726
2015   11        9     7  13    2.9978   413.4    5.590      24.873
2015   11        9     7  20    3.0037   413.2    5.638      25.020
2015   11        9     7  27    3.0095   413.0    5.686      25.168
2015   11        9     7  34    3.0155   412.9    5.735      25.317
2015   11        9     7  41    3.0215   412.7    5.784      25.465
2015   11        9     7  48    3.0278   412.5    5.832      25.615
2015   11        9     7  55    3.0341   412.4    5.881      25.765
2015   11        9     8   2    3.0406   412.2    5.930      25.916
2015   11        9     8   9    3.0471   412.0    5.979      26.067
2015   11        9     8  16    3.0537   411.9    6.028      26.219
2015   11        9     8  23    3.0605   411.7    6.077      26.371
2015   11        9     8  31    3.0678   411.6    6.126      26.524
2015   11        9     8  38    3.0747   411.4    6.175      26.677
2015   11        9     8  45    3.0823   411.3    6.225      26.831
2015   11        9     8  52    3.0897   411.1    6.274      26.986
2015   11        9     8  59    3.0971   411.0    6.324      27.141
2015   11        9     9   6    3.1048   410.9    6.373      27.296
2015   11        9     9  13    3.1131   410.7    6.422      27.453
2015   11        9     9  20    3.1212   410.6    6.472      27.609
2015   11        9     9  27    3.1295   410.5    6.522      27.766
2015   11        9     9  34    3.1379   410.3    6.571      27.924
2015   11        9     9  41    3.1462   410.2    6.621      28.082
2015   11        9     9  48    3.1553   410.1    6.670      28.240
2015   11        9     9  55    3.1643   409.9    6.720      28.399
2015   11        9    10   2    3.1734   409.8    6.770      28.558
2015   11        9    10   9    3.1827   409.7    6.820      28.718
2015   11        9    10  16    3.1922   409.6    6.869      28.878
2015   11        9    10  23    3.2019   409.5    6.919      29.039
2015   11        9    10  31    3.2117   409.4    6.969      29.200
2015   11        9    10  38    3.2218   409.3    7.019      29.361
2015   11        9    10  45    3.2315   409.1    7.069      29.522
2015   11        9    10  52    3.2420   409.0    7.119      29.684
2015   11        9    10  59    3.2530   408.9    7.169      29.847
2015   11        9    11   6    3.2639   408.8    7.219      30.009
2015   11        9    11  13    3.2748   408.7    7.269      30.172
2015   11        9    11  20    3.2861   408.6    7.319      30.335
2015   11        9    11  27    3.2974   408.6    7.369      30.498
2015   11        9    11  34    3.3085   408.5    7.419      30.662
2015   11        9    11  41    3.3202   408.4    7.469      30.826
2015   11        9    11  48    3.3328   408.3    7.519      30.990
2015   11        9    11  55    3.3449   408.2    7.569      31.154
2015   11        9    12   2    3.3568   408.1    7.619      31.318
2015   11        9    12   9    3.3699   408.0    7.669      31.482
2015   11        9    12  16    3.3828   408.0    7.719      31.647
2015   11        9    12  23    3.3958   407.9    7.769      31.811
2015   11        9    12  30    3.4085   407.8    7.819      31.976
2015   11        9    12  37    3.4226   407.7    7.869      32.140
2015   11        9    12  44    3.4357   407.7    7.920      32.305
2015   11        9    12  51    3.4502   407.6    7.970      32.470
2015   11        9    12  58    3.4645   407.5    8.020      32.635
2015   11        9    13   5    3.4782   407.5    8.070      32.800
2015   11        9    13  12    3.4936   407.4    8.121      32.965
2015   11        9    13  19    3.5084   407.4    8.171      33.130
2015   11        9    13  27    3.5230   407.3    8.222      33.296
2015   11        9    13  34    3.5390   407.3    8.273      33.461
2015   11        9    13  41    3.5547   407.2    8.324      33.627
2015   11        9    13  48    3.5706   407.2    8.374      33.792
2015   11        9    13  55    3.5860   407.1    8.426      33.959
2015   11        9    14   2    3.6032   407.1    8.477      34.124
2015   11        9    14   9    3.6199   407.0    8.528      34.290
2015   11        9    14  16    3.6368   407.0    8.580      34.455
2015   11        9    14  23    3.6534   406.9    8.632      34.622
2015   11        9    14  30    3.6716   406.9    8.684      34.787
2015   11        9    14  37    3.6896   406.9    8.737      34.953
2015   11        9    14  44    3.7067   406.8    8.790      35.118
2015   11        9    14  51    3.7260   406.8    8.843      35.285
2015   11        9    14  58    3.7446   406.8    8.896      35.451
2015   11        9    15   5    3.7636   406.8    8.949      35.619
2015   11        9    15  12    3.7828   406.8    9.002      35.787
2015   11        9    15  19    3.8023   406.8    9.055      35.957
2015   11        9    15  26    3.8210   406.7    9.108      36.128
2015   11        9    15  33    3.8410   406.7    9.160      36.301
2015   11        9    15  40    3.8619   406.7    9.212      36.475
2015   11        9    15  47    3.8822   406.8    9.264      36.651
2015   11        9    15  54    3.9017   406.8    9.315      36.828
2015   11        9    16   2    3.9231   406.8    9.366      37.006
2015   11        9    16   9    3.9437   406.8    9.416      37.185
2015   11        9    16  16    3.9645   406.8    9.465      37.365
2015   11        9    16  23    3.9852   406.8    9.514      37.545
2015   11        9    16  30    4.0061   406.8    9.562      37.725
2015   11        9    16  37    4.0270   406.8    9.610      37.905
2015   11        9    16  44    4.0480   406.9    9.658      38.084
2015   11        9    16  51    4.0690   406.9    9.705      38.263
2015   11        9    16  58    4.0901   406.9    9.751      38.440
2015   11        9    17   5    4.1112   406.9    9.797      38.617
2015   11        9    17  12    4.1317   407.0    9.843      38.792
2015   11        9    17  19    4.1529   407.0    9.888      38.965
2015   11        9    17  26    4.1742   407.0    9.933      39.137
2015   11        9    17  33    4.1962   407.1    9.978      39.308
2015   11        9    17  40    4.2169   407.1   10.023      39.477
2015   11        9    17  47    4.2383   407.1   10.067      39.645
2015   11        9    17  55    4.2598   407.2   10.111      39.812
2015   11        9    18   2    4.2813   407.2   10.155      39.977
2015   11        9    18   9    4.3030   407.3   10.199      40.142
2015   11        9    18  16    4.3246   407.3   10.242      40.304
2015   11        9    18  23    4.3464   407.4   10.286      40.466
2015   11        9    18  30    4.3688   407.4   10.330      40.626
2015   11        9    18  37    4.3908   407.5   10.374      40.786
2015   11        9    18  44    4.4128   407.5   10.418      40.944
2015   11        9    18  51    4.4349   407.6   10.462      41.102
2015   11        9    18  58    4.4566   407.6   10.506      41.260
2015   11        9    19   5    4.4791   407.7   10.551      41.418
2015   11        9    19  12    4.5021   407.8   10.595      41.575
2015   11        9    19  19    4.5244   407.8   10.640      41.733
2015   11        9    19  26    4.5476   407.9   10.685      41.891
2015   11        9    19  33    4.5703   408.0   10.731      42.051
2015   11        9    19  40    4.5940   408.0   10.777      42.211
2015   11        9    19  47    4.6175   408.1   10.823      42.372
2015   11        9    19  54    4.6410   408.2   10.870      42.534
2015   11        9    20   1    4.6645   408.3   10.917      42.698
2015   11        9    20   8    4.6888   408.4   10.965      42.863
2015   11        9    20  15    4.7127   408.5   11.013      43.033
2015   11        9    20  22    4.7370   408.6   11.062      43.205
2015   11        9    20  29    4.7619   408.7   11.111      43.381
2015   11        9    20  36    4.7865   408.8   11.160      43.560
2015   11        9    20  43    4.8111   408.9   11.209      43.744
2015   11        9    20  50    4.8360   409.1   11.258      43.930
2015   11        9    20  58    4.8616   409.2   11.308      44.120
2015   11        9    21   5    4.8868   409.3   11.357      44.312
2015   11        9    21  12    4.9121   409.5   11.407      44.507
2015   11        9    21  19    4.9375   409.6   11.457      44.702
2015   11        9    21  26    4.9634   409.7   11.507      44.901
2015   11        9    21  33    4.9890   409.9   11.557      45.102
2015   11        9    21  40    5.0144   410.1   11.606      45.307
2015   11        9    21  47    5.0401   410.2   11.655      45.514
2015   11        9    21  54    5.0656   410.4   11.703      45.723
2015   11        9    22   1    5.0908   410.5   11.751      45.933
2015   11        9    22   8    5.1160   410.7   11.798      46.145
2015   11        9    22  15    5.1408   410.9   11.844      46.355
2015   11        9    22  22    5.1655   411.1   11.889      46.563
2015   11        9    22  29    5.1899   411.2   11.933      46.770
2015   11        9    22  36    5.2140   411.4   11.975      46.976
2015   11        9    22  43    5.2378   411.6   12.016      47.180
2015   11        9    22  50    5.2613   411.8   12.056      47.382
2015   11        9    22  57    5.2845   412.0   12.095      47.580
2015   11        9    23   4    5.3075   412.1   12.132      47.773
2015   11        9    23  11    5.3299   412.3   12.167      47.963
2015   11        9    23  19    5.3523   412.5   12.202      48.149
2015   11        9    23  26    5.3743   412.7   12.235      48.332
2015   11        9    23  33    5.3958   412.9   12.267      48.511
2015   11        9    23  40    5.4173   413.1   12.298      48.687
2015   11        9    23  47    5.4384   413.3   12.327      48.861
2015   11        9    23  54    5.4591   413.5   12.355      49.031
2015   11       10     0   1    5.4793   413.7   12.383      49.199
2015   11       10     0   8    5.4997   413.9   12.409      49.364
2015   11       10     0  15    5.5191   414.1   12.433      49.526
2015   11       10     0  22    5.5390   414.3   12.457      49.687
2015   11       10     0  29    5.5578   414.5   12.480      49.845
2015   11       10     0  36    5.5770   414.7   12.501      50.000
2015   11       10     0  43    5.5955   415.0   12.521      50.154
2015   11       10     0  50    5.6132   415.2   12.541      50.305
2015   11       10     0  57    5.6311   415.4   12.559      50.455
2015   11       10     1   4    5.6490   415.7   12.576      50.602
2015   11       10     1  11    5.6662   415.9   12.592      50.747
2015   11       10     1  19    5.6830   416.2   12.607      50.891
2015   11       10     1  26    5.6991   416.4   12.621      51.032
2015   11       10     1  33    5.7158   416.7   12.634      51.172
2015   11       10     1  40    5.7317   417.0   12.646      51.310
2015   11       10     1  47    5.7468   417.2   12.657      51.447
2015   11       10     1  54    5.7626   417.5   12.667      51.582
2015   11       10     2   1    5.7776   417.8   12.677      51.716
2015   11       10     2   8    5.7923   418.1   12.685      51.849
2015   11       10     2  15    5.8067   418.4   12.693      51.980
2015   11       10     2  22    5.8204   418.7   12.700      52.110
2015   11       10     2  29    5.8348   419.0   12.707      52.239
2015   11       10     2  36    5.8484   419.3   12.713      52.368
2015   11       10     2  43    5.8613   419.6   12.719      52.496
2015   11       10     2  50    5.8750   420.0   12.724      52.623
2015   11       10     2  57    5.8880   420.3   12.728      52.749
2015   11       10     3   4    5.9002   420.7   12.732      52.876
2015   11       10     3  11    5.9127   421.0   12.736      53.001
2015   11       10     3  18    5.9250   421.4   12.740      53.126
2015   11       10     3  25    5.9371   421.7   12.744      53.251
2015   11       10     3  32    5.9491   422.1   12.747      53.378
2015   11       10     3  39    5.9608   422.5   12.751      53.505
2015   11       10     3  46    5.9724   422.9   12.754      53.633
2015   11       10     3  53    5.9844   423.3   12.757      53.762
2015   11       10     4   0    5.9951   423.7   12.760      53.891
2015   11       10     4   7    6.0068   424.1   12.762      54.020
2015   11       10     4  14    6.0172   424.5   12.764      54.149
2015   11       10     4  22    6.0280   424.9   12.766      54.276
2015   11       10     4  29    6.0393   425.3   12.767      54.403
2015   11       10     4  36    6.0498   425.7   12.768      54.528
2015   11       10     4  43    6.0603   426.2   12.769      54.653
2015   11       10     4  50    6.0708   426.6   12.770      54.776
2015   11       10     4  57    6.0807   427.0   12.772      54.898
2015   11       10     5   4    6.0911   427.4   12.774      55.020
2015   11       10     5  11    6.1021   427.8   12.777      55.144
2015   11       10     5  18    6.1125   428.2   12.782      55.271
2015   11       10     5  25    6.1228   428.7   12.787      55.402
2015   11       10     5  32    6.1325   429.1   12.794      55.538
2015   11       10     5  39    6.1424   429.6   12.801      55.682
2015   11       10     5  46    6.1529   430.1   12.809      55.833
2015   11       10     5  53    6.1623   430.6   12.817      55.989
2015   11       10     6   0    6.1708   431.1   12.824      56.151
2015   11       10     6   7    6.1801   431.7   12.830      56.317
2015   11       10     6  14    6.1875   432.2   12.835      56.485
2015   11       10     6  21    6.1950   432.8   12.838      56.656
2015   11       10     6  28    6.2027   433.4   12.838      56.827
2015   11       10     6  35    6.2090   434.1   12.836      56.998
2015   11       10     6  43    6.2139   434.7   12.831      57.166
2015   11       10     6  50    6.2199   435.3   12.823      57.332
2015   11       10     6  57    6.2244   435.9   12.813      57.493
2015   11       10     7   4    6.2275   436.5   12.800      57.651
2015   11       10     7  11    6.2311   437.1   12.785      57.806
2015   11       10     7  18    6.2350   437.7   12.769      57.959
2015   11       10     7  25    6.2376   438.3   12.751      58.110
2015   11       10     7  32    6.2391   438.8   12.732      58.259
2015   11       10     7  39    6.2420   439.4   12.711      58.408
2015   11       10     7  46    6.2431   440.0   12.690      58.556
2015   11       10     7  53    6.2457   440.5   12.668      58.705
2015   11       10     8   0    6.2473   441.1   12.645      58.856
2015   11       10     8   7    6.2488   441.6   12.622      59.007
2015   11       10     8  14    6.2503   442.2   12.598      59.160
2015   11       10     8  21    6.2517   442.7   12.573      59.314
2015   11       10     8  28    6.2525   443.3   12.547      59.469
2015   11       10     8  35    6.2546   443.9   12.521      59.624
2015   11       10     8  43    6.2554   444.4   12.495      59.778
2015   11       10     8  50    6.2569   445.0   12.468      59.931
2015   11       10     8  57    6.2585   445.6   12.441      60.082
2015   11       10     9   4    6.2602   446.2   12.413      60.231
2015   11       10     9  11    6.2620   446.7   12.386      60.380
2015   11       10     9  18    6.2638   447.3   12.358      60.525
2015   11       10     9  25    6.2658   447.8   12.330      60.669
2015   11       10     9  32    6.2682   448.4   12.303      60.810
2015   11       10     9  39    6.2704   449.0   12.275      60.950
2015   11       10     9  46    6.2726   449.6   12.247      61.088
2015   11       10     9  53    6.2747   450.2   12.219      61.226
2015   11       10    10   0    6.2772   450.8   12.191      61.364
2015   11       10    10   7    6.2800   451.4   12.163      61.505
2015   11       10    10  14    6.2825   452.1   12.135      61.646
2015   11       10    10  21    6.2849   452.8   12.107      61.786
2015   11       10    10  28    6.2875   453.4   12.079      61.925
2015   11       10    10  35    6.2899   454.2   12.050      62.063
2015   11       10    10  42    6.2919   454.9   12.022      62.198
2015   11       10    10  49    6.2941   455.6   11.993      62.330
2015   11       10    10  56    6.2962   456.3   11.963      62.458
2015   11       10    11   3    6.2984   457.0   11.933      62.581
2015   11       10    11  10    6.2997   457.7   11.902      62.696
2015   11       10    11  17    6.3010   458.5   11.869      62.808
2015   11       10    11  24    6.3022   459.2   11.835      62.913
2015   11       10    11  31    6.3024   459.9   11.799      63.007
2015   11       10    11  38    6.3016   460.7   11.762      63.093
2015   11       10    11  45    6.3006   461.4   11.725      63.176
2015   11       10    11  53    6.3000   462.1   11.686      63.258
2015   11       10    12   0    6.2975   462.8   11.648      63.339
2015   11       10    12   7    6.2961   463.5   11.610      63.415
2015   11       10    12  14    6.2923   464.3   11.572      63.495
2015   11       10    12  21    6.2899   465.1   11.533      63.587
2015   11       10    12  28    6.2856   465.9   11.493      63.675
2015   11       10    12  35    6.2804   466.7   11.453      63.758
2015   11       10    12  42    6.2729   467.4   11.413      63.838
2015   11       10    12  49    6.2673   468.2   11.373      63.919
2015   11       10    12  56    6.2597   469.0   11.333      64.000
2015   11       10    13   3    6.2518   469.8   11.293      64.079
2015   11       10    13  10    6.2432   470.5   11.253      64.157
2015   11       10    13  17    6.2332   471.3   11.214      64.235
2015   11       10    13  24    6.2253   472.1   11.174      64.315
2015   11       10    13  31    6.2163   472.8   11.134      64.397
2015   11       10    13  38    6.2070   473.5   11.095      64.475
2015   11       10    13  45    6.1979   474.2   11.059      64.555
2015   11       10    13  52    6.1890   474.9   11.023      64.643
2015   11       10    13  59    6.1793   475.6   10.990      64.740
2015   11       10    14   7    6.1711   476.2   10.958      64.847
2015   11       10    14  14    6.1648   476.9   10.927      64.963
2015   11       10    14  21    6.1560   477.5   10.898      65.089
2015   11       10    14  28    6.1490   478.1   10.871      65.226
2015   11       10    14  35    6.1424   478.8   10.846      65.374
2015   11       10    14  42    6.1375   479.4   10.821      65.535
2015   11       10    14  49    6.1316   480.0   10.798      65.709
2015   11       10    14  56    6.1249   480.7   10.775      65.897
2015   11       10    15   3    6.1208   481.4   10.752      66.101
2015   11       10    15  10    6.1160   482.1   10.731      66.319
2015   11       10    15  17    6.1105   482.8   10.709      66.549
2015   11       10    15  24    6.1064   483.6   10.687      66.787
2015   11       10    15  31    6.1025   484.3   10.665      67.031
2015   11       10    15  38    6.0999   485.1   10.643      67.276
2015   11       10    15  45    6.0964   485.8   10.620      67.521
2015   11       10    15  52    6.0930   486.6   10.597      67.764
2015   11       10    15  59    6.0889   487.3   10.572      68.007
2015   11       10    16   7    6.0857   488.1   10.547      68.246
2015   11       10    16  14    6.0836   489.0   10.521      68.483
2015   11       10    16  21    6.0807   489.8   10.494      68.713
2015   11       10    16  28    6.0777   490.6   10.465      68.937
2015   11       10    16  35    6.0749   491.4   10.436      69.154
2015   11       10    16  42    6.0709   492.3   10.404      69.363
2015   11       10    16  49    6.0678   493.1   10.372      69.563
2015   11       10    16  56    6.0643   494.0   10.337      69.754
2015   11       10    17   3    6.0614   494.9   10.300      69.939
2015   11       10    17  10    6.0571   495.9   10.259      70.114
2015   11       10    17  17    6.0522   496.8   10.217      70.275
2015   11       10    17  24    6.0467   497.8   10.171      70.425
2015   11       10    17  31    6.0407   498.8   10.123      70.567
2015   11       10    17  38    6.0340   499.8   10.073      70.701
2015   11       10    17  45    6.0267   500.8   10.020      70.823
2015   11       10    17  52    6.0184   501.8    9.963      70.935
2015   11       10    17  59    6.0095   502.8    9.905      71.034
2015   11       10    18   6    5.9995   503.9    9.841      71.129
2015   11       10    18  13    5.9885   505.0    9.773      71.207
2015   11       10    18  20    5.9761   506.1    9.701      71.262
2015   11       10    18  27    5.9615   507.2    9.627      71.294
2015   11       10    18  34    5.9481   508.2    9.549      71.312
2015   11       10    18  41    5.9328   509.3    9.470      71.316
2015   11       10    18  48    5.9163   510.4    9.389      71.303
2015   11       10    18  55    5.8993   511.4    9.306      71.277
2015   11       10    19   2    5.8800   512.5    9.222      71.238
2015   11       10    19   9    5.8629   513.6    9.137      71.200
2015   11       10    19  16    5.8423   514.7    9.050      71.148
2015   11       10    19  24    5.8226   515.8    8.963      71.081
2015   11       10    19  31    5.8020   516.7    8.876      70.992
2015   11       10    19  38    5.7814   517.7    8.792      70.900
2015   11       10    19  45    5.7606   518.7    8.709      70.809
2015   11       10    19  52    5.7401   519.6    8.628      70.716
2015   11       10    19  59    5.7195   520.5    8.550      70.621
2015   11       10    20   6    5.7006   521.4    8.475      70.526
2015   11       10    20  13    5.6805   522.2    8.402      70.429
2015   11       10    20  20    5.6611   523.0    8.333      70.336
2015   11       10    20  27    5.6419   523.7    8.267      70.241
2015   11       10    20  34    5.6234   524.4    8.205      70.148
2015   11       10    20  41    5.6053   525.1    8.147      70.066
2015   11       10    20  48    5.5882   525.7    8.093      69.995
2015   11       10    20  55    5.5705   526.3    8.043      69.937
2015   11       10    21   2    5.5557   526.9    7.995      69.890
2015   11       10    21   9    5.5402   527.4    7.951      69.854
2015   11       10    21  16    5.5255   528.0    7.909      69.833
2015   11       10    21  23    5.5110   528.5    7.870      69.826
2015   11       10    21  31    5.4961   529.0    7.833      69.836
2015   11       10    21  38    5.4834   529.5    7.798      69.858
2015   11       10    21  45    5.4692   530.1    7.764      69.903
2015   11       10    21  52    5.4570   530.6    7.732      69.968
2015   11       10    21  59    5.4442   531.2    7.701      70.049
2015   11       10    22   6    5.4314   531.8    7.671      70.144
2015   11       10    22  13    5.4190   532.5    7.642      70.248
2015   11       10    22  20    5.4065   533.1    7.614      70.359
2015   11       10    22  27    5.3942   533.7    7.586      70.472
2015   11       10    22  34    5.3818   534.3    7.558      70.585
2015   11       10    22  41    5.3685   535.0    7.530      70.696
2015   11       10    22  48    5.3571   535.6    7.503      70.807
2015   11       10    22  55    5.3447   536.3    7.475      70.917
2015   11       10    23   2    5.3322   536.9    7.447      71.023
2015   11       10    23   9    5.3198   537.6    7.419      71.121
2015   11       10    23  16    5.3073   538.3    7.390      71.212
2015   11       10    23  23    5.2938   539.0    7.361      71.299
2015   11       10    23  30    5.2811   539.7    7.332      71.382
2015   11       10    23  38    5.2694   540.4    7.302      71.459
2015   11       10    23  45    5.2564   541.2    7.270      71.528
2015   11       10    23  52    5.2432   541.9    7.238      71.591
2015   11       10    23  59    5.2295   542.8    7.204      71.650
2015   11       11     0   6    5.2146   543.6    7.168      71.700
2015   11       11     0  13    5.2011   544.5    7.130      71.737
2015   11       11     0  20    5.1863   545.3    7.091      71.764
2015   11       11     0  27    5.1709   546.2    7.050      71.781
2015   11       11     0  34    5.1552   547.1    7.007      71.792
2015   11       11     0  41    5.1388   548.0    6.963      71.791
2015   11       11     0  48    5.1222   549.0    6.917      71.779
2015   11       11     0  55    5.1048   549.9    6.869      71.755
2015   11       11     1   2    5.0871   550.9    6.819      71.721
2015   11       11     1   9    5.0686   551.9    6.766      71.685
2015   11       11     1  16    5.0496   553.0    6.711      71.616
2015   11       11     1  23    5.0297   553.9    6.654      71.516
2015   11       11     1  30    5.0095   554.9    6.596      71.397
2015   11       11     1  37    4.9889   555.8    6.537      71.259
2015   11       11     1  44    4.9683   556.7    6.479      71.103
2015   11       11     1  51    4.9473   557.6    6.420      70.927
2015   11       11     1  58    4.9265   558.4    6.362      70.741
2015   11       11     2   5    4.9054   559.2    6.305      70.547
2015   11       11     2  12    4.8853   560.0    6.249      70.349
2015   11       11     2  19    4.8650   560.8    6.194      70.146
2015   11       11     2  26    4.8451   561.4    6.142      69.936
2015   11       11     2  33    4.8256   562.1    6.092      69.727
2015   11       11     2  40    4.8068   562.7    6.045      69.534
2015   11       11     2  47    4.7885   563.4    5.999      69.351
2015   11       11     2  55    4.7706   564.0    5.955      69.177
2015   11       11     3   2    4.7532   564.6    5.912      69.008
2015   11       11     3   9    4.7362   565.2    5.872      68.846
2015   11       11     3  16    4.7195   565.8    5.832      68.687
2015   11       11     3  23    4.7031   566.3    5.794      68.532
2015   11       11     3  30    4.6870   566.9    5.756      68.380
2015   11       11     3  37    4.6710   567.4    5.720      68.230
2015   11       11     3  44    4.6553   567.9    5.684      68.080
2015   11       11     3  51    4.6398   568.5    5.649      67.932
2015   11       11     3  58    4.6247   569.0    5.615      67.784
2015   11       11     4   5    4.6095   569.5    5.581      67.637
2015   11       11     4  12    4.5941   570.0    5.548      67.489
2015   11       11     4  19    4.5789   570.4    5.515      67.341
2015   11       11     4  26    4.5638   570.9    5.483      67.192
2015   11       11     4  33    4.5487   571.4    5.451      67.040
2015   11       11     4  40    4.5336   571.9    5.419      66.886
2015   11       11     4  47    4.5186   572.4    5.388      66.731
2015   11       11     4  54    4.5035   572.8    5.357      66.573
2015   11       11     5   2    4.4888   573.2    5.327      66.416
2015   11       11     5   9    4.4735   573.6    5.297      66.257
2015   11       11     5  16    4.4586   574.1    5.268      66.100
2015   11       11     5  23    4.4438   574.4    5.239      65.942
2015   11       11     5  30    4.4293   574.8    5.211      65.786
2015   11       11     5  37    4.4144   575.2    5.184      65.630
2015   11       11     5  44    4.3999   575.5    5.157      65.478
2015   11       11     5  51    4.3854   575.8    5.132      65.327
2015   11       11     5  58    4.3712   576.2    5.107      65.180
2015   11       11     6   5    4.3571   576.5    5.082      65.035
2015   11       11     6  12    4.3434   576.8    5.059      64.892
2015   11       11     6  19    4.3295   577.1    5.035      64.751
2015   11       11     6  26    4.3157   577.4    5.013      64.613
2015   11       11     6  33    4.3020   577.7    4.991      64.477
2015   11       11     6  40    4.2885   578.0    4.970      64.343
2015   11       11     6  47    4.2750   578.2    4.949      64.211
2015   11       11     6  54    4.2618   578.5    4.929      64.081
2015   11       11     7   1    4.2486   578.8    4.909      63.953
2015   11       11     7   9    4.2356   579.0    4.890      63.828
2015   11       11     7  16    4.2227   579.3    4.872      63.704
2015   11       11     7  23    4.2100   579.5    4.853      63.583
2015   11       11     7  30    4.1975   579.8    4.836      63.463
2015   11       11     7  37    4.1852   580.0    4.818      63.346
2015   11       11     7  44    4.1730   580.2    4.801      63.230
2015   11       11     7  51    4.1611   580.5    4.785      63.117
2015   11       11     7  58    4.1493   580.7    4.769      63.003
2015   11       11     8   5    4.1378   580.9    4.754      62.894
2015   11       11     8  12    4.1264   581.1    4.739      62.786
2015   11       11     8  19    4.1145   581.3    4.725      62.682
2015   11       11     8  26    4.1043   581.5    4.710      62.578
2015   11       11     8  33    4.0935   581.7    4.697      62.478
2015   11       11     8  40    4.0830   581.9    4.683      62.379
2015   11       11     8  47    4.0726   582.1    4.670      62.281
2015   11       11     8  54    4.0616   582.2    4.657      62.184
2015   11       11     9   1    4.0523   582.4    4.645      62.089
2015   11       11     9   8    4.0425   582.6    4.633      61.994
2015   11       11     9  15    4.0327   582.8    4.620      61.902
2015   11       11     9  22    4.0231   582.9    4.609      61.811
2015   11       11     9  29    4.0136   583.1    4.597      61.721
2015   11       11     9  36    4.0043   583.2    4.585      61.633
2015   11       11     9  43    3.9949   583.4    4.574      61.546
2015   11       11     9  50    3.9858   583.5    4.563      61.461
2015   11       11     9  57    3.9767   583.7    4.552      61.378
2015   11       11    10   4    3.9677   583.8    4.541      61.296
2015   11       11    10  11    3.9587   584.0    4.530      61.216
2015   11       11    10  18    3.9498   584.1    4.520      61.137
2015   11       11    10  25    3.9410   584.3    4.509      61.059
2015   11       11    10  33    3.9322   584.4    4.499      60.982
2015   11       11    10  40    3.9234   584.6    4.488      60.906
2015   11       11    10  47    3.9147   584.8    4.478      60.831
2015   11       11    10  54    3.9059   584.9    4.468      60.756
2015   11       11    11   1    3.8973   585.1    4.457      60.682
2015   11       11    11   8    3.8886   585.2    4.447      60.608
2015   11       11    11  15    3.8791   585.4    4.437      60.535
2015   11       11    11  22    3.8712   585.5    4.427      60.461
2015   11       11    11  29    3.8626   585.7    4.417      60.388
2015   11       11    11  36    3.8540   585.8    4.406      60.314
2015   11       11    11  43    3.8453   586.0    4.396      60.239
2015   11       11    11  50    3.8366   586.2    4.385      60.163
2015   11       11    11  57    3.8279   586.4    4.374      60.084
2015   11       11    12   4    3.8191   586.6    4.363      60.000
2015   11       11    12  11    3.8104   586.8    4.351      59.912
2015   11       11    12  18    3.8017   587.0    4.340      59.822
2015   11       11    12  26    3.7931   587.1    4.328      59.729
2015   11       11    12  33    3.7846   587.3    4.316      59.634
2015   11       11    12  40    3.7762   587.4    4.304      59.539
2015   11       11    12  47    3.7679   587.6    4.293      59.443
2015   11       11    12  54    3.7598   587.7    4.281      59.347
2015   11       11    13   1    3.7518   587.8    4.270      59.252
2015   11       11    13   8    3.7440   587.9    4.259      59.160
2015   11       11    13  15    3.7364   587.9    4.249      59.070
2015   11       11    13  22    3.7291   588.0    4.238      58.983
2015   11       11    13  29    3.7219   588.1    4.228      58.898
2015   11       11    13  36    3.7149   588.1    4.219      58.814
2015   11       11    13  43    3.7072   588.2    4.209      58.732
2015   11       11    13  50    3.7012   588.3    4.200      58.652
2015   11       11    13  57    3.6946   588.3    4.191      58.573
2015   11       11    14   4    3.6882   588.4    4.183      58.495
2015   11       11    14  11    3.6811   588.5    4.174      58.418
2015   11       11    14  18    3.6755   588.6    4.165      58.341
2015   11       11    14  25    3.6694   588.7    4.157      58.265
2015   11       11    14  32    3.6633   588.8    4.149      58.189
2015   11       11    14  40    3.6573   588.9    4.141      58.114
2015   11       11    14  47    3.6513   589.0    4.132      58.038
2015   11       11    14  54    3.6455   589.1    4.124      57.963
2015   11       11    15   1    3.6397   589.2    4.116      57.889
2015   11       11    15   8    3.6340   589.3    4.108      57.815
2015   11       11    15  15    3.6277   589.4    4.100      57.742
2015   11       11    15  22    3.6221   589.5    4.092      57.671
2015   11       11    15  29    3.6173   589.5    4.084      57.600
2015   11       11    15  36    3.6112   589.6    4.077      57.531
2015   11       11    15  43    3.6065   589.7    4.069      57.462
2015   11       11    15  50    3.6006   589.8    4.061      57.396
2015   11       11    15  57    3.5960   589.9    4.054      57.331
2015   11       11    16   4    3.5908   590.0    4.047      57.268
2015   11       11    16  11    3.5857   590.1    4.040      57.207
2015   11       11    16  18    3.5806   590.1    4.033      57.148
2015   11       11    16  25    3.5750   590.2    4.026      57.091
2015   11       11    16  32    3.5707   590.3    4.019      57.036
2015   11       11    16  39    3.5657   590.4    4.013      56.982
2015   11       11    16  46    3.5608   590.5    4.006      56.931
2015   11       11    16  53    3.5560   590.6    4.000      56.882
2015   11       11    17   0    3.5511   590.7    3.994      56.835
2015   11       11    17   7    3.5463   590.8    3.989      56.789
2015   11       11    17  14    3.5415   590.9    3.983      56.747
2015   11       11    17  21    3.5367   591.0    3.978      56.705
2015   11       11    17  28    3.5319   591.1    3.972      56.666
2015   11       11    17  35    3.5271   591.2    3.967      56.629
2015   11       11    17  42    3.5223   591.2    3.962      56.593
2015   11       11    17  49    3.5176   591.3    3.958      56.559
2015   11       11    17  57    3.5128   591.4    3.953      56.527
2015   11       11    18   4    3.5080   591.5    3.948      56.495
2015   11       11    18  11    3.5032   591.6    3.944      56.465
2015   11       11    18  18    3.4983   591.7    3.940      56.434
2015   11       11    18  25    3.4935   591.7    3.935      56.405
2015   11       11    18  32    3.4887   591.8    3.931      56.375
2015   11       11    18  39    3.4839   591.9    3.927      56.346
2015   11       11    18  46    3.4791   592.0    3.922      56.316
2015   11       11    18  53    3.4738   592.0    3.918      56.286
2015   11       11    19   0    3.4695   592.1    3.914      56.255
2015   11       11    19   7    3.4647   592.2    3.909      56.224
2015   11       11    19  14    3.4600   592.2    3.905      56.191
2015   11       11    19  21    3.4552   592.3    3.901      56.157
2015   11       11    19  28    3.4506   592.3    3.896      56.122
2015   11       11    19  35    3.4459   592.4    3.892      56.085
2015   11       11    19  42    3.4414   592.4    3.887      56.047
2015   11       11    19  49    3.4369   592.5    3.883      56.009
2015   11       11    19  57    3.4324   592.5    3.878      55.968
2015   11       11    20   4    3.4280   592.6    3.874      55.927
2015   11       11    20  11    3.4236   592.6    3.869      55.885
2015   11       11    20  18    3.4193   592.7    3.865      55.842
2015   11       11    20  25    3.4151   592.7    3.860      55.799
2015   11       11    20  32    3.4109   592.8    3.856      55.755
2015   11       11    20  39    3.4068   592.8    3.851      55.710
2015   11       11    20  46    3.4027   592.8    3.847      55.665
2015   11       11    20  53    3.3987   592.9    3.842      55.619
2015   11       11    21   0    3.3948   592.9    3.837      55.573
2015   11       11    21   7    3.3909   592.9    3.833      55.527
2015   11       11    21  14    3.3870   593.0    3.829      55.481
2015   11       11    21  21    3.3832   593.0    3.824      55.435
2015   11       11    21  28    3.3795   593.0    3.820      55.389
2015   11       11    21  35    3.3758   593.1    3.816      55.343
2015   11       11    21  42    3.3722   593.1    3.811      55.298
2015   11       11    21  49    3.3683   593.1    3.807      55.253
2015   11       11    21  56    3.3651   593.1    3.803      55.208
2015   11       11    22   3    3.3617   593.2    3.799      55.164
2015   11       11    22  10    3.3580   593.2    3.795      55.121
2015   11       11    22  18    3.3549   593.2    3.790      55.078
2015   11       11    22  25    3.3516   593.3    3.786      55.036
2015   11       11    22  32    3.3484   593.3    3.783      54.995
2015   11       11    22  39    3.3452   593.4    3.779      54.956
2015   11       11    22  46    3.3420   593.4    3.775      54.916
2015   11       11    22  53    3.3389   593.4    3.771      54.879
2015   11       11    23   0    3.3358   593.5    3.767      54.842
2015   11       11    23   7    3.3328   593.5    3.764      54.807
2015   11       11    23  14    3.3298   593.6    3.760      54.773
2015   11       11    23  21    3.3268   593.6    3.757      54.740
2015   11       11    23  28    3.3239   593.7    3.753      54.709
2015   11       11    23  35    3.3210   593.7    3.750      54.680
2015   11       11    23  42    3.3179   593.8    3.747      54.652
2015   11       11    23  49    3.3153   593.9    3.744      54.626
2015   11       11    23  56    3.3125   593.9    3.741      54.601
2015   11       12     0   3    3.3097   594.0    3.738      54.578
2015   11       12     0  10    3.3066   594.0    3.735      54.557
2015   11       12     0  17    3.3041   594.1    3.732      54.538
2015   11       12     0  24    3.3013   594.2    3.729      54.520
2015   11       12     0  31    3.2986   594.2    3.727      54.504
2015   11       12     0  38    3.2959   594.3    3.724      54.489
2015   11       12     0  45    3.2931   594.3    3.722      54.476
2015   11       12     0  52    3.2904   594.4    3.720      54.464
2015   11       12     0  59    3.2876   594.5    3.717      54.454
2015   11       12     1   6    3.2849   594.5    3.715      54.445
2015   11       12     1  13    3.2821   594.6    3.713      54.437
2015   11       12     1  20    3.2793   594.6    3.711      54.430
2015   11       12     1  27    3.2765   594.7    3.709      54.425
2015   11       12     1  35    3.2737   594.7    3.707      54.420
2015   11       12     1  42    3.2707   594.8    3.705      54.415
2015   11       12     1  49    3.2681   594.8    3.703      54.411
2015   11       12     1  56    3.2652   594.9    3.701      54.408
2015   11       12     2   3    3.2624   594.9    3.699      54.404
2015   11       12     2  10    3.2595   595.0    3.698      54.400
2015   11       12     2  17    3.2565   595.0    3.696      54.395
2015   11       12     2  24    3.2539   595.1    3.694      54.389
2015   11       12     2  31    3.2510   595.1    3.692      54.383
2015   11       12     2  38    3.2480   595.1    3.690      54.374
2015   11       12     2  45    3.2454   595.2    3.688      54.364
2015   11       12     2  52    3.2426   595.2    3.686      54.353
2015   11       12     2  59    3.2398   595.2    3.684      54.340
2015   11       12     3   6    3.2370   595.3    3.683      54.325
2015   11       12     3  13    3.2342   595.3    3.681      54.308
2015   11       12     3  20    3.2315   595.3    3.678      54.290
2015   11       12     3  28    3.2287   595.4    3.676      54.271
2015   11       12     3  35    3.2260   595.4    3.674      54.250
2015   11       12     3  42    3.2233   595.4    3.672      54.228
2015   11       12     3  49    3.2206   595.4    3.670      54.205
2015   11       12     3  56    3.2180   595.4    3.668      54.180
2015   11       12     4   3    3.2151   595.5    3.666      54.155
2015   11       12     4  10    3.2127   595.5    3.663      54.129
2015   11       12     4  17    3.2099   595.5    3.661      54.102
2015   11       12     4  24    3.2075   595.5    3.659      54.074
2015   11       12     4  31    3.2050   595.5    3.656      54.047
2015   11       12     4  38    3.2024   595.6    3.654      54.018
2015   11       12     4  45    3.2000   595.6    3.652      53.990
2015   11       12     4  52    3.1975   595.6    3.649      53.961
2015   11       12     4  59    3.1951   595.6    3.647      53.932
2015   11       12     5   6    3.1927   595.6    3.645      53.903
2015   11       12     5  13    3.1904   595.6    3.642      53.874
2015   11       12     5  20    3.1881   595.7    3.640      53.846
2015   11       12     5  27    3.1858   595.7    3.638      53.817
2015   11       12     5  34    3.1835   595.7    3.635      53.789
2015   11       12     5  41    3.1814   595.7    3.633      53.761
2015   11       12     5  48    3.1792   595.7    3.631      53.735
2015   11       12     5  56    3.1771   595.8    3.629      53.710
2015   11       12     6   3    3.1750   595.8    3.626      53.685
2015   11       12     6  10    3.1729   595.8    3.624      53.662
2015   11       12     6  17    3.1709   595.9    3.622      53.640
2015   11       12     6  24    3.1689   595.9    3.620      53.619
2015   11       12     6  31    3.1669   595.9    3.618      53.599
2015   11       12     6  38    3.1650   596.0    3.615      53.580
2015   11       12     6  45    3.1630   596.0    3.613      53.562
2015   11       12     6  52    3.1611   596.1    3.611      53.544
2015   11       12     6  59    3.1591   596.1    3.609      53.527
2015   11       12     7   6    3.1572   596.1    3.607      53.511
2015   11       12     7  13    3.1553   596.2    3.604      53.495
2015   11       12     7  20    3.1534   596.2    3.602      53.480
2015   11       12     7  27    3.1515   596.3    3.600      53.465
2015   11       12     7  34    3.1495   596.3    3.598      53.451
2015   11       12     7  41    3.1476   596.4    3.596      53.438
2015   11       12     7  48    3.1456   596.4    3.594      53.425
2015   11       12     7  55    3.1437   596.5    3.591      53.414
2015   11       12     8   2    3.1417   596.5    3.589      53.403
2015   11       12     8   9    3.1398   596.6    3.587      53.392
2015   11       12     8  16    3.1377   596.6    3.585      53.383
2015   11       12     8  23    3.1358   596.7    3.583      53.374
2015   11       12     8  30    3.1339   596.7    3.581      53.366
2015   11       12     8  37    3.1319   596.8    3.579      53.359
2015   11       12     8  44    3.1299   596.8    3.577      53.352
2015   11       12     8  51    3.1279   596.8    3.575      53.346
2015   11       12     8  59    3.1259   596.9    3.573      53.341
2015   11       12     9   6    3.1239   596.9    3.571      53.337
2015   11       12     9  13    3.1219   596.9    3.569      53.334
2015   11       12     9  20    3.1198   597.0    3.568      53.331
2015   11       12     9  27    3.1178   597.0    3.566      53.329
2015   11       12     9  34    3.1157   597.0    3.564      53.327
2015   11       12     9  41    3.1137   597.1    3.563      53.326
2015   11       12     9  48    3.1116   597.1    3.561      53.325
2015   11       12     9  55    3.1095   597.1    3.560      53.324
2015   11       12    10   2    3.1074   597.1    3.559      53.323
2015   11       12    10   9    3.1053   597.1    3.557      53.320
2015   11       12    10  16    3.1032   597.2    3.556      53.316
2015   11       12    10  23    3.1011   597.2    3.554      53.311
2015   11       12    10  30    3.0990   597.2    3.553      53.303
2015   11       12    10  37    3.0968   597.2    3.552      53.294
2015   11       12    10  44    3.0947   597.2    3.550      53.282
2015   11       12    10  52    3.0926   597.2    3.549      53.268
2015   11       12    10  59    3.0905   597.2    3.547      53.252
2015   11       12    11   6    3.0883   597.3    3.546      53.235
2015   11       12    11  13    3.0864   597.3    3.544      53.215
2015   11       12    11  20    3.0843   597.3    3.542      53.194
2015   11       12    11  27    3.0823   597.3    3.541      53.172
2015   11       12    11  34    3.0803   597.3    3.539      53.148
2015   11       12    11  41    3.0783   597.3    3.537      53.124
2015   11       12    11  48    3.0763   597.3    3.536      53.099
2015   11       12    11  55    3.0744   597.3    3.534      53.074
2015   11       12    12   2    3.0725   597.3    3.532      53.048
2015   11       12    12   9    3.0706   597.3    3.530      53.021
2015   11       12    12  16    3.0688   597.3    3.528      52.994
2015   11       12    12  23    3.0671   597.3    3.526      52.966
2015   11       12    12  30    3.0653   597.3    3.524      52.938
2015   11       12    12  37    3.0634   597.3    3.521      52.909
2015   11       12    12  44    3.0617   597.3    3.519      52.880
2015   11       12    12  51    3.0600   597.3    3.517      52.850
2015   11       12    12  58    3.0583   597.3    3.514      52.820
2015   11       12    13   5    3.0566   597.3    3.512      52.789
2015   11       12    13  12    3.0549   597.3    3.509      52.758
2015   11       12    13  19    3.0532   597.3    3.507      52.726
2015   11       12    13  26    3.0515   597.3    3.504      52.694
2015   11       12    13  34    3.0499   597.3    3.501      52.662
2015   11       12    13  41    3.0482   597.3    3.499      52.630
2015   11       12    13  48    3.0465   597.3    3.496      52.598
2015   11       12    13  55    3.0449   597.3    3.493      52.566
2015   11       12    14   2    3.0433   597.3    3.491      52.535
2015   11       12    14   9    3.0417   597.2    3.488      52.504
2015   11       12    14  16    3.0402   597.2    3.485      52.474
2015   11       12    14  23    3.0386   597.2    3.483      52.444
2015   11       12    14  30    3.0371   597.2    3.480      52.416
2015   11       12    14  37    3.0356   597.2    3.478      52.388
2015   11       12    14  44    3.0341   597.2    3.475      52.362
2015   11       12    14  51    3.0327   597.2    3.473      52.338
2015   11       12    14  58    3.0313   597.2    3.471      52.315
2015   11       12    15   5    3.0299   597.3    3.469      52.293
2015   11       12    15  12    3.0286   597.3    3.467      52.273
2015   11       12    15  19    3.0273   597.3    3.465      52.256
2015   11       12    15  26    3.0259   597.3    3.463      52.239
2015   11       12    15  33    3.0246   597.3    3.462      52.225
2015   11       12    15  40    3.0232   597.3    3.460      52.212
2015   11       12    15  47    3.0219   597.3    3.458      52.201
2015   11       12    15  54    3.0204   597.3    3.457      52.192
2015   11       12    16   1    3.0190   597.3    3.455      52.184
2015   11       12    16   8    3.0175   597.4    3.454      52.176
2015   11       12    16  15    3.0160   597.4    3.453      52.170
2015   11       12    16  22    3.0144   597.4    3.451      52.164
2015   11       12    16  30    3.0128   597.4    3.450      52.158
2015   11       12    16  37    3.0111   597.4    3.448      52.153
2015   11       12    16  44    3.0095   597.4    3.447      52.147
2015   11       12    16  51    3.0077   597.4    3.445      52.141
2015   11       12    16  58    3.0060   597.4    3.444      52.135
2015   11       12    17   5    3.0043   597.4    3.442      52.128
2015   11       12    17  12    3.0025   597.4    3.441      52.120
2015   11       12    17  19    3.0007   597.4    3.440      52.112
2015   11       12    17  26    2.9989   597.4    3.438      52.103
2015   11       12    17  33    2.9971   597.3    3.437      52.092
2015   11       12    17  40    2.9952   597.3    3.435      52.079
2015   11       12    17  47    2.9933   597.3    3.434      52.064
2015   11       12    17  54    2.9915   597.3    3.432      52.047
2015   11       12    18   1    2.9896   597.3    3.430      52.027
2015   11       12    18   8    2.9877   597.2    3.429      52.005
2015   11       12    18  15    2.9859   597.2    3.427      51.982
2015   11       12    18  22    2.9841   597.2    3.426      51.957
2015   11       12    18  30    2.9823   597.1    3.424      51.930
2015   11       12    18  37    2.9805   597.1    3.422      51.903
2015   11       12    18  44    2.9787   597.1    3.421      51.874
2015   11       12    18  51    2.9770   597.0    3.419      51.845
2015   11       12    18  58    2.9754   597.0    3.418      51.816
2015   11       12    19   5    2.9739   596.9    3.417      51.787
2015   11       12    19  12    2.9723   596.9    3.416      51.758
2015   11       12    19  19    2.9709   596.8    3.415      51.731
2015   11       12    19  26    2.9695   596.8    3.414      51.704
2015   11       12    19  33    2.9681   596.8    3.413      51.677
2015   11       12    19  40    2.9668   596.7    3.412      51.651
2015   11       12    19  47    2.9655   596.7    3.411      51.624
2015   11       12    19  54    2.9643   596.7    3.410      51.596
2015   11       12    20   1    2.9630   596.6    3.409      51.568
2015   11       12    20   8    2.9617   596.6    3.407      51.539
2015   11       12    20  15    2.9604   596.6    3.406      51.509
2015   11       12    20  22    2.9591   596.5    3.404      51.477
2015   11       12    20  29    2.9577   596.5    3.402      51.444
2015   11       12    20  36    2.9564   596.5    3.400      51.409
2015   11       12    20  43    2.9550   596.4    3.398      51.374
2015   11       12    20  50    2.9536   596.4    3.396      51.338
2015   11       12    20  57    2.9524   596.3    3.394      51.301
2015   11       12    21   4    2.9509   596.3    3.392      51.263
2015   11       12    21  11    2.9496   596.3    3.389      51.226
2015   11       12    21  18    2.9483   596.2    3.387      51.188
2015   11       12    21  26    2.9469   596.2    3.385      51.150
2015   11       12    21  33    2.9456   596.1    3.382      51.112
2015   11       12    21  40    2.9443   596.1    3.380      51.075
2015   11       12    21  47    2.9430   596.1    3.378      51.039
2015   11       12    21  54    2.9417   596.0    3.376      51.004
2015   11       12    22   1    2.9404   596.0    3.373      50.969
2015   11       12    22   8    2.9392   595.9    3.371      50.936
2015   11       12    22  15    2.9380   595.9    3.369      50.904
2015   11       12    22  22    2.9367   595.8    3.368      50.873
2015   11       12    22  29    2.9355   595.8    3.366      50.843
2015   11       12    22  36    2.9343   595.8    3.364      50.815
2015   11       12    22  43    2.9330   595.7    3.363      50.788
2015   11       12    22  50    2.9318   595.7    3.361      50.763
2015   11       12    22  57    2.9305   595.6    3.360      50.739
2015   11       12    23   4    2.9292   595.6    3.358      50.716
2015   11       12    23  11    2.9278   595.6    3.357      50.694
2015   11       12    23  18    2.9264   595.5    3.355      50.673
2015   11       12    23  25    2.9250   595.5    3.354      50.653
2015   11       12    23  32    2.9235   595.5    3.352      50.633
2015   11       12    23  39    2.9220   595.4    3.351      50.612
2015   11       12    23  46    2.9204   595.4    3.349      50.591
2015   11       12    23  53    2.9189   595.4    3.348      50.569
2015   11       13     0   1    2.9173   595.3    3.346      50.547
2015   11       13     0   8    2.9156   595.3    3.344      50.524
2015   11       13     0  15    2.9140   595.2    3.343      50.499
2015   11       13     0  22    2.9123   595.2    3.341      50.474
2015   11       13     0  29    2.9107   595.1    3.339      50.448
2015   11       13     0  36    2.9090   595.1    3.337      50.421
2015   11       13     0  43    2.9073   595.0    3.335      50.393
2015   11       13     0  50    2.9056   595.0    3.333      50.364
2015   11       13     0  57    2.9039   594.9    3.331      50.335
2015   11       13     1   4    2.9022   594.8    3.330      50.305
2015   11       13     1  11    2.9005   594.8    3.328      50.275
2015   11       13     1  18    2.8989   594.7    3.326      50.245
2015   11       13     1  25    2.8973   594.6    3.325      50.215
2015   11       13     1  32    2.8957   594.6    3.323      50.185
2015   11       13     1  39    2.8941   594.5    3.322      50.156
2015   11       13     1  46    2.8926   594.4    3.321      50.127
2015   11       13     1  53    2.8912   594.3    3.320      50.099
2015   11       13     2   1    2.8898   594.2    3.320      50.073
2015   11       13     2   8    2.8885   594.1    3.320      50.048
2015   11       13     2  15    2.8873   594.1    3.320      50.026
2015   11       13     2  22    2.8861   594.0    3.320      50.005
2015   11       13     2  29    2.8851   593.9    3.321      49.987
2015   11       13     2  36    2.8842   593.8    3.322      49.972
2015   11       13     2  43    2.8832   593.7    3.324      49.958
2015   11       13     2  50    2.8824   593.6    3.325      49.946
2015   11       13     2  57    2.8815   593.5    3.327      49.935
2015   11       13     3   4    2.8806   593.5    3.328      49.923
2015   11       13     3  11    2.8797   593.4    3.329      49.911
2015   11       13     3  18    2.8788   593.3    3.331      49.897
2015   11       13     3  25    2.8778   593.3    3.332      49.882
2015   11       13     3  32    2.8767   593.2    3.332      49.865
2015   11       13     3  39    2.8756   593.2    3.332      49.845
2015   11       13     3  46    2.8745   593.1    3.332      49.823
2015   11       13     3  53    2.8733   593.0    3.332      49.798
2015   11       13     4   0    2.8721   593.0    3.332      49.773
2015   11       13     4   7    2.8708   592.9    3.331      49.745
2015   11       13     4  14    2.8696   592.8    3.330      49.715
2015   11       13     4  21    2.8683   592.8    3.329      49.684
2015   11       13     4  28    2.8670   592.7    3.328      49.653
2015   11       13     4  35    2.8657   592.6    3.327      49.620
2015   11       13     4  42    2.8643   592.6    3.325      49.587
2015   11       13     4  49    2.8630   592.5    3.324      49.553
2015   11       13     4  56    2.8616   592.4    3.322      49.518
2015   11       13     5   3    2.8602   592.4    3.321      49.483
2015   11       13     5  11    2.8588   592.3    3.319      49.447
2015   11       13     5  18    2.8574   592.2    3.317      49.411
2015   11       13     5  25    2.8560   592.1    3.315      49.374
2015   11       13     5  32    2.8546   592.1    3.314      49.338
2015   11       13     5  39    2.8531   592.0    3.312      49.301
2015   11       13     5  46    2.8517   591.9    3.310      49.263
2015   11       13     5  53    2.8502   591.8    3.308      49.226
2015   11       13     6   0    2.8487   591.8    3.306      49.188
2015   11       13     6   7    2.8472   591.7    3.304      49.150
2015   11       13     6  14    2.8457   591.6    3.302      49.112
2015   11       13     6  21    2.8442   591.5    3.300      49.074
2015   11       13     6  28    2.8426   591.5    3.298      49.035
2015   11       13     6  35    2.8411   591.4    3.296      48.997
2015   11       13     6  42    2.8395   591.3    3.294      48.959
2015   11       13     6  49    2.8380   591.2    3.292      48.920
2015   11       13     6  56    2.8364   591.1    3.290      48.882
2015   11       13     7   3    2.8348   591.0    3.288      48.844
2015   11       13     7  10    2.8332   591.0    3.285      48.806
2015   11       13     7  17    2.8317   590.9    3.283      48.768
2015   11       13     7  24    2.8301   590.8    3.281      48.730
2015   11       13     7  32    2.8285   590.7    3.279      48.693
2015   11       13     7  39    2.8270   590.6    3.278      48.656
2015   11       13     7  46    2.8254   590.5    3.276      48.619
2015   11       13     7  53    2.8238   590.4    3.274      48.583
2015   11       13     8   0    2.8223   590.3    3.272      48.548
2015   11       13     8   7    2.8207   590.3    3.271      48.513
2015   11       13     8  14    2.8192   590.2    3.269      48.479
2015   11       13     8  21    2.8177   590.1    3.268      48.447
2015   11       13     8  28    2.8163   590.0    3.266      48.415
2015   11       13     8  35    2.8148   589.9    3.265      48.385
2015   11       13     8  42    2.8134   589.8    3.264      48.356
2015   11       13     8  49    2.8121   589.7    3.264      48.329
2015   11       13     8  56    2.8107   589.6    3.263      48.304
2015   11       13     9   3    2.8094   589.5    3.263      48.279
2015   11       13     9  10    2.8082   589.3    3.263      48.257
2015   11       13     9  17    2.8070   589.2    3.263      48.237
2015   11       13     9  24    2.8058   589.1    3.263      48.218
2015   11       13     9  32    2.8047   589.0    3.264      48.201
2015   11       13     9  39    2.8037   588.9    3.264      48.186
2015   11       13     9  46    2.8026   588.9    3.265      48.173
2015   11       13     9  53    2.8016   588.8    3.266      48.161
2015   11       13    10   0    2.8005   588.7    3.268      48.150
2015   11       13    10   7    2.7994   588.6    3.269      48.139
2015   11       13    10  14    2.7983   588.5    3.270      48.129
2015   11       13    10  21    2.7971   588.4    3.272      48.118
2015   11       13    10  28    2.7959   588.3    3.273      48.106
2015   11       13    10  35    2.7947   588.2    3.274      48.092
2015   11       13    10  42    2.7933   588.1    3.275      48.077
2015   11       13    10  49    2.7920   588.0    3.275      48.061
2015   11       13    10  56    2.7906   587.9    3.276      48.042
2015   11       13    11   3    2.7892   587.8    3.276      48.021
2015   11       13    11  10    2.7877   587.7    3.276      47.999
2015   11       13    11  17    2.7862   587.6    3.276      47.975
2015   11       13    11  24    2.7847   587.5    3.276      47.950
2015   11       13    11  31    2.7832   587.4    3.276      47.923
2015   11       13    11  38    2.7816   587.3    3.275      47.895
2015   11       13    11  45    2.7800   587.2    3.275      47.866
2015   11       13    11  52    2.7784   587.1    3.274      47.836
2015   11       13    11  59    2.7768   587.0    3.273      47.804
2015   11       13    12   6    2.7752   586.9    3.272      47.772
2015   11       13    12  13    2.7736   586.8    3.271      47.739
2015   11       13    12  20    2.7720   586.7    3.270      47.706
2015   11       13    12  27    2.7703   586.6    3.269      47.671
2015   11       13    12  34    2.7687   586.5    3.268      47.636
2015   11       13    12  41    2.7671   586.4    3.267      47.600
2015   11       13    12  49    2.7654   586.3    3.266      47.564
2015   11       13    12  56    2.7638   586.2    3.265      47.527
2015   11       13    13   3    2.7622   586.1    3.263      47.490
2015   11       13    13  10    2.7606   586.0    3.262      47.452
2015   11       13    13  17    2.7589   585.8    3.261      47.414
2015   11       13    13  24    2.7573   585.7    3.259      47.377
2015   11       13    13  31    2.7557   585.6    3.258      47.338
2015   11       13    13  38    2.7540   585.5    3.257      47.300
2015   11       13    13  45    2.7524   585.4    3.255      47.261
2015   11       13    13  52    2.7507   585.3    3.254      47.223
2015   11       13    13  59    2.7490   585.1    3.253      47.184
2015   11       13    14   6    2.7474   585.0    3.251      47.145
2015   11       13    14  13    2.7457   584.9    3.250      47.107
2015   11       13    14  20    2.7440   584.8    3.249      47.068
2015   11       13    14  27    2.7423   584.6    3.247      47.030
2015   11       13    14  34    2.7406   584.5    3.246      46.992
2015   11       13    14  41    2.7389   584.4    3.245      46.954
2015   11       13    14  48    2.7373   584.2    3.243      46.916
2015   11       13    14  55    2.7356   584.1    3.242      46.879
2015   11       13    15   3    2.7339   584.0    3.241      46.843
2015   11       13    15  10    2.7323   583.8    3.240      46.807
2015   11       13    15  17    2.7307   583.7    3.239      46.771
2015   11       13    15  24    2.7291   583.6    3.238      46.736
2015   11       13    15  31    2.7275   583.4    3.236      46.703
2015   11       13    15  38    2.7259   583.3    3.235      46.670
2015   11       13    15  45    2.7243   583.1    3.235      46.638
2015   11       13    15  52    2.7228   583.0    3.234      46.606
2015   11       13    15  59    2.7212   582.8    3.233      46.575
2015   11       13    16   6    2.7197   582.7    3.232      46.545
2015   11       13    16  13    2.7182   582.6    3.231      46.515
2015   11       13    16  20    2.7167   582.4    3.230      46.486
2015   11       13    16  27    2.7151   582.3    3.229      46.457
2015   11       13    16  34    2.7136   582.1    3.229      46.428
2015   11       13    16  41    2.7121   582.0    3.228      46.400
2015   11       13    16  48    2.7106   581.8    3.227      46.372
2015   11       13    16  55    2.7091   581.7    3.227      46.345
2015   11       13    17   3    2.7076   581.6    3.226      46.317
2015   11       13    17  10    2.7061   581.4    3.225      46.290
2015   11       13    17  17    2.7046   581.3    3.225      46.263
2015   11       13    17  24    2.7030   581.1    3.224      46.236
2015   11       13    17  31    2.7014   581.0    3.224      46.209
2015   11       13    17  38    2.6998   580.9    3.224      46.182
2015   11       13    17  45    2.6982   580.7    3.223      46.154
2015   11       13    17  52    2.6965   580.6    3.223      46.126
2015   11       13    17  59    2.6948   580.4    3.222      46.096
2015   11       13    18   6    2.6931   580.3    3.222      46.066
2015   11       13    18  13    2.6913   580.1    3.221      46.036
2015   11       13    18  20    2.6896   580.0    3.221      46.005
2015   11       13    18  27    2.6878   579.8    3.220      45.972
2015   11       13    18  34    2.6861   579.7    3.220      45.940
2015   11       13    18  41    2.6843   579.6    3.219      45.907
2015   11       13    18  48    2.6825   579.4    3.218      45.873
2015   11       13    18  55    2.6807   579.3    3.218      45.839
2015   11       13    19   2    2.6789   579.1    3.217      45.804
2015   11       13    19   9    2.6771   579.0    3.216      45.769
2015   11       13    19  16    2.6754   578.8    3.216      45.734
2015   11       13    19  23    2.6736   578.7    3.215      45.698
2015   11       13    19  30    2.6718   578.5    3.214      45.663
2015   11       13    19  37    2.6700   578.3    3.214      45.626
2015   11       13    19  44    2.6682   578.2    3.213      45.590
2015   11       13    19  51    2.6664   578.0    3.212      45.553
2015   11       13    19  58    2.6647   577.9    3.212      45.517
2015   11       13    20   5    2.6629   577.7    3.211      45.480
2015   11       13    20  12    2.6611   577.6    3.210      45.443
2015   11       13    20  19    2.6593   577.4    3.210      45.406
2015   11       13    20  27    2.6574   577.3    3.209      45.368
2015   11       13    20  34    2.6556   577.1    3.209      45.331
2015   11       13    20  41    2.6538   576.9    3.208      45.293
2015   11       13    20  48    2.6519   576.8    3.208      45.255
2015   11       13    20  55    2.6500   576.6    3.207      45.218
2015   11       13    21   2    2.6481   576.5    3.207      45.179
2015   11       13    21   9    2.6461   576.3    3.206      45.141
2015   11       13    21  16    2.6442   576.1    3.206      45.103
2015   11       13    21  23    2.6423   575.9    3.205      45.064
2015   11       13    21  30    2.6403   575.8    3.205      45.025
2015   11       13    21  37    2.6383   575.6    3.204      44.986
2015   11       13    21  44    2.6364   575.4    3.204      44.947
2015   11       13    21  51    2.6344   575.2    3.203      44.907
2015   11       13    21  58    2.6324   575.1    3.202      44.868
2015   11       13    22   5    2.6305   574.9    3.202      44.828
2015   11       13    22  12    2.6285   574.7    3.201      44.788
2015   11       13    22  19    2.6265   574.5    3.201      44.749
2015   11       13    22  26    2.6246   574.3    3.200      44.709
2015   11       13    22  34    2.6226   574.1    3.199      44.670
2015   11       13    22  41    2.6206   573.9    3.199      44.630
2015   11       13    22  48    2.6187   573.8    3.198      44.591
2015   11       13    22  55    2.6167   573.6    3.197      44.552
2015   11       13    23   2    2.6148   573.4    3.197      44.513
2015   11       13    23   9    2.6129   573.2    3.196      44.475
2015   11       13    23  16    2.6109   573.0    3.195      44.436
2015   11       13    23  23    2.6090   572.8    3.195      44.398
2015   11       13    23  30    2.6071   572.6    3.194      44.359
2015   11       13    23  37    2.6052   572.4    3.193      44.321
2015   11       13    23  44    2.6033   572.2    3.193      44.283
2015   11       13    23  51    2.6015   572.0    3.192      44.245
2015   11       13    23  58    2.5996   571.8    3.192      44.207
2015   11       14     0   5    2.5977   571.6    3.191      44.169
