year    month   day   hour  minute  B_enl V_enl   n_enl       T_enl
[year] [month] [day] [hour][minute] [nT]  [km/s]  [cm-3]      [kK]
2015   10       31     0   3    3.4574   332.3   11.353      27.451
2015   10       31     0  10    3.4577   332.3   11.351      27.448
2015   10       31     0  17    3.4581   332.3   11.349      27.445
2015   10       31     0  24    3.4584   332.3   11.347      27.442
2015   10       31     0  31    3.4587   332.3   11.345      27.439
2015   10       31     0  39    3.4590   332.3   11.342      27.436
2015   10       31     0  46    3.4594   332.3   11.340      27.432
2015   10       31     0  53    3.4597   332.3   11.338      27.429
2015   10       31     1   0    3.4600   332.3   11.336      27.425
2015   10       31     1   7    3.4603   332.3   11.334      27.422
2015   10       31     1  14    3.4606   332.3   11.331      27.418
2015   10       31     1  21    3.4609   332.3   11.329      27.414
2015   10       31     1  28    3.4611   332.3   11.327      27.410
2015   10       31     1  35    3.4614   332.3   11.325      27.406
2015   10       31     1  42    3.4617   332.3   11.322      27.402
2015   10       31     1  50    3.4619   332.3   11.320      27.398
2015   10       31     1  57    3.4622   332.3   11.318      27.393
2015   10       31     2   4    3.4625   332.3   11.316      27.389
2015   10       31     2  11    3.4627   332.3   11.313      27.384
2015   10       31     2  18    3.4629   332.3   11.311      27.380
2015   10       31     2  25    3.4631   332.3   11.309      27.375
2015   10       31     2  32    3.4634   332.2   11.307      27.370
2015   10       31     2  39    3.4636   332.2   11.305      27.365
2015   10       31     2  47    3.4638   332.2   11.302      27.360
2015   10       31     2  54    3.4640   332.2   11.300      27.355
2015   10       31     3   1    3.4642   332.2   11.298      27.349
2015   10       31     3   8    3.4644   332.2   11.296      27.344
2015   10       31     3  15    3.4646   332.2   11.294      27.339
2015   10       31     3  22    3.4648   332.2   11.292      27.333
2015   10       31     3  29    3.4650   332.2   11.289      27.328
2015   10       31     3  36    3.4651   332.2   11.287      27.322
2015   10       31     3  43    3.4653   332.2   11.285      27.316
2015   10       31     3  51    3.4655   332.2   11.283      27.311
2015   10       31     3  58    3.4657   332.2   11.281      27.305
2015   10       31     4   5    3.4658   332.2   11.279      27.299
2015   10       31     4  12    3.4660   332.1   11.276      27.293
2015   10       31     4  19    3.4662   332.1   11.274      27.287
2015   10       31     4  26    3.4663   332.1   11.272      27.281
2015   10       31     4  33    3.4664   332.1   11.270      27.274
2015   10       31     4  40    3.4666   332.1   11.268      27.268
2015   10       31     4  48    3.4667   332.1   11.266      27.262
2015   10       31     4  55    3.4668   332.1   11.264      27.256
2015   10       31     5   2    3.4670   332.1   11.262      27.249
2015   10       31     5   9    3.4671   332.1   11.260      27.243
2015   10       31     5  16    3.4673   332.1   11.258      27.236
2015   10       31     5  23    3.4674   332.1   11.256      27.230
2015   10       31     5  30    3.4675   332.0   11.254      27.223
2015   10       31     5  38    3.4676   332.0   11.252      27.217
2015   10       31     5  45    3.4677   332.0   11.250      27.210
2015   10       31     5  52    3.4679   332.0   11.248      27.204
2015   10       31     5  59    3.4680   332.0   11.246      27.197
2015   10       31     6   6    3.4681   332.0   11.244      27.191
2015   10       31     6  13    3.4682   332.0   11.242      27.184
2015   10       31     6  20    3.4683   332.0   11.241      27.177
2015   10       31     6  27    3.4685   332.0   11.239      27.171
2015   10       31     6  34    3.4686   331.9   11.237      27.164
2015   10       31     6  41    3.4687   331.9   11.235      27.157
2015   10       31     6  49    3.4688   331.9   11.234      27.151
2015   10       31     6  56    3.4689   331.9   11.232      27.144
2015   10       31     7   3    3.4691   331.9   11.230      27.137
2015   10       31     7  10    3.4692   331.9   11.229      27.130
2015   10       31     7  17    3.4693   331.9   11.227      27.124
2015   10       31     7  24    3.4694   331.9   11.226      27.117
2015   10       31     7  31    3.4695   331.8   11.224      27.110
2015   10       31     7  38    3.4696   331.8   11.223      27.104
2015   10       31     7  45    3.4697   331.8   11.221      27.097
2015   10       31     7  52    3.4698   331.8   11.220      27.090
2015   10       31     8   0    3.4699   331.8   11.219      27.083
2015   10       31     8   7    3.4701   331.8   11.217      27.076
2015   10       31     8  14    3.4702   331.8   11.216      27.070
2015   10       31     8  21    3.4703   331.8   11.215      27.063
2015   10       31     8  28    3.4704   331.7   11.214      27.056
2015   10       31     8  35    3.4705   331.7   11.212      27.049
2015   10       31     8  42    3.4706   331.7   11.211      27.043
2015   10       31     8  49    3.4707   331.7   11.210      27.036
2015   10       31     8  56    3.4708   331.7   11.209      27.029
2015   10       31     9   4    3.4709   331.7   11.208      27.022
2015   10       31     9  11    3.4710   331.7   11.207      27.015
2015   10       31     9  18    3.4711   331.7   11.206      27.008
2015   10       31     9  25    3.4712   331.6   11.205      27.002
2015   10       31     9  32    3.4713   331.6   11.204      26.995
2015   10       31     9  39    3.4714   331.6   11.203      26.988
2015   10       31     9  46    3.4715   331.6   11.202      26.981
2015   10       31     9  53    3.4716   331.6   11.202      26.974
2015   10       31    10   1    3.4717   331.6   11.201      26.967
2015   10       31    10   8    3.4718   331.6   11.200      26.960
2015   10       31    10  15    3.4719   331.5   11.199      26.953
2015   10       31    10  22    3.4720   331.5   11.199      26.946
2015   10       31    10  29    3.4720   331.5   11.198      26.939
2015   10       31    10  36    3.4721   331.5   11.197      26.932
2015   10       31    10  43    3.4722   331.5   11.197      26.925
2015   10       31    10  50    3.4723   331.5   11.196      26.919
2015   10       31    10  57    3.4724   331.5   11.195      26.912
2015   10       31    11   5    3.4725   331.4   11.195      26.905
2015   10       31    11  12    3.4726   331.4   11.194      26.898
2015   10       31    11  19    3.4727   331.4   11.194      26.891
2015   10       31    11  26    3.4728   331.4   11.193      26.884
2015   10       31    11  33    3.4729   331.4   11.193      26.877
2015   10       31    11  40    3.4730   331.4   11.192      26.870
2015   10       31    11  47    3.4731   331.4   11.192      26.863
2015   10       31    11  54    3.4732   331.3   11.192      26.856
2015   10       31    12   2    3.4733   331.3   11.191      26.849
2015   10       31    12   9    3.4733   331.3   11.191      26.842
2015   10       31    12  16    3.4735   331.3   11.190      26.835
2015   10       31    12  23    3.4736   331.3   11.190      26.828
2015   10       31    12  30    3.4737   331.3   11.190      26.821
2015   10       31    12  37    3.4738   331.2   11.189      26.814
2015   10       31    12  44    3.4739   331.2   11.189      26.807
2015   10       31    12  52    3.4740   331.2   11.189      26.800
2015   10       31    12  59    3.4741   331.2   11.189      26.793
2015   10       31    13   6    3.4743   331.2   11.189      26.786
2015   10       31    13  13    3.4744   331.2   11.188      26.779
2015   10       31    13  20    3.4745   331.1   11.188      26.773
2015   10       31    13  27    3.4747   331.1   11.188      26.766
2015   10       31    13  34    3.4748   331.1   11.188      26.759
2015   10       31    13  41    3.4750   331.1   11.188      26.753
2015   10       31    13  48    3.4751   331.1   11.188      26.746
2015   10       31    13  55    3.4753   331.1   11.188      26.740
2015   10       31    14   3    3.4755   331.0   11.188      26.733
2015   10       31    14  10    3.4756   331.0   11.188      26.727
2015   10       31    14  17    3.4758   331.0   11.188      26.721
2015   10       31    14  24    3.4760   331.0   11.189      26.714
2015   10       31    14  31    3.4762   331.0   11.189      26.708
2015   10       31    14  38    3.4764   331.0   11.189      26.702
2015   10       31    14  45    3.4767   330.9   11.189      26.696
2015   10       31    14  52    3.4769   330.9   11.190      26.690
2015   10       31    14  59    3.4771   330.9   11.190      26.684
2015   10       31    15   6    3.4774   330.9   11.190      26.678
2015   10       31    15  14    3.4776   330.9   11.191      26.672
2015   10       31    15  21    3.4779   330.9   11.191      26.666
2015   10       31    15  28    3.4781   330.8   11.191      26.660
2015   10       31    15  35    3.4784   330.8   11.192      26.655
2015   10       31    15  42    3.4787   330.8   11.192      26.649
2015   10       31    15  49    3.4790   330.8   11.193      26.643
2015   10       31    15  56    3.4793   330.8   11.194      26.638
2015   10       31    16   3    3.4796   330.8   11.194      26.633
2015   10       31    16  10    3.4799   330.7   11.195      26.627
2015   10       31    16  18    3.4802   330.7   11.195      26.622
2015   10       31    16  25    3.4805   330.7   11.196      26.617
2015   10       31    16  32    3.4808   330.7   11.197      26.611
2015   10       31    16  39    3.4811   330.7   11.198      26.606
2015   10       31    16  46    3.4814   330.7   11.198      26.601
2015   10       31    16  53    3.4818   330.6   11.199      26.596
2015   10       31    17   0    3.4821   330.6   11.200      26.591
2015   10       31    17   7    3.4824   330.6   11.201      26.586
2015   10       31    17  14    3.4828   330.6   11.202      26.581
2015   10       31    17  22    3.4831   330.6   11.203      26.576
2015   10       31    17  29    3.4835   330.6   11.204      26.571
2015   10       31    17  36    3.4838   330.5   11.205      26.567
2015   10       31    17  43    3.4842   330.5   11.206      26.562
2015   10       31    17  50    3.4845   330.5   11.207      26.557
2015   10       31    17  57    3.4849   330.5   11.208      26.552
2015   10       31    18   4    3.4852   330.5   11.209      26.547
2015   10       31    18  11    3.4856   330.5   11.210      26.543
2015   10       31    18  19    3.4859   330.4   11.211      26.538
2015   10       31    18  26    3.4863   330.4   11.212      26.533
2015   10       31    18  33    3.4867   330.4   11.213      26.529
2015   10       31    18  40    3.4870   330.4   11.214      26.524
2015   10       31    18  47    3.4874   330.4   11.216      26.519
2015   10       31    18  54    3.4878   330.3   11.217      26.515
2015   10       31    19   1    3.4881   330.3   11.218      26.510
2015   10       31    19   8    3.4885   330.3   11.219      26.505
2015   10       31    19  16    3.4889   330.3   11.221      26.500
2015   10       31    19  23    3.4893   330.3   11.222      26.496
2015   10       31    19  30    3.4897   330.3   11.223      26.491
2015   10       31    19  37    3.4901   330.2   11.224      26.487
2015   10       31    19  44    3.4905   330.2   11.226      26.482
2015   10       31    19  51    3.4909   330.2   11.227      26.478
2015   10       31    19  58    3.4913   330.2   11.229      26.473
2015   10       31    20   6    3.4917   330.2   11.230      26.469
2015   10       31    20  13    3.4922   330.1   11.232      26.465
2015   10       31    20  20    3.4926   330.1   11.233      26.460
2015   10       31    20  27    3.4930   330.1   11.235      26.456
2015   10       31    20  34    3.4935   330.1   11.236      26.452
2015   10       31    20  41    3.4940   330.1   11.238      26.448
2015   10       31    20  48    3.4945   330.0   11.240      26.444
2015   10       31    20  55    3.4950   330.0   11.242      26.440
2015   10       31    21   2    3.4955   330.0   11.243      26.436
2015   10       31    21   9    3.4960   330.0   11.245      26.432
2015   10       31    21  17    3.4966   330.0   11.247      26.429
2015   10       31    21  24    3.4972   329.9   11.249      26.425
2015   10       31    21  31    3.4977   329.9   11.251      26.422
2015   10       31    21  38    3.4983   329.9   11.253      26.418
2015   10       31    21  45    3.4990   329.9   11.255      26.415
2015   10       31    21  52    3.4996   329.9   11.258      26.412
2015   10       31    21  59    3.5002   329.9   11.260      26.409
2015   10       31    22   6    3.5009   329.8   11.262      26.405
2015   10       31    22  13    3.5016   329.8   11.265      26.403
2015   10       31    22  21    3.5023   329.8   11.267      26.400
2015   10       31    22  28    3.5030   329.8   11.270      26.397
2015   10       31    22  35    3.5038   329.8   11.272      26.395
2015   10       31    22  42    3.5045   329.8   11.275      26.392
2015   10       31    22  49    3.5053   329.7   11.277      26.390
2015   10       31    22  56    3.5061   329.7   11.280      26.388
2015   10       31    23   3    3.5069   329.7   11.283      26.386
2015   10       31    23  10    3.5078   329.7   11.286      26.384
2015   10       31    23  17    3.5086   329.7   11.289      26.382
2015   10       31    23  24    3.5095   329.7   11.292      26.381
2015   10       31    23  32    3.5103   329.6   11.295      26.379
2015   10       31    23  39    3.5112   329.6   11.298      26.378
2015   10       31    23  46    3.5121   329.6   11.301      26.377
2015   10       31    23  53    3.5130   329.6   11.304      26.375
2015   11        1     0   0    3.5140   329.6   11.308      26.374
2015   11        1     0   7    3.5149   329.6   11.311      26.374
2015   11        1     0  14    3.5159   329.6   11.314      26.373
2015   11        1     0  21    3.5168   329.5   11.318      26.372
2015   11        1     0  29    3.5178   329.5   11.321      26.372
2015   11        1     0  36    3.5188   329.5   11.324      26.371
2015   11        1     0  43    3.5198   329.5   11.328      26.371
2015   11        1     0  50    3.5208   329.5   11.331      26.371
2015   11        1     0  57    3.5218   329.5   11.335      26.370
2015   11        1     1   4    3.5228   329.5   11.338      26.370
2015   11        1     1  11    3.5238   329.4   11.342      26.370
2015   11        1     1  18    3.5249   329.4   11.346      26.371
2015   11        1     1  26    3.5259   329.4   11.349      26.371
2015   11        1     1  33    3.5270   329.4   11.353      26.371
2015   11        1     1  40    3.5280   329.4   11.357      26.372
2015   11        1     1  47    3.5291   329.4   11.360      26.372
2015   11        1     1  54    3.5302   329.4   11.364      26.372
2015   11        1     2   1    3.5312   329.4   11.368      26.373
2015   11        1     2   8    3.5323   329.3   11.372      26.374
2015   11        1     2  15    3.5334   329.3   11.375      26.374
2015   11        1     2  23    3.5345   329.3   11.379      26.375
2015   11        1     2  30    3.5356   329.3   11.383      26.376
2015   11        1     2  37    3.5367   329.3   11.387      26.377
2015   11        1     2  44    3.5378   329.3   11.391      26.378
2015   11        1     2  51    3.5390   329.3   11.395      26.379
2015   11        1     2  58    3.5401   329.3   11.399      26.380
2015   11        1     3   5    3.5412   329.2   11.403      26.381
2015   11        1     3  12    3.5424   329.2   11.406      26.382
2015   11        1     3  20    3.5436   329.2   11.410      26.383
2015   11        1     3  27    3.5448   329.2   11.414      26.385
2015   11        1     3  34    3.5459   329.2   11.419      26.386
2015   11        1     3  41    3.5471   329.2   11.423      26.388
2015   11        1     3  48    3.5484   329.2   11.427      26.389
2015   11        1     3  55    3.5496   329.2   11.431      26.391
2015   11        1     4   2    3.5509   329.1   11.435      26.393
2015   11        1     4   9    3.5521   329.1   11.439      26.394
2015   11        1     4  16    3.5534   329.1   11.443      26.396
2015   11        1     4  24    3.5547   329.1   11.448      26.398
2015   11        1     4  31    3.5560   329.1   11.452      26.401
2015   11        1     4  38    3.5574   329.1   11.456      26.403
2015   11        1     4  45    3.5588   329.1   11.461      26.405
2015   11        1     4  52    3.5602   329.1   11.465      26.408
2015   11        1     4  59    3.5616   329.0   11.470      26.410
2015   11        1     5   6    3.5631   329.0   11.474      26.413
2015   11        1     5  13    3.5645   329.0   11.479      26.416
2015   11        1     5  20    3.5659   329.0   11.484      26.419
2015   11        1     5  27    3.5675   329.0   11.489      26.422
2015   11        1     5  35    3.5690   329.0   11.493      26.425
2015   11        1     5  42    3.5705   329.0   11.498      26.428
2015   11        1     5  49    3.5721   329.0   11.503      26.432
2015   11        1     5  56    3.5737   329.0   11.508      26.436
2015   11        1     6   3    3.5754   329.0   11.513      26.440
2015   11        1     6  10    3.5770   328.9   11.518      26.444
2015   11        1     6  17    3.5787   328.9   11.524      26.448
2015   11        1     6  24    3.5804   328.9   11.529      26.452
2015   11        1     6  31    3.5822   328.9   11.534      26.456
2015   11        1     6  39    3.5839   328.9   11.540      26.461
2015   11        1     6  46    3.5857   328.9   11.545      26.466
2015   11        1     6  53    3.5875   328.9   11.551      26.471
2015   11        1     7   0    3.5893   328.9   11.556      26.476
2015   11        1     7   7    3.5912   328.9   11.562      26.481
2015   11        1     7  14    3.5930   328.9   11.568      26.487
2015   11        1     7  21    3.5949   328.9   11.573      26.493
2015   11        1     7  28    3.5969   328.9   11.579      26.498
2015   11        1     7  35    3.5988   328.9   11.585      26.505
2015   11        1     7  43    3.6007   328.9   11.591      26.511
2015   11        1     7  50    3.6027   328.9   11.597      26.517
2015   11        1     7  57    3.6047   328.9   11.603      26.524
2015   11        1     8   4    3.6067   328.9   11.609      26.530
2015   11        1     8  11    3.6087   328.9   11.616      26.537
2015   11        1     8  18    3.6108   328.8   11.622      26.544
2015   11        1     8  25    3.6128   328.8   11.628      26.552
2015   11        1     8  32    3.6149   328.8   11.634      26.559
2015   11        1     8  40    3.6169   328.8   11.641      26.567
2015   11        1     8  47    3.6190   328.8   11.647      26.574
2015   11        1     8  54    3.6211   328.8   11.654      26.582
2015   11        1     9   1    3.6232   328.8   11.660      26.590
2015   11        1     9   8    3.6254   328.8   11.667      26.598
2015   11        1     9  15    3.6275   328.8   11.673      26.606
2015   11        1     9  22    3.6296   328.8   11.680      26.614
2015   11        1     9  29    3.6318   328.8   11.687      26.623
2015   11        1     9  37    3.6340   328.8   11.693      26.631
2015   11        1     9  44    3.6362   328.8   11.700      26.640
2015   11        1     9  51    3.6384   328.9   11.707      26.649
2015   11        1     9  58    3.6406   328.9   11.714      26.658
2015   11        1    10   5    3.6428   328.9   11.721      26.667
2015   11        1    10  12    3.6451   328.9   11.727      26.676
2015   11        1    10  19    3.6474   328.9   11.734      26.685
2015   11        1    10  27    3.6497   328.9   11.741      26.694
2015   11        1    10  34    3.6520   328.9   11.749      26.703
2015   11        1    10  41    3.6543   328.9   11.756      26.713
2015   11        1    10  48    3.6566   328.9   11.763      26.723
2015   11        1    10  55    3.6590   328.9   11.770      26.733
2015   11        1    11   2    3.6614   328.9   11.777      26.742
2015   11        1    11   9    3.6638   328.9   11.785      26.752
2015   11        1    11  16    3.6663   328.9   11.792      26.763
2015   11        1    11  23    3.6688   328.9   11.800      26.773
2015   11        1    11  31    3.6713   328.9   11.808      26.784
2015   11        1    11  38    3.6738   328.9   11.816      26.794
2015   11        1    11  45    3.6763   328.9   11.823      26.805
2015   11        1    11  52    3.6789   328.9   11.832      26.816
2015   11        1    11  59    3.6815   328.9   11.840      26.828
2015   11        1    12   6    3.6842   328.9   11.848      26.839
2015   11        1    12  13    3.6868   328.9   11.856      26.851
2015   11        1    12  20    3.6895   328.9   11.865      26.864
2015   11        1    12  27    3.6922   329.0   11.873      26.877
2015   11        1    12  34    3.6949   329.0   11.882      26.890
2015   11        1    12  42    3.6976   329.0   11.890      26.904
2015   11        1    12  49    3.7004   329.0   11.899      26.918
2015   11        1    12  56    3.7032   329.0   11.907      26.933
2015   11        1    13   3    3.7060   329.0   11.916      26.948
2015   11        1    13  10    3.7088   329.0   11.925      26.963
2015   11        1    13  17    3.7117   329.0   11.934      26.978
2015   11        1    13  24    3.7145   329.0   11.943      26.994
2015   11        1    13  31    3.7174   329.1   11.952      27.010
2015   11        1    13  38    3.7202   329.1   11.961      27.026
2015   11        1    13  46    3.7231   329.1   11.970      27.043
2015   11        1    13  53    3.7260   329.1   11.979      27.060
2015   11        1    14   0    3.7290   329.1   11.988      27.078
2015   11        1    14   7    3.7319   329.1   11.997      27.095
2015   11        1    14  14    3.7348   329.2   12.005      27.113
2015   11        1    14  21    3.7377   329.2   12.014      27.131
2015   11        1    14  28    3.7406   329.2   12.023      27.150
2015   11        1    14  35    3.7435   329.2   12.032      27.168
2015   11        1    14  42    3.7465   329.2   12.041      27.187
2015   11        1    14  50    3.7494   329.3   12.050      27.205
2015   11        1    14  57    3.7524   329.3   12.058      27.224
2015   11        1    15   4    3.7553   329.3   12.067      27.243
2015   11        1    15  11    3.7582   329.3   12.076      27.262
2015   11        1    15  18    3.7612   329.3   12.084      27.281
2015   11        1    15  25    3.7641   329.4   12.093      27.300
2015   11        1    15  32    3.7671   329.4   12.101      27.319
2015   11        1    15  39    3.7700   329.4   12.110      27.338
2015   11        1    15  47    3.7730   329.4   12.118      27.357
2015   11        1    15  54    3.7759   329.5   12.126      27.376
2015   11        1    16   1    3.7789   329.5   12.135      27.395
2015   11        1    16   8    3.7819   329.5   12.143      27.413
2015   11        1    16  15    3.7849   329.5   12.151      27.432
2015   11        1    16  22    3.7879   329.6   12.160      27.451
2015   11        1    16  29    3.7908   329.6   12.168      27.470
2015   11        1    16  36    3.7939   329.6   12.176      27.488
2015   11        1    16  44    3.7969   329.6   12.185      27.507
2015   11        1    16  51    3.8000   329.7   12.193      27.526
2015   11        1    16  58    3.8030   329.7   12.202      27.545
2015   11        1    17   5    3.8061   329.7   12.211      27.564
2015   11        1    17  12    3.8092   329.8   12.219      27.583
2015   11        1    17  19    3.8123   329.8   12.228      27.602
2015   11        1    17  26    3.8155   329.8   12.237      27.621
2015   11        1    17  34    3.8186   329.9   12.246      27.640
2015   11        1    17  41    3.8218   329.9   12.255      27.660
2015   11        1    17  48    3.8251   329.9   12.264      27.680
2015   11        1    17  55    3.8283   329.9   12.274      27.699
2015   11        1    18   2    3.8316   330.0   12.284      27.719
2015   11        1    18   9    3.8349   330.0   12.293      27.739
2015   11        1    18  16    3.8382   330.0   12.303      27.759
2015   11        1    18  23    3.8416   330.1   12.314      27.780
2015   11        1    18  30    3.8450   330.1   12.324      27.801
2015   11        1    18  38    3.8484   330.1   12.335      27.823
2015   11        1    18  45    3.8519   330.2   12.346      27.845
2015   11        1    18  52    3.8554   330.2   12.357      27.868
2015   11        1    18  59    3.8589   330.3   12.368      27.892
2015   11        1    19   6    3.8624   330.3   12.379      27.915
2015   11        1    19  13    3.8660   330.3   12.390      27.940
2015   11        1    19  21    3.8695   330.4   12.402      27.965
2015   11        1    19  28    3.8731   330.4   12.413      27.990
2015   11        1    19  35    3.8766   330.5   12.425      28.016
2015   11        1    19  42    3.8802   330.5   12.437      28.043
2015   11        1    19  49    3.8837   330.6   12.448      28.070
2015   11        1    19  56    3.8872   330.6   12.459      28.098
2015   11        1    20   4    3.8907   330.7   12.471      28.126
2015   11        1    20  11    3.8942   330.7   12.482      28.155
2015   11        1    20  18    3.8977   330.8   12.493      28.183
2015   11        1    20  25    3.9012   330.8   12.504      28.213
2015   11        1    20  32    3.9046   330.9   12.515      28.242
2015   11        1    20  40    3.9081   330.9   12.526      28.273
2015   11        1    20  47    3.9115   331.0   12.537      28.303
2015   11        1    20  54    3.9149   331.1   12.547      28.333
2015   11        1    21   2    3.9182   331.1   12.557      28.364
2015   11        1    21   9    3.9216   331.2   12.568      28.395
2015   11        1    21  16    3.9249   331.2   12.578      28.426
2015   11        1    21  24    3.9282   331.3   12.587      28.458
2015   11        1    21  31    3.9314   331.4   12.597      28.489
2015   11        1    21  38    3.9346   331.4   12.606      28.521
2015   11        1    21  46    3.9378   331.5   12.615      28.552
2015   11        1    21  53    3.9410   331.6   12.624      28.583
2015   11        1    22   0    3.9442   331.6   12.632      28.614
2015   11        1    22   8    3.9473   331.7   12.641      28.645
2015   11        1    22  15    3.9504   331.8   12.649      28.675
2015   11        1    22  22    3.9534   331.8   12.657      28.706
2015   11        1    22  30    3.9565   331.9   12.665      28.735
2015   11        1    22  37    3.9595   332.0   12.673      28.765
2015   11        1    22  45    3.9625   332.0   12.680      28.795
2015   11        1    22  52    3.9655   332.1   12.687      28.824
2015   11        1    22  59    3.9685   332.1   12.695      28.853
2015   11        1    23   7    3.9715   332.2   12.702      28.881
2015   11        1    23  14    3.9745   332.3   12.709      28.910
2015   11        1    23  21    3.9775   332.3   12.716      28.938
2015   11        1    23  29    3.9805   332.4   12.724      28.966
2015   11        1    23  36    3.9836   332.5   12.731      28.994
2015   11        1    23  43    3.9866   332.5   12.738      29.021
2015   11        1    23  51    3.9897   332.6   12.745      29.049
2015   11        1    23  58    3.9928   332.7   12.752      29.078
2015   11        2     0   6    3.9959   332.8   12.759      29.106
2015   11        2     0  13    3.9990   332.8   12.766      29.134
2015   11        2     0  20    4.0022   332.9   12.773      29.163
2015   11        2     0  28    4.0054   333.0   12.780      29.191
2015   11        2     0  35    4.0087   333.0   12.788      29.220
2015   11        2     0  42    4.0119   333.1   12.795      29.249
2015   11        2     0  50    4.0151   333.2   12.802      29.279
2015   11        2     0  57    4.0184   333.3   12.809      29.308
2015   11        2     1   4    4.0216   333.4   12.816      29.338
2015   11        2     1  11    4.0248   333.4   12.823      29.368
2015   11        2     1  19    4.0281   333.5   12.830      29.398
2015   11        2     1  26    4.0313   333.6   12.837      29.428
2015   11        2     1  33    4.0345   333.7   12.844      29.458
2015   11        2     1  40    4.0377   333.8   12.851      29.488
2015   11        2     1  47    4.0409   333.9   12.858      29.518
2015   11        2     1  55    4.0441   333.9   12.864      29.548
2015   11        2     2   2    4.0472   334.0   12.871      29.578
2015   11        2     2   9    4.0504   334.1   12.878      29.608
2015   11        2     2  16    4.0535   334.2   12.885      29.638
2015   11        2     2  23    4.0566   334.3   12.891      29.668
2015   11        2     2  30    4.0596   334.4   12.898      29.698
2015   11        2     2  38    4.0627   334.5   12.904      29.729
2015   11        2     2  45    4.0657   334.5   12.911      29.760
2015   11        2     2  52    4.0687   334.6   12.917      29.791
2015   11        2     2  59    4.0717   334.7   12.923      29.822
2015   11        2     3   6    4.0746   334.8   12.929      29.853
2015   11        2     3  13    4.0775   334.9   12.935      29.884
2015   11        2     3  21    4.0804   335.0   12.941      29.914
2015   11        2     3  28    4.0831   335.1   12.946      29.945
2015   11        2     3  35    4.0860   335.2   12.951      29.977
2015   11        2     3  42    4.0887   335.3   12.956      30.008
2015   11        2     3  49    4.0914   335.4   12.961      30.039
2015   11        2     3  56    4.0940   335.5   12.966      30.071
2015   11        2     4   3    4.0966   335.6   12.970      30.102
2015   11        2     4  10    4.0992   335.7   12.974      30.133
2015   11        2     4  18    4.1017   335.8   12.978      30.163
2015   11        2     4  25    4.1042   335.9   12.981      30.194
2015   11        2     4  32    4.1067   335.9   12.985      30.224
2015   11        2     4  39    4.1091   336.0   12.988      30.254
2015   11        2     4  46    4.1115   336.1   12.991      30.283
2015   11        2     4  53    4.1138   336.2   12.994      30.313
2015   11        2     5   0    4.1162   336.3   12.997      30.342
2015   11        2     5   7    4.1185   336.4   12.999      30.371
2015   11        2     5  14    4.1208   336.5   13.002      30.400
2015   11        2     5  22    4.1231   336.6   13.004      30.429
2015   11        2     5  29    4.1254   336.7   13.007      30.457
2015   11        2     5  36    4.1276   336.8   13.009      30.485
2015   11        2     5  43    4.1299   336.9   13.011      30.513
2015   11        2     5  50    4.1321   337.0   13.013      30.541
2015   11        2     5  57    4.1344   337.1   13.015      30.569
2015   11        2     6   4    4.1367   337.2   13.018      30.596
2015   11        2     6  11    4.1389   337.3   13.020      30.624
2015   11        2     6  19    4.1412   337.4   13.022      30.651
2015   11        2     6  26    4.1435   337.5   13.024      30.678
2015   11        2     6  33    4.1457   337.6   13.027      30.706
2015   11        2     6  40    4.1480   337.7   13.029      30.733
2015   11        2     6  47    4.1504   337.8   13.032      30.760
2015   11        2     6  54    4.1527   337.9   13.035      30.788
2015   11        2     7   1    4.1551   338.0   13.038      30.816
2015   11        2     7   8    4.1574   338.1   13.041      30.844
2015   11        2     7  16    4.1599   338.2   13.044      30.872
2015   11        2     7  23    4.1623   338.3   13.047      30.900
2015   11        2     7  30    4.1647   338.4   13.050      30.930
2015   11        2     7  37    4.1672   338.5   13.053      30.959
2015   11        2     7  44    4.1696   338.6   13.057      30.989
2015   11        2     7  51    4.1721   338.7   13.060      31.019
2015   11        2     7  59    4.1745   338.8   13.063      31.049
2015   11        2     8   6    4.1770   339.0   13.066      31.080
2015   11        2     8  13    4.1794   339.1   13.070      31.111
2015   11        2     8  20    4.1819   339.2   13.073      31.142
2015   11        2     8  27    4.1843   339.3   13.076      31.173
2015   11        2     8  34    4.1867   339.4   13.079      31.204
2015   11        2     8  41    4.1891   339.5   13.082      31.235
2015   11        2     8  48    4.1916   339.7   13.085      31.266
2015   11        2     8  56    4.1940   339.8   13.087      31.297
2015   11        2     9   3    4.1964   339.9   13.090      31.328
2015   11        2     9  10    4.1988   340.0   13.093      31.360
2015   11        2     9  17    4.2012   340.1   13.096      31.391
2015   11        2     9  24    4.2035   340.2   13.098      31.422
2015   11        2     9  31    4.2059   340.4   13.101      31.453
2015   11        2     9  38    4.2083   340.5   13.104      31.484
2015   11        2     9  45    4.2108   340.6   13.106      31.515
2015   11        2     9  52    4.2132   340.7   13.109      31.545
2015   11        2     9  59    4.2156   340.8   13.112      31.576
2015   11        2    10   7    4.2181   341.0   13.115      31.608
2015   11        2    10  14    4.2206   341.1   13.118      31.640
2015   11        2    10  21    4.2230   341.2   13.121      31.672
2015   11        2    10  28    4.2255   341.3   13.124      31.704
2015   11        2    10  35    4.2280   341.4   13.127      31.736
2015   11        2    10  42    4.2305   341.6   13.129      31.769
2015   11        2    10  49    4.2329   341.7   13.132      31.801
2015   11        2    10  56    4.2353   341.8   13.134      31.833
2015   11        2    11   3    4.2378   341.9   13.136      31.865
2015   11        2    11  11    4.2401   342.1   13.138      31.897
2015   11        2    11  18    4.2425   342.2   13.140      31.928
2015   11        2    11  25    4.2448   342.3   13.141      31.959
2015   11        2    11  32    4.2471   342.5   13.142      31.990
2015   11        2    11  39    4.2494   342.6   13.143      32.020
2015   11        2    11  46    4.2516   342.7   13.143      32.050
2015   11        2    11  53    4.2538   342.8   13.144      32.079
2015   11        2    12   0    4.2559   343.0   13.143      32.107
2015   11        2    12   7    4.2580   343.1   13.143      32.135
2015   11        2    12  15    4.2602   343.2   13.143      32.162
2015   11        2    12  22    4.2622   343.3   13.142      32.189
2015   11        2    12  29    4.2643   343.4   13.141      32.215
2015   11        2    12  36    4.2663   343.6   13.140      32.241
2015   11        2    12  43    4.2683   343.7   13.139      32.266
2015   11        2    12  50    4.2703   343.8   13.138      32.291
2015   11        2    12  57    4.2723   343.9   13.136      32.315
2015   11        2    13   4    4.2743   344.1   13.135      32.339
2015   11        2    13  12    4.2762   344.2   13.133      32.363
2015   11        2    13  19    4.2782   344.3   13.131      32.386
2015   11        2    13  26    4.2801   344.4   13.130      32.410
2015   11        2    13  33    4.2820   344.5   13.128      32.432
2015   11        2    13  40    4.2839   344.7   13.126      32.455
2015   11        2    13  47    4.2858   344.8   13.124      32.477
2015   11        2    13  54    4.2878   344.9   13.122      32.499
2015   11        2    14   1    4.2897   345.0   13.120      32.521
2015   11        2    14   8    4.2916   345.1   13.119      32.543
2015   11        2    14  16    4.2935   345.3   13.117      32.565
2015   11        2    14  23    4.2954   345.4   13.115      32.586
2015   11        2    14  30    4.2973   345.5   13.113      32.607
2015   11        2    14  37    4.2993   345.6   13.112      32.629
2015   11        2    14  44    4.3012   345.8   13.110      32.650
2015   11        2    14  51    4.3031   345.9   13.108      32.671
2015   11        2    14  58    4.3051   346.0   13.107      32.692
2015   11        2    15   6    4.3071   346.1   13.106      32.713
2015   11        2    15  13    4.3090   346.3   13.104      32.735
2015   11        2    15  20    4.3110   346.4   13.103      32.756
2015   11        2    15  27    4.3129   346.5   13.102      32.778
2015   11        2    15  34    4.3149   346.6   13.101      32.799
2015   11        2    15  41    4.3169   346.8   13.100      32.821
2015   11        2    15  48    4.3190   346.9   13.099      32.843
2015   11        2    15  55    4.3210   347.0   13.098      32.865
2015   11        2    16   3    4.3230   347.1   13.097      32.887
2015   11        2    16  10    4.3251   347.3   13.097      32.909
2015   11        2    16  17    4.3271   347.4   13.096      32.931
2015   11        2    16  24    4.3292   347.5   13.096      32.954
2015   11        2    16  31    4.3313   347.6   13.096      32.977
2015   11        2    16  38    4.3335   347.8   13.095      32.999
2015   11        2    16  45    4.3357   347.9   13.096      33.023
2015   11        2    16  52    4.3379   348.0   13.096      33.046
2015   11        2    16  59    4.3402   348.1   13.096      33.070
2015   11        2    17   6    4.3425   348.3   13.097      33.093
2015   11        2    17  14    4.3449   348.4   13.099      33.118
2015   11        2    17  21    4.3473   348.5   13.100      33.142
2015   11        2    17  28    4.3498   348.7   13.102      33.168
2015   11        2    17  35    4.3524   348.8   13.104      33.194
2015   11        2    17  42    4.3550   348.9   13.106      33.221
2015   11        2    17  49    4.3577   349.1   13.109      33.248
2015   11        2    17  56    4.3605   349.2   13.111      33.276
2015   11        2    18   3    4.3633   349.3   13.114      33.305
2015   11        2    18  10    4.3662   349.5   13.117      33.334
2015   11        2    18  18    4.3690   349.6   13.120      33.363
2015   11        2    18  25    4.3720   349.7   13.124      33.393
2015   11        2    18  32    4.3749   349.9   13.127      33.424
2015   11        2    18  39    4.3779   350.0   13.131      33.455
2015   11        2    18  46    4.3809   350.2   13.134      33.486
2015   11        2    18  53    4.3839   350.3   13.137      33.518
2015   11        2    19   0    4.3869   350.5   13.140      33.550
2015   11        2    19   7    4.3899   350.6   13.143      33.583
2015   11        2    19  14    4.3929   350.8   13.146      33.615
2015   11        2    19  21    4.3960   350.9   13.149      33.647
2015   11        2    19  29    4.3990   351.1   13.152      33.679
2015   11        2    19  36    4.4020   351.2   13.155      33.712
2015   11        2    19  43    4.4050   351.4   13.157      33.743
2015   11        2    19  50    4.4080   351.5   13.159      33.775
2015   11        2    19  57    4.4109   351.7   13.162      33.808
2015   11        2    20   4    4.4138   351.8   13.164      33.840
2015   11        2    20  11    4.4167   352.0   13.166      33.873
2015   11        2    20  18    4.4196   352.1   13.167      33.905
2015   11        2    20  25    4.4223   352.3   13.169      33.938
2015   11        2    20  33    4.4251   352.4   13.170      33.970
2015   11        2    20  40    4.4278   352.6   13.171      34.002
2015   11        2    20  47    4.4305   352.7   13.172      34.035
2015   11        2    20  54    4.4331   352.9   13.172      34.066
2015   11        2    21   1    4.4356   353.1   13.173      34.098
2015   11        2    21   8    4.4381   353.2   13.173      34.129
2015   11        2    21  15    4.4406   353.4   13.172      34.160
2015   11        2    21  22    4.4429   353.5   13.171      34.190
2015   11        2    21  30    4.4452   353.7   13.170      34.220
2015   11        2    21  37    4.4475   353.9   13.169      34.250
2015   11        2    21  44    4.4497   354.0   13.167      34.279
2015   11        2    21  51    4.4519   354.2   13.165      34.307
2015   11        2    21  58    4.4541   354.4   13.163      34.335
2015   11        2    22   5    4.4562   354.5   13.161      34.362
2015   11        2    22  12    4.4582   354.7   13.158      34.389
2015   11        2    22  19    4.4603   354.8   13.155      34.415
2015   11        2    22  27    4.4623   355.0   13.153      34.441
2015   11        2    22  34    4.4643   355.2   13.150      34.466
2015   11        2    22  41    4.4663   355.3   13.146      34.492
2015   11        2    22  48    4.4683   355.5   13.143      34.517
2015   11        2    22  55    4.4703   355.7   13.140      34.541
2015   11        2    23   2    4.4722   355.8   13.137      34.566
2015   11        2    23   9    4.4742   356.0   13.134      34.590
2015   11        2    23  16    4.4762   356.1   13.130      34.614
2015   11        2    23  24    4.4782   356.3   13.127      34.639
2015   11        2    23  31    4.4802   356.5   13.124      34.663
2015   11        2    23  38    4.4822   356.6   13.121      34.687
2015   11        2    23  45    4.4843   356.8   13.118      34.712
2015   11        2    23  52    4.4863   357.0   13.115      34.736
2015   11        2    23  59    4.4885   357.1   13.113      34.761
2015   11        3     0   6    4.4906   357.3   13.110      34.786
2015   11        3     0  13    4.4928   357.5   13.108      34.811
2015   11        3     0  20    4.4951   357.6   13.106      34.837
2015   11        3     0  27    4.4975   357.8   13.105      34.862
2015   11        3     0  35    4.4999   358.0   13.103      34.889
2015   11        3     0  42    4.5024   358.2   13.103      34.916
2015   11        3     0  49    4.5050   358.3   13.102      34.944
2015   11        3     0  56    4.5078   358.5   13.102      34.972
2015   11        3     1   3    4.5107   358.7   13.103      35.002
2015   11        3     1  10    4.5137   358.9   13.104      35.032
2015   11        3     1  17    4.5169   359.0   13.106      35.063
2015   11        3     1  24    4.5202   359.2   13.109      35.095
2015   11        3     1  31    4.5237   359.4   13.113      35.129
2015   11        3     1  38    4.5272   359.6   13.117      35.164
2015   11        3     1  46    4.5309   359.8   13.122      35.202
2015   11        3     1  53    4.5347   360.0   13.127      35.241
2015   11        3     2   0    4.5386   360.2   13.133      35.283
2015   11        3     2   7    4.5426   360.4   13.139      35.326
2015   11        3     2  14    4.5467   360.6   13.146      35.371
2015   11        3     2  21    4.5508   360.8   13.153      35.418
2015   11        3     2  28    4.5551   361.0   13.160      35.467
2015   11        3     2  35    4.5592   361.2   13.167      35.517
2015   11        3     2  42    4.5634   361.4   13.174      35.570
2015   11        3     2  49    4.5675   361.6   13.181      35.624
2015   11        3     2  57    4.5715   361.8   13.188      35.679
2015   11        3     3   4    4.5754   362.0   13.195      35.735
2015   11        3     3  11    4.5793   362.3   13.201      35.792
2015   11        3     3  18    4.5830   362.5   13.207      35.849
2015   11        3     3  25    4.5866   362.7   13.212      35.907
2015   11        3     3  32    4.5901   362.9   13.216      35.964
2015   11        3     3  39    4.5934   363.1   13.220      36.022
2015   11        3     3  46    4.5965   363.4   13.223      36.079
2015   11        3     3  53    4.5996   363.6   13.226      36.136
2015   11        3     4   0    4.6024   363.8   13.228      36.192
2015   11        3     4   8    4.6051   364.0   13.229      36.247
2015   11        3     4  15    4.6077   364.3   13.229      36.301
2015   11        3     4  22    4.6101   364.5   13.229      36.354
2015   11        3     4  29    4.6124   364.7   13.228      36.406
2015   11        3     4  36    4.6146   364.9   13.226      36.458
2015   11        3     4  43    4.6167   365.2   13.224      36.508
2015   11        3     4  50    4.6187   365.4   13.222      36.558
2015   11        3     4  57    4.6206   365.6   13.219      36.606
2015   11        3     5   4    4.6224   365.8   13.215      36.653
2015   11        3     5  12    4.6241   366.0   13.211      36.699
2015   11        3     5  19    4.6258   366.3   13.207      36.745
2015   11        3     5  26    4.6274   366.5   13.202      36.789
2015   11        3     5  33    4.6289   366.7   13.197      36.834
2015   11        3     5  40    4.6304   366.9   13.192      36.877
2015   11        3     5  47    4.6319   367.2   13.186      36.920
2015   11        3     5  54    4.6333   367.4   13.181      36.962
2015   11        3     6   1    4.6347   367.6   13.175      37.004
2015   11        3     6   9    4.6361   367.8   13.169      37.045
2015   11        3     6  16    4.6375   368.1   13.163      37.086
2015   11        3     6  23    4.6389   368.3   13.157      37.127
2015   11        3     6  30    4.6403   368.5   13.151      37.167
2015   11        3     6  37    4.6417   368.7   13.145      37.208
2015   11        3     6  44    4.6431   369.0   13.139      37.248
2015   11        3     6  51    4.6445   369.2   13.134      37.288
2015   11        3     6  58    4.6460   369.4   13.128      37.328
2015   11        3     7   5    4.6475   369.6   13.123      37.368
2015   11        3     7  13    4.6490   369.8   13.118      37.409
2015   11        3     7  20    4.6506   370.1   13.113      37.450
2015   11        3     7  27    4.6523   370.3   13.109      37.491
2015   11        3     7  34    4.6541   370.5   13.105      37.533
2015   11        3     7  41    4.6559   370.8   13.102      37.575
2015   11        3     7  48    4.6579   371.0   13.099      37.618
2015   11        3     7  55    4.6600   371.2   13.098      37.663
2015   11        3     8   2    4.6622   371.5   13.097      37.708
2015   11        3     8   9    4.6646   371.7   13.098      37.755
2015   11        3     8  16    4.6672   371.9   13.099      37.804
2015   11        3     8  24    4.6701   372.2   13.102      37.854
2015   11        3     8  31    4.6733   372.4   13.107      37.906
2015   11        3     8  38    4.6767   372.6   13.114      37.960
2015   11        3     8  45    4.6803   372.9   13.122      38.019
2015   11        3     8  52    4.6842   373.2   13.132      38.084
2015   11        3     8  59    4.6883   373.4   13.143      38.153
2015   11        3     9   6    4.6925   373.7   13.156      38.227
2015   11        3     9  13    4.6970   374.0   13.170      38.305
2015   11        3     9  20    4.7017   374.3   13.185      38.386
2015   11        3     9  27    4.7065   374.6   13.200      38.471
2015   11        3     9  35    4.7113   374.9   13.217      38.561
2015   11        3     9  42    4.7161   375.2   13.233      38.655
2015   11        3     9  49    4.7209   375.5   13.249      38.752
2015   11        3     9  56    4.7255   375.9   13.264      38.853
2015   11        3    10   3    4.7299   376.2   13.277      38.957
2015   11        3    10  10    4.7340   376.6   13.290      39.060
2015   11        3    10  17    4.7379   376.9   13.300      39.163
2015   11        3    10  24    4.7416   377.3   13.309      39.264
2015   11        3    10  31    4.7449   377.6   13.316      39.363
2015   11        3    10  38    4.7480   378.0   13.321      39.459
2015   11        3    10  45    4.7507   378.3   13.323      39.554
2015   11        3    10  53    4.7530   378.7   13.323      39.645
2015   11        3    11   0    4.7550   379.0   13.321      39.733
2015   11        3    11   7    4.7568   379.4   13.317      39.817
2015   11        3    11  14    4.7583   379.7   13.311      39.897
2015   11        3    11  21    4.7596   380.1   13.304      39.973
2015   11        3    11  28    4.7606   380.4   13.295      40.046
2015   11        3    11  35    4.7614   380.7   13.285      40.115
2015   11        3    11  42    4.7621   381.0   13.273      40.183
2015   11        3    11  49    4.7626   381.3   13.261      40.247
2015   11        3    11  56    4.7630   381.7   13.247      40.310
2015   11        3    12   4    4.7633   382.0   13.233      40.371
2015   11        3    12  11    4.7634   382.3   13.218      40.431
2015   11        3    12  18    4.7635   382.6   13.203      40.490
2015   11        3    12  25    4.7636   382.9   13.187      40.549
2015   11        3    12  32    4.7637   383.2   13.171      40.606
2015   11        3    12  39    4.7637   383.5   13.155      40.664
2015   11        3    12  46    4.7637   383.8   13.138      40.721
2015   11        3    12  53    4.7637   384.1   13.120      40.779
2015   11        3    13   0    4.7637   384.4   13.103      40.837
2015   11        3    13   8    4.7637   384.7   13.085      40.895
2015   11        3    13  15    4.7638   385.0   13.067      40.953
2015   11        3    13  22    4.7639   385.3   13.049      41.012
2015   11        3    13  29    4.7640   385.6   13.031      41.072
2015   11        3    13  36    4.7641   385.9   13.012      41.132
2015   11        3    13  43    4.7642   386.2   12.994      41.192
2015   11        3    13  50    4.7643   386.6   12.975      41.253
2015   11        3    13  57    4.7645   386.9   12.956      41.315
2015   11        3    14   5    4.7646   387.2   12.937      41.377
2015   11        3    14  12    4.7648   387.5   12.919      41.440
2015   11        3    14  19    4.7650   387.8   12.900      41.504
2015   11        3    14  26    4.7653   388.1   12.881      41.568
2015   11        3    14  33    4.7655   388.5   12.862      41.633
2015   11        3    14  40    4.7658   388.8   12.844      41.698
2015   11        3    14  47    4.7660   389.1   12.825      41.764
2015   11        3    14  54    4.7664   389.4   12.807      41.830
2015   11        3    15   1    4.7667   389.8   12.790      41.897
2015   11        3    15   8    4.7671   390.1   12.772      41.963
2015   11        3    15  16    4.7675   390.4   12.756      42.031
2015   11        3    15  23    4.7679   390.8   12.740      42.098
2015   11        3    15  30    4.7684   391.1   12.724      42.166
2015   11        3    15  37    4.7690   391.4   12.710      42.234
2015   11        3    15  44    4.7697   391.8   12.696      42.302
2015   11        3    15  51    4.7704   392.1   12.684      42.371
2015   11        3    15  58    4.7713   392.5   12.673      42.442
2015   11        3    16   5    4.7722   392.8   12.663      42.515
2015   11        3    16  12    4.7732   393.2   12.654      42.591
2015   11        3    16  19    4.7741   393.5   12.646      42.669
2015   11        3    16  26    4.7751   393.9   12.639      42.749
2015   11        3    16  34    4.7762   394.3   12.632      42.830
2015   11        3    16  41    4.7772   394.6   12.626      42.913
2015   11        3    16  48    4.7781   395.0   12.621      42.998
2015   11        3    16  55    4.7789   395.4   12.615      43.085
2015   11        3    17   2    4.7796   395.8   12.610      43.173
2015   11        3    17   9    4.7800   396.3   12.604      43.263
2015   11        3    17  16    4.7802   396.7   12.596      43.355
2015   11        3    17  23    4.7801   397.1   12.588      43.445
2015   11        3    17  30    4.7798   397.6   12.578      43.534
2015   11        3    17  37    4.7791   398.0   12.567      43.621
2015   11        3    17  44    4.7782   398.5   12.554      43.706
2015   11        3    17  52    4.7769   398.9   12.540      43.789
2015   11        3    17  59    4.7754   399.4   12.524      43.869
2015   11        3    18   6    4.7734   399.9   12.506      43.948
2015   11        3    18  13    4.7712   400.3   12.486      44.023
2015   11        3    18  20    4.7686   400.8   12.464      44.094
2015   11        3    18  27    4.7652   401.2   12.440      44.162
2015   11        3    18  34    4.7626   401.7   12.415      44.227
2015   11        3    18  41    4.7592   402.2   12.389      44.289
2015   11        3    18  48    4.7555   402.6   12.361      44.349
2015   11        3    18  55    4.7516   403.1   12.331      44.407
2015   11        3    19   3    4.7473   403.5   12.300      44.463
2015   11        3    19  10    4.7423   403.9   12.269      44.516
2015   11        3    19  17    4.7382   404.4   12.235      44.568
2015   11        3    19  24    4.7335   404.8   12.201      44.619
2015   11        3    19  31    4.7284   405.3   12.166      44.668
2015   11        3    19  38    4.7233   405.7   12.130      44.715
2015   11        3    19  45    4.7180   406.1   12.092      44.761
2015   11        3    19  52    4.7127   406.5   12.054      44.807
2015   11        3    19  59    4.7072   407.0   12.015      44.851
2015   11        3    20   6    4.7017   407.4   11.974      44.894
2015   11        3    20  14    4.6960   407.8   11.933      44.935
2015   11        3    20  21    4.6904   408.2   11.891      44.976
2015   11        3    20  28    4.6847   408.6   11.848      45.015
2015   11        3    20  35    4.6791   409.0   11.805      45.053
2015   11        3    20  42    4.6733   409.4   11.761      45.091
2015   11        3    20  49    4.6676   409.9   11.716      45.129
2015   11        3    20  56    4.6618   410.3   11.670      45.165
2015   11        3    21   3    4.6560   410.7   11.624      45.201
2015   11        3    21  11    4.6501   411.1   11.577      45.237
2015   11        3    21  18    4.6441   411.5   11.530      45.272
2015   11        3    21  25    4.6380   411.9   11.481      45.306
2015   11        3    21  32    4.6319   412.3   11.432      45.339
2015   11        3    21  39    4.6248   412.7   11.383      45.370
2015   11        3    21  46    4.6192   413.2   11.332      45.400
2015   11        3    21  53    4.6125   413.6   11.280      45.427
2015   11        3    22   0    4.6057   414.0   11.229      45.451
2015   11        3    22   7    4.5987   414.4   11.176      45.470
2015   11        3    22  14    4.5915   414.8   11.123      45.486
2015   11        3    22  22    4.5841   415.2   11.070      45.497
2015   11        3    22  29    4.5765   415.5   11.016      45.506
2015   11        3    22  36    4.5687   415.9   10.963      45.510
2015   11        3    22  43    4.5609   416.3   10.910      45.513
2015   11        3    22  50    4.5529   416.7   10.857      45.512
2015   11        3    22  57    4.5448   417.0   10.805      45.510
2015   11        3    23   4    4.5366   417.4   10.753      45.506
2015   11        3    23  11    4.5284   417.8   10.701      45.500
2015   11        3    23  18    4.5199   418.1   10.651      45.492
2015   11        3    23  25    4.5116   418.5   10.601      45.483
2015   11        3    23  32    4.5030   418.9   10.551      45.475
2015   11        3    23  40    4.4946   419.2   10.502      45.466
2015   11        3    23  47    4.4859   419.6   10.454      45.456
2015   11        3    23  54    4.4772   420.0   10.406      45.446
2015   11        4     0   1    4.4684   420.4   10.359      45.435
2015   11        4     0   8    4.4587   420.7   10.312      45.423
2015   11        4     0  15    4.4497   421.1   10.266      45.410
2015   11        4     0  22    4.4407   421.5   10.220      45.397
2015   11        4     0  29    4.4324   421.9   10.175      45.383
2015   11        4     0  36    4.4224   422.3   10.130      45.367
2015   11        4     0  43    4.4130   422.7   10.085      45.351
2015   11        4     0  50    4.4036   423.1   10.040      45.334
2015   11        4     0  58    4.3940   423.4    9.996      45.317
2015   11        4     1   5    4.3853   423.8    9.952      45.299
2015   11        4     1  12    4.3745   424.2    9.908      45.281
2015   11        4     1  19    4.3655   424.6    9.865      45.261
2015   11        4     1  26    4.3546   425.0    9.821      45.242
2015   11        4     1  33    4.3445   425.4    9.778      45.222
2015   11        4     1  40    4.3350   425.8    9.734      45.201
2015   11        4     1  47    4.3238   426.3    9.691      45.181
2015   11        4     1  54    4.3131   426.7    9.647      45.159
2015   11        4     2   1    4.3025   427.1    9.603      45.138
2015   11        4     2   8    4.2916   427.5    9.559      45.116
2015   11        4     2  15    4.2806   427.9    9.515      45.093
2015   11        4     2  23    4.2694   428.3    9.470      45.070
2015   11        4     2  30    4.2581   428.7    9.426      45.045
2015   11        4     2  37    4.2474   429.1    9.380      45.020
2015   11        4     2  44    4.2351   429.5    9.334      44.993
2015   11        4     2  51    4.2233   429.9    9.288      44.964
2015   11        4     2  58    4.2116   430.3    9.241      44.934
2015   11        4     3   5    4.1997   430.6    9.194      44.902
2015   11        4     3  12    4.1878   431.0    9.146      44.867
2015   11        4     3  19    4.1757   431.4    9.098      44.830
2015   11        4     3  26    4.1637   431.8    9.050      44.791
2015   11        4     3  34    4.1516   432.1    9.001      44.748
2015   11        4     3  41    4.1395   432.5    8.952      44.703
2015   11        4     3  48    4.1274   432.9    8.903      44.655
2015   11        4     3  55    4.1154   433.2    8.854      44.605
2015   11        4     4   2    4.1034   433.6    8.805      44.552
2015   11        4     4   9    4.0914   433.9    8.755      44.497
2015   11        4     4  16    4.0793   434.2    8.706      44.440
2015   11        4     4  23    4.0674   434.6    8.657      44.380
2015   11        4     4  31    4.0554   434.9    8.607      44.319
2015   11        4     4  38    4.0435   435.2    8.558      44.255
2015   11        4     4  45    4.0314   435.6    8.508      44.189
2015   11        4     4  52    4.0194   435.9    8.459      44.121
2015   11        4     4  59    4.0073   436.2    8.409      44.048
2015   11        4     5   6    3.9952   436.5    8.359      43.973
2015   11        4     5  13    3.9830   436.8    8.309      43.894
2015   11        4     5  20    3.9707   437.1    8.258      43.809
2015   11        4     5  27    3.9582   437.4    8.208      43.716
2015   11        4     5  34    3.9458   437.6    8.158      43.618
2015   11        4     5  41    3.9331   437.9    8.107      43.513
2015   11        4     5  49    3.9205   438.1    8.058      43.404
2015   11        4     5  56    3.9078   438.4    8.009      43.289
2015   11        4     6   3    3.8952   438.6    7.961      43.172
2015   11        4     6  10    3.8830   438.8    7.913      43.052
2015   11        4     6  17    3.8699   439.0    7.866      42.931
2015   11        4     6  24    3.8577   439.2    7.820      42.807
2015   11        4     6  31    3.8452   439.4    7.775      42.682
2015   11        4     6  38    3.8323   439.6    7.731      42.556
2015   11        4     6  45    3.8204   439.7    7.688      42.432
2015   11        4     6  52    3.8080   439.9    7.646      42.310
2015   11        4     6  59    3.7959   440.1    7.605      42.189
2015   11        4     7   7    3.7837   440.3    7.564      42.068
2015   11        4     7  14    3.7717   440.4    7.524      41.950
2015   11        4     7  21    3.7596   440.6    7.485      41.831
2015   11        4     7  28    3.7477   440.8    7.447      41.714
2015   11        4     7  35    3.7358   440.9    7.408      41.598
2015   11        4     7  42    3.7240   441.1    7.371      41.482
2015   11        4     7  49    3.7122   441.3    7.334      41.367
2015   11        4     7  56    3.7005   441.4    7.297      41.252
2015   11        4     8   3    3.6888   441.6    7.261      41.137
2015   11        4     8  10    3.6771   441.7    7.225      41.023
2015   11        4     8  17    3.6654   441.9    7.190      40.909
2015   11        4     8  24    3.6538   442.0    7.155      40.795
2015   11        4     8  32    3.6422   442.2    7.120      40.680
2015   11        4     8  39    3.6306   442.3    7.086      40.566
2015   11        4     8  46    3.6190   442.4    7.052      40.452
2015   11        4     8  53    3.6074   442.6    7.018      40.337
2015   11        4     9   0    3.5958   442.7    6.984      40.222
2015   11        4     9   7    3.5843   442.8    6.951      40.107
2015   11        4     9  14    3.5727   443.0    6.918      39.991
2015   11        4     9  21    3.5612   443.1    6.885      39.875
2015   11        4     9  28    3.5497   443.2    6.852      39.758
2015   11        4     9  35    3.5382   443.3    6.820      39.642
2015   11        4     9  42    3.5267   443.4    6.788      39.525
2015   11        4     9  49    3.5153   443.5    6.756      39.408
2015   11        4     9  57    3.5039   443.5    6.725      39.290
2015   11        4    10   4    3.4925   443.6    6.694      39.173
2015   11        4    10  11    3.4812   443.7    6.664      39.055
2015   11        4    10  18    3.4699   443.8    6.634      38.937
2015   11        4    10  25    3.4587   443.8    6.604      38.819
2015   11        4    10  32    3.4476   443.9    6.575      38.701
2015   11        4    10  39    3.4365   443.9    6.546      38.583
2015   11        4    10  46    3.4255   444.0    6.518      38.466
2015   11        4    10  53    3.4146   444.0    6.490      38.347
2015   11        4    11   0    3.4037   444.0    6.463      38.230
2015   11        4    11   8    3.3929   444.1    6.436      38.113
2015   11        4    11  15    3.3822   444.1    6.410      37.996
2015   11        4    11  22    3.3717   444.1    6.384      37.879
2015   11        4    11  29    3.3612   444.1    6.359      37.763
2015   11        4    11  36    3.3508   444.1    6.334      37.647
2015   11        4    11  43    3.3405   444.1    6.309      37.532
2015   11        4    11  50    3.3302   444.1    6.286      37.418
2015   11        4    11  57    3.3201   444.1    6.262      37.304
2015   11        4    12   4    3.3101   444.0    6.239      37.191
2015   11        4    12  12    3.3006   444.0    6.217      37.079
2015   11        4    12  19    3.2904   444.0    6.195      36.968
2015   11        4    12  26    3.2807   443.9    6.174      36.858
2015   11        4    12  33    3.2710   443.9    6.154      36.748
2015   11        4    12  40    3.2615   443.8    6.133      36.640
2015   11        4    12  47    3.2521   443.8    6.114      36.532
2015   11        4    12  54    3.2428   443.7    6.094      36.426
2015   11        4    13   1    3.2336   443.6    6.076      36.321
2015   11        4    13   8    3.2245   443.6    6.057      36.218
2015   11        4    13  15    3.2160   443.5    6.039      36.115
2015   11        4    13  23    3.2067   443.4    6.022      36.014
2015   11        4    13  30    3.1979   443.3    6.005      35.914
2015   11        4    13  37    3.1892   443.3    5.988      35.817
2015   11        4    13  44    3.1806   443.2    5.972      35.720
2015   11        4    13  51    3.1721   443.1    5.956      35.625
2015   11        4    13  58    3.1637   443.0    5.940      35.531
2015   11        4    14   5    3.1554   442.9    5.924      35.438
2015   11        4    14  12    3.1471   442.9    5.909      35.347
2015   11        4    14  19    3.1389   442.8    5.894      35.257
2015   11        4    14  26    3.1308   442.7    5.879      35.167
2015   11        4    14  33    3.1227   442.6    5.864      35.079
2015   11        4    14  40    3.1147   442.6    5.850      34.992
2015   11        4    14  48    3.1068   442.5    5.835      34.906
2015   11        4    14  55    3.0989   442.4    5.821      34.819
2015   11        4    15   2    3.0910   442.3    5.807      34.734
2015   11        4    15   9    3.0832   442.2    5.793      34.649
2015   11        4    15  16    3.0755   442.2    5.779      34.564
2015   11        4    15  23    3.0678   442.1    5.765      34.479
2015   11        4    15  30    3.0601   442.0    5.752      34.395
2015   11        4    15  37    3.0525   441.9    5.738      34.311
2015   11        4    15  44    3.0449   441.8    5.725      34.227
2015   11        4    15  51    3.0373   441.7    5.711      34.142
2015   11        4    15  58    3.0302   441.6    5.698      34.057
2015   11        4    16   5    3.0223   441.5    5.685      33.972
2015   11        4    16  12    3.0149   441.4    5.671      33.887
2015   11        4    16  19    3.0074   441.3    5.658      33.801
2015   11        4    16  27    3.0001   441.2    5.645      33.715
2015   11        4    16  34    2.9928   441.1    5.633      33.628
2015   11        4    16  41    2.9855   441.0    5.620      33.542
2015   11        4    16  48    2.9783   440.8    5.608      33.455
2015   11        4    16  55    2.9711   440.7    5.596      33.369
2015   11        4    17   2    2.9640   440.6    5.584      33.283
2015   11        4    17   9    2.9569   440.5    5.572      33.198
2015   11        4    17  16    2.9499   440.3    5.560      33.114
2015   11        4    17  23    2.9429   440.2    5.548      33.031
2015   11        4    17  30    2.9359   440.1    5.537      32.948
2015   11        4    17  37    2.9290   440.0    5.526      32.867
2015   11        4    17  44    2.9221   439.8    5.515      32.785
2015   11        4    17  52    2.9153   439.7    5.503      32.705
2015   11        4    17  59    2.9085   439.6    5.492      32.626
2015   11        4    18   6    2.9018   439.4    5.482      32.547
2015   11        4    18  13    2.8955   439.3    5.471      32.468
2015   11        4    18  20    2.8884   439.1    5.460      32.391
2015   11        4    18  27    2.8818   439.0    5.449      32.314
2015   11        4    18  34    2.8752   438.9    5.439      32.238
2015   11        4    18  41    2.8687   438.7    5.428      32.162
2015   11        4    18  48    2.8622   438.6    5.417      32.087
2015   11        4    18  56    2.8557   438.4    5.407      32.011
2015   11        4    19   3    2.8492   438.3    5.396      31.936
2015   11        4    19  10    2.8428   438.2    5.386      31.861
2015   11        4    19  17    2.8365   438.0    5.376      31.787
2015   11        4    19  24    2.8306   437.9    5.365      31.713
2015   11        4    19  31    2.8239   437.7    5.355      31.639
2015   11        4    19  38    2.8176   437.6    5.345      31.566
2015   11        4    19  45    2.8114   437.4    5.335      31.492
2015   11        4    19  52    2.8053   437.3    5.325      31.419
2015   11        4    19  59    2.7995   437.1    5.315      31.345
2015   11        4    20   7    2.7931   436.9    5.305      31.272
2015   11        4    20  14    2.7870   436.8    5.295      31.199
2015   11        4    20  21    2.7811   436.6    5.285      31.126
2015   11        4    20  28    2.7751   436.5    5.276      31.054
2015   11        4    20  35    2.7692   436.3    5.266      30.981
2015   11        4    20  42    2.7637   436.1    5.257      30.909
2015   11        4    20  49    2.7575   436.0    5.247      30.836
2015   11        4    20  56    2.7517   435.8    5.238      30.765
2015   11        4    21   3    2.7460   435.6    5.228      30.692
2015   11        4    21  10    2.7403   435.5    5.219      30.621
2015   11        4    21  17    2.7347   435.3    5.210      30.549
2015   11        4    21  25    2.7291   435.1    5.201      30.478
2015   11        4    21  32    2.7235   434.9    5.192      30.407
2015   11        4    21  39    2.7180   434.8    5.183      30.336
2015   11        4    21  46    2.7125   434.6    5.174      30.265
2015   11        4    21  53    2.7071   434.4    5.166      30.195
2015   11        4    22   0    2.7017   434.2    5.157      30.124
2015   11        4    22   7    2.6964   434.0    5.149      30.055
2015   11        4    22  14    2.6911   433.8    5.140      29.985
2015   11        4    22  21    2.6859   433.7    5.132      29.915
2015   11        4    22  28    2.6806   433.5    5.124      29.846
2015   11        4    22  35    2.6755   433.3    5.116      29.777
2015   11        4    22  42    2.6704   433.1    5.109      29.709
2015   11        4    22  49    2.6653   432.9    5.101      29.640
2015   11        4    22  57    2.6603   432.7    5.094      29.572
2015   11        4    23   4    2.6553   432.5    5.087      29.504
2015   11        4    23  11    2.6504   432.3    5.080      29.436
2015   11        4    23  18    2.6455   432.0    5.073      29.368
2015   11        4    23  25    2.6406   431.8    5.066      29.300
2015   11        4    23  32    2.6362   431.6    5.060      29.233
2015   11        4    23  39    2.6311   431.4    5.054      29.166
2015   11        4    23  46    2.6264   431.2    5.048      29.099
2015   11        4    23  53    2.6218   431.0    5.043      29.031
2015   11        5     0   0    2.6172   430.7    5.038      28.965
2015   11        5     0   7    2.6126   430.5    5.033      28.899
2015   11        5     0  14    2.6081   430.3    5.028      28.834
2015   11        5     0  21    2.6036   430.1    5.023      28.770
2015   11        5     0  28    2.5992   429.8    5.019      28.707
2015   11        5     0  35    2.5948   429.6    5.014      28.644
2015   11        5     0  43    2.5904   429.4    5.010      28.583
2015   11        5     0  50    2.5861   429.2    5.006      28.521
2015   11        5     0  57    2.5818   428.9    5.002      28.462
2015   11        5     1   4    2.5775   428.7    4.997      28.401
2015   11        5     1  11    2.5733   428.5    4.993      28.342
2015   11        5     1  18    2.5691   428.2    4.989      28.284
2015   11        5     1  25    2.5649   428.0    4.985      28.226
2015   11        5     1  32    2.5607   427.8    4.981      28.168
2015   11        5     1  39    2.5566   427.5    4.977      28.111
2015   11        5     1  47    2.5525   427.3    4.973      28.054
2015   11        5     1  54    2.5484   427.1    4.969      27.998
2015   11        5     2   1    2.5443   426.8    4.965      27.942
2015   11        5     2   8    2.5403   426.6    4.961      27.886
2015   11        5     2  15    2.5363   426.4    4.956      27.830
2015   11        5     2  22    2.5323   426.1    4.952      27.775
2015   11        5     2  29    2.5283   425.9    4.948      27.719
2015   11        5     2  36    2.5244   425.6    4.944      27.664
2015   11        5     2  43    2.5205   425.4    4.940      27.609
2015   11        5     2  50    2.5166   425.1    4.935      27.554
2015   11        5     2  58    2.5128   424.9    4.931      27.499
2015   11        5     3   5    2.5089   424.6    4.927      27.444
2015   11        5     3  12    2.5051   424.4    4.923      27.390
2015   11        5     3  19    2.5014   424.1    4.919      27.335
2015   11        5     3  26    2.4977   423.9    4.915      27.280
2015   11        5     3  33    2.4940   423.6    4.911      27.226
2015   11        5     3  40    2.4903   423.4    4.907      27.172
2015   11        5     3  47    2.4867   423.1    4.903      27.117
2015   11        5     3  54    2.4831   422.9    4.899      27.063
2015   11        5     4   1    2.4795   422.6    4.896      27.009
2015   11        5     4   8    2.4760   422.4    4.892      26.955
2015   11        5     4  16    2.4725   422.1    4.888      26.901
2015   11        5     4  23    2.4691   421.8    4.884      26.847
2015   11        5     4  30    2.4656   421.6    4.881      26.793
2015   11        5     4  37    2.4623   421.3    4.877      26.739
2015   11        5     4  44    2.4589   421.1    4.874      26.686
2015   11        5     4  51    2.4556   420.8    4.870      26.633
2015   11        5     4  58    2.4524   420.5    4.867      26.580
2015   11        5     5   5    2.4492   420.3    4.863      26.526
2015   11        5     5  12    2.4460   420.0    4.860      26.474
2015   11        5     5  19    2.4429   419.8    4.857      26.421
2015   11        5     5  26    2.4398   419.5    4.854      26.369
2015   11        5     5  33    2.4368   419.2    4.851      26.317
2015   11        5     5  40    2.4338   419.0    4.848      26.265
2015   11        5     5  48    2.4308   418.7    4.845      26.213
2015   11        5     5  55    2.4279   418.5    4.842      26.162
2015   11        5     6   2    2.4250   418.2    4.839      26.110
2015   11        5     6   9    2.4221   417.9    4.836      26.059
2015   11        5     6  16    2.4193   417.7    4.834      26.009
2015   11        5     6  23    2.4165   417.4    4.831      25.958
2015   11        5     6  30    2.4138   417.1    4.829      25.908
2015   11        5     6  37    2.4111   416.9    4.826      25.858
2015   11        5     6  44    2.4084   416.6    4.824      25.808
2015   11        5     6  51    2.4058   416.4    4.822      25.759
2015   11        5     6  58    2.4031   416.1    4.819      25.709
2015   11        5     7   5    2.4005   415.8    4.817      25.660
2015   11        5     7  12    2.3980   415.6    4.815      25.611
2015   11        5     7  19    2.3955   415.3    4.813      25.563
2015   11        5     7  26    2.3929   415.0    4.811      25.515
2015   11        5     7  33    2.3905   414.8    4.809      25.467
2015   11        5     7  41    2.3880   414.5    4.807      25.419
2015   11        5     7  48    2.3856   414.2    4.805      25.371
2015   11        5     7  55    2.3834   414.0    4.803      25.324
2015   11        5     8   2    2.3808   413.7    4.801      25.277
2015   11        5     8   9    2.3785   413.5    4.800      25.230
2015   11        5     8  16    2.3761   413.2    4.798      25.184
2015   11        5     8  23    2.3739   412.9    4.796      25.138
2015   11        5     8  30    2.3716   412.7    4.795      25.093
2015   11        5     8  37    2.3694   412.4    4.793      25.047
2015   11        5     8  44    2.3672   412.1    4.791      25.002
2015   11        5     8  51    2.3650   411.9    4.790      24.957
2015   11        5     8  59    2.3628   411.6    4.788      24.912
2015   11        5     9   6    2.3607   411.3    4.787      24.868
2015   11        5     9  13    2.3586   411.1    4.786      24.824
2015   11        5     9  20    2.3565   410.8    4.784      24.780
2015   11        5     9  27    2.3545   410.5    4.783      24.736
2015   11        5     9  34    2.3525   410.3    4.782      24.693
2015   11        5     9  41    2.3505   410.0    4.781      24.650
2015   11        5     9  48    2.3485   409.8    4.779      24.607
2015   11        5     9  55    2.3466   409.5    4.778      24.565
2015   11        5    10   3    2.3447   409.2    4.777      24.522
2015   11        5    10  10    2.3428   409.0    4.776      24.480
2015   11        5    10  17    2.3409   408.7    4.775      24.439
2015   11        5    10  24    2.3390   408.4    4.774      24.397
2015   11        5    10  31    2.3372   408.2    4.773      24.356
2015   11        5    10  38    2.3354   407.9    4.772      24.314
2015   11        5    10  45    2.3336   407.6    4.771      24.273
2015   11        5    10  52    2.3318   407.4    4.770      24.233
2015   11        5    10  59    2.3301   407.1    4.769      24.192
2015   11        5    11   6    2.3283   406.8    4.769      24.152
2015   11        5    11  13    2.3266   406.6    4.768      24.112
2015   11        5    11  20    2.3249   406.3    4.767      24.072
2015   11        5    11  28    2.3232   406.0    4.767      24.032
2015   11        5    11  35    2.3216   405.8    4.766      23.993
2015   11        5    11  42    2.3199   405.5    4.765      23.953
2015   11        5    11  49    2.3183   405.2    4.765      23.915
2015   11        5    11  56    2.3167   405.0    4.764      23.876
2015   11        5    12   3    2.3151   404.7    4.764      23.837
2015   11        5    12  10    2.3136   404.4    4.764      23.799
2015   11        5    12  17    2.3120   404.2    4.764      23.761
2015   11        5    12  24    2.3105   403.9    4.763      23.722
2015   11        5    12  31    2.3090   403.6    4.763      23.685
2015   11        5    12  38    2.3075   403.4    4.763      23.647
2015   11        5    12  45    2.3061   403.1    4.763      23.609
2015   11        5    12  52    2.3046   402.8    4.763      23.572
2015   11        5    13   0    2.3032   402.6    4.763      23.535
2015   11        5    13   7    2.3018   402.3    4.764      23.497
2015   11        5    13  14    2.3004   402.0    4.764      23.461
2015   11        5    13  21    2.2991   401.8    4.764      23.424
2015   11        5    13  28    2.2977   401.5    4.765      23.387
2015   11        5    13  35    2.2964   401.2    4.765      23.351
2015   11        5    13  42    2.2951   401.0    4.766      23.314
2015   11        5    13  49    2.2938   400.7    4.767      23.278
2015   11        5    13  56    2.2925   400.4    4.767      23.242
2015   11        5    14   3    2.2913   400.2    4.768      23.206
2015   11        5    14  10    2.2901   399.9    4.769      23.170
2015   11        5    14  17    2.2889   399.6    4.770      23.135
2015   11        5    14  24    2.2877   399.4    4.771      23.099
2015   11        5    14  31    2.2865   399.1    4.772      23.064
2015   11        5    14  38    2.2853   398.8    4.773      23.029
2015   11        5    14  45    2.2842   398.6    4.774      22.994
2015   11        5    14  52    2.2831   398.3    4.775      22.960
2015   11        5    14  59    2.2820   398.0    4.777      22.925
2015   11        5    15   7    2.2809   397.7    4.778      22.892
2015   11        5    15  14    2.2799   397.5    4.780      22.858
2015   11        5    15  21    2.2788   397.2    4.781      22.824
2015   11        5    15  28    2.2778   396.9    4.783      22.790
2015   11        5    15  35    2.2769   396.7    4.785      22.757
2015   11        5    15  42    2.2759   396.4    4.787      22.724
2015   11        5    15  49    2.2749   396.1    4.789      22.692
2015   11        5    15  56    2.2740   395.8    4.791      22.659
2015   11        5    16   3    2.2731   395.6    4.793      22.627
2015   11        5    16  10    2.2722   395.3    4.795      22.595
2015   11        5    16  17    2.2713   395.0    4.797      22.564
2015   11        5    16  25    2.2705   394.8    4.800      22.532
2015   11        5    16  32    2.2696   394.5    4.802      22.501
2015   11        5    16  39    2.2688   394.2    4.804      22.470
2015   11        5    16  46    2.2680   393.9    4.807      22.439
2015   11        5    16  53    2.2673   393.7    4.810      22.409
2015   11        5    17   0    2.2665   393.4    4.812      22.378
2015   11        5    17   7    2.2657   393.1    4.815      22.348
2015   11        5    17  14    2.2650   392.9    4.818      22.318
2015   11        5    17  21    2.2642   392.6    4.820      22.288
2015   11        5    17  29    2.2635   392.3    4.823      22.258
2015   11        5    17  36    2.2628   392.1    4.826      22.228
2015   11        5    17  43    2.2620   391.8    4.829      22.198
2015   11        5    17  50    2.2613   391.5    4.831      22.168
2015   11        5    17  57    2.2606   391.3    4.834      22.138
2015   11        5    18   4    2.2599   391.0    4.837      22.108
2015   11        5    18  11    2.2592   390.7    4.840      22.077
2015   11        5    18  18    2.2585   390.4    4.842      22.047
2015   11        5    18  25    2.2577   390.2    4.845      22.016
2015   11        5    18  32    2.2570   389.9    4.848      21.985
2015   11        5    18  39    2.2563   389.6    4.850      21.955
2015   11        5    18  47    2.2557   389.4    4.853      21.924
2015   11        5    18  54    2.2550   389.1    4.855      21.893
2015   11        5    19   1    2.2543   388.8    4.858      21.862
2015   11        5    19   8    2.2537   388.5    4.860      21.831
2015   11        5    19  15    2.2530   388.3    4.863      21.800
2015   11        5    19  22    2.2525   388.0    4.865      21.769
2015   11        5    19  29    2.2518   387.7    4.867      21.738
2015   11        5    19  36    2.2512   387.4    4.870      21.707
2015   11        5    19  43    2.2506   387.2    4.872      21.676
2015   11        5    19  50    2.2500   386.9    4.875      21.645
2015   11        5    19  57    2.2495   386.6    4.877      21.614
2015   11        5    20   4    2.2490   386.3    4.879      21.583
2015   11        5    20  11    2.2485   386.1    4.882      21.552
2015   11        5    20  18    2.2479   385.8    4.884      21.521
2015   11        5    20  25    2.2475   385.5    4.886      21.490
2015   11        5    20  32    2.2470   385.3    4.889      21.459
2015   11        5    20  40    2.2467   385.0    4.891      21.428
2015   11        5    20  47    2.2462   384.7    4.894      21.398
2015   11        5    20  54    2.2458   384.4    4.896      21.367
2015   11        5    21   1    2.2454   384.1    4.899      21.337
2015   11        5    21   8    2.2450   383.9    4.901      21.306
2015   11        5    21  15    2.2447   383.6    4.904      21.276
2015   11        5    21  22    2.2444   383.3    4.907      21.245
2015   11        5    21  29    2.2441   383.0    4.909      21.215
2015   11        5    21  36    2.2439   382.8    4.912      21.185
2015   11        5    21  43    2.2436   382.5    4.915      21.156
2015   11        5    21  50    2.2434   382.2    4.918      21.126
2015   11        5    21  57    2.2432   381.9    4.921      21.097
2015   11        5    22   4    2.2431   381.6    4.924      21.068
2015   11        5    22  11    2.2429   381.3    4.927      21.039
2015   11        5    22  18    2.2429   381.1    4.931      21.011
2015   11        5    22  25    2.2428   380.8    4.934      20.983
2015   11        5    22  32    2.2428   380.5    4.938      20.955
2015   11        5    22  39    2.2429   380.2    4.942      20.927
2015   11        5    22  47    2.2429   379.9    4.946      20.900
2015   11        5    22  54    2.2429   379.6    4.950      20.874
2015   11        5    23   1    2.2431   379.3    4.954      20.847
2015   11        5    23   8    2.2432   379.1    4.959      20.822
2015   11        5    23  15    2.2434   378.8    4.963      20.796
2015   11        5    23  22    2.2437   378.5    4.968      20.771
2015   11        5    23  29    2.2439   378.2    4.973      20.747
2015   11        5    23  36    2.2443   377.9    4.978      20.723
2015   11        5    23  43    2.2446   377.6    4.984      20.699
2015   11        5    23  50    2.2450   377.3    4.990      20.676
2015   11        5    23  58    2.2454   377.0    4.995      20.654
2015   11        6     0   5    2.2459   376.7    5.002      20.632
2015   11        6     0  12    2.2464   376.4    5.008      20.610
2015   11        6     0  19    2.2470   376.2    5.014      20.590
2015   11        6     0  26    2.2477   375.9    5.021      20.569
2015   11        6     0  33    2.2483   375.6    5.028      20.549
2015   11        6     0  40    2.2491   375.3    5.035      20.530
2015   11        6     0  47    2.2498   375.0    5.043      20.511
2015   11        6     0  54    2.2505   374.7    5.050      20.492
2015   11        6     1   1    2.2513   374.4    5.058      20.474
2015   11        6     1   9    2.2523   374.1    5.066      20.457
2015   11        6     1  16    2.2531   373.8    5.075      20.440
2015   11        6     1  23    2.2542   373.6    5.083      20.423
2015   11        6     1  30    2.2550   373.3    5.092      20.407
2015   11        6     1  37    2.2562   373.0    5.101      20.391
2015   11        6     1  44    2.2571   372.7    5.110      20.375
2015   11        6     1  51    2.2582   372.4    5.119      20.360
2015   11        6     1  58    2.2593   372.1    5.129      20.345
2015   11        6     2   5    2.2605   371.8    5.139      20.331
2015   11        6     2  12    2.2619   371.6    5.148      20.317
2015   11        6     2  19    2.2629   371.3    5.159      20.303
2015   11        6     2  26    2.2642   371.0    5.169      20.290
2015   11        6     2  33    2.2655   370.7    5.179      20.276
2015   11        6     2  41    2.2668   370.4    5.190      20.264
2015   11        6     2  48    2.2681   370.2    5.201      20.251
2015   11        6     2  55    2.2694   369.9    5.211      20.239
2015   11        6     3   2    2.2708   369.6    5.222      20.227
2015   11        6     3   9    2.2722   369.3    5.233      20.215
2015   11        6     3  16    2.2736   369.1    5.245      20.204
2015   11        6     3  23    2.2750   368.8    5.256      20.193
2015   11        6     3  30    2.2765   368.5    5.268      20.182
2015   11        6     3  37    2.2780   368.2    5.279      20.172
2015   11        6     3  44    2.2795   368.0    5.291      20.162
2015   11        6     3  51    2.2809   367.7    5.303      20.152
2015   11        6     3  58    2.2825   367.4    5.315      20.142
2015   11        6     4   5    2.2840   367.2    5.327      20.133
2015   11        6     4  12    2.2856   366.9    5.340      20.123
2015   11        6     4  19    2.2871   366.6    5.352      20.115
2015   11        6     4  26    2.2888   366.4    5.365      20.106
2015   11        6     4  33    2.2904   366.1    5.378      20.098
2015   11        6     4  40    2.2921   365.8    5.391      20.091
2015   11        6     4  47    2.2938   365.6    5.404      20.083
2015   11        6     4  55    2.2955   365.3    5.418      20.076
2015   11        6     5   2    2.2973   365.0    5.431      20.070
2015   11        6     5   9    2.2991   364.8    5.445      20.064
2015   11        6     5  16    2.3009   364.5    5.459      20.058
2015   11        6     5  23    2.3028   364.2    5.473      20.053
2015   11        6     5  30    2.3047   364.0    5.487      20.049
2015   11        6     5  37    2.3067   363.7    5.502      20.044
2015   11        6     5  44    2.3087   363.5    5.517      20.041
2015   11        6     5  51    2.3108   363.2    5.532      20.038
2015   11        6     5  58    2.3129   363.0    5.548      20.035
2015   11        6     6   5    2.3151   362.7    5.563      20.034
2015   11        6     6  12    2.3173   362.5    5.579      20.032
2015   11        6     6  19    2.3195   362.2    5.595      20.032
2015   11        6     6  26    2.3218   362.0    5.612      20.032
2015   11        6     6  33    2.3242   361.7    5.629      20.033
2015   11        6     6  40    2.3269   361.5    5.646      20.034
2015   11        6     6  48    2.3291   361.2    5.663      20.036
2015   11        6     6  55    2.3316   361.0    5.681      20.039
2015   11        6     7   2    2.3342   360.8    5.698      20.042
2015   11        6     7   9    2.3369   360.5    5.716      20.046
2015   11        6     7  16    2.3396   360.3    5.735      20.051
2015   11        6     7  23    2.3423   360.1    5.753      20.057
2015   11        6     7  30    2.3451   359.8    5.772      20.063
2015   11        6     7  37    2.3479   359.6    5.791      20.070
2015   11        6     7  44    2.3509   359.4    5.811      20.077
2015   11        6     7  52    2.3538   359.1    5.830      20.085
2015   11        6     7  59    2.3568   358.9    5.850      20.094
2015   11        6     8   6    2.3598   358.7    5.870      20.103
2015   11        6     8  13    2.3629   358.5    5.890      20.113
2015   11        6     8  20    2.3660   358.3    5.911      20.123
2015   11        6     8  27    2.3693   358.1    5.931      20.134
2015   11        6     8  34    2.3725   357.8    5.952      20.145
2015   11        6     8  41    2.3757   357.6    5.973      20.157
2015   11        6     8  48    2.3790   357.4    5.994      20.169
2015   11        6     8  55    2.3824   357.2    6.015      20.182
2015   11        6     9   2    2.3858   357.0    6.036      20.195
2015   11        6     9  10    2.3892   356.8    6.057      20.209
2015   11        6     9  17    2.3927   356.6    6.079      20.223
2015   11        6     9  24    2.3962   356.4    6.100      20.237
2015   11        6     9  31    2.3997   356.2    6.122      20.252
2015   11        6     9  38    2.4033   356.0    6.144      20.267
2015   11        6     9  45    2.4069   355.8    6.165      20.282
2015   11        6     9  52    2.4105   355.6    6.187      20.298
2015   11        6     9  59    2.4142   355.5    6.209      20.314
2015   11        6    10   6    2.4179   355.3    6.231      20.331
2015   11        6    10  13    2.4217   355.1    6.253      20.347
2015   11        6    10  20    2.4255   354.9    6.275      20.364
2015   11        6    10  27    2.4293   354.7    6.297      20.382
2015   11        6    10  34    2.4332   354.5    6.319      20.400
2015   11        6    10  41    2.4370   354.4    6.341      20.418
2015   11        6    10  49    2.4410   354.2    6.363      20.437
2015   11        6    10  56    2.4450   354.0    6.385      20.456
2015   11        6    11   3    2.4490   353.9    6.407      20.475
2015   11        6    11  10    2.4530   353.7    6.429      20.495
2015   11        6    11  17    2.4571   353.5    6.451      20.515
2015   11        6    11  24    2.4613   353.4    6.472      20.535
2015   11        6    11  31    2.4655   353.2    6.494      20.556
2015   11        6    11  38    2.4697   353.0    6.516      20.577
2015   11        6    11  45    2.4739   352.9    6.538      20.599
2015   11        6    11  52    2.4782   352.7    6.560      20.620
2015   11        6    11  59    2.4826   352.6    6.582      20.642
2015   11        6    12   6    2.4870   352.4    6.604      20.665
2015   11        6    12  13    2.4914   352.3    6.626      20.688
2015   11        6    12  20    2.4958   352.1    6.648      20.710
2015   11        6    12  27    2.5004   352.0    6.670      20.734
2015   11        6    12  34    2.5051   351.8    6.692      20.757
2015   11        6    12  41    2.5095   351.7    6.713      20.781
2015   11        6    12  48    2.5141   351.5    6.735      20.805
2015   11        6    12  55    2.5188   351.4    6.757      20.829
2015   11        6    13   2    2.5235   351.3    6.779      20.853
2015   11        6    13   9    2.5283   351.1    6.801      20.878
2015   11        6    13  17    2.5331   351.0    6.823      20.902
2015   11        6    13  24    2.5379   350.9    6.845      20.927
2015   11        6    13  31    2.5427   350.7    6.867      20.952
2015   11        6    13  38    2.5476   350.6    6.889      20.977
2015   11        6    13  45    2.5525   350.5    6.911      21.003
2015   11        6    13  52    2.5575   350.4    6.933      21.028
2015   11        6    13  59    2.5624   350.2    6.955      21.053
2015   11        6    14   6    2.5674   350.1    6.977      21.079
2015   11        6    14  13    2.5724   350.0    6.999      21.105
2015   11        6    14  20    2.5774   349.9    7.021      21.130
2015   11        6    14  27    2.5824   349.8    7.043      21.156
2015   11        6    14  35    2.5874   349.7    7.065      21.181
2015   11        6    14  42    2.5924   349.5    7.087      21.207
2015   11        6    14  49    2.5975   349.4    7.109      21.233
2015   11        6    14  56    2.6025   349.3    7.130      21.258
2015   11        6    15   3    2.6076   349.2    7.152      21.284
2015   11        6    15  10    2.6126   349.1    7.173      21.309
2015   11        6    15  17    2.6177   349.0    7.195      21.334
2015   11        6    15  24    2.6227   348.9    7.217      21.360
2015   11        6    15  31    2.6278   348.8    7.238      21.385
2015   11        6    15  38    2.6328   348.7    7.259      21.410
2015   11        6    15  46    2.6379   348.6    7.281      21.435
2015   11        6    15  53    2.6429   348.5    7.302      21.460
2015   11        6    16   0    2.6480   348.4    7.323      21.485
2015   11        6    16   7    2.6530   348.3    7.344      21.510
2015   11        6    16  14    2.6580   348.2    7.366      21.535
2015   11        6    16  21    2.6630   348.1    7.387      21.560
2015   11        6    16  28    2.6680   348.0    7.408      21.585
2015   11        6    16  35    2.6730   347.9    7.429      21.610
2015   11        6    16  42    2.6780   347.8    7.450      21.635
2015   11        6    16  49    2.6829   347.7    7.470      21.660
2015   11        6    16  56    2.6879   347.7    7.491      21.685
2015   11        6    17   3    2.6928   347.6    7.512      21.709
2015   11        6    17  11    2.6977   347.5    7.533      21.735
2015   11        6    17  18    2.7026   347.4    7.553      21.760
2015   11        6    17  25    2.7075   347.3    7.574      21.785
2015   11        6    17  32    2.7124   347.2    7.594      21.810
2015   11        6    17  39    2.7173   347.2    7.615      21.835
2015   11        6    17  46    2.7221   347.1    7.635      21.861
2015   11        6    17  53    2.7270   347.0    7.655      21.886
2015   11        6    18   0    2.7318   346.9    7.675      21.912
2015   11        6    18   7    2.7367   346.8    7.696      21.937
2015   11        6    18  14    2.7415   346.8    7.716      21.963
2015   11        6    18  21    2.7463   346.7    7.736      21.988
2015   11        6    18  28    2.7511   346.6    7.756      22.014
2015   11        6    18  35    2.7559   346.5    7.776      22.040
2015   11        6    18  42    2.7606   346.5    7.796      22.065
2015   11        6    18  49    2.7654   346.4    7.816      22.091
2015   11        6    18  56    2.7701   346.3    7.836      22.117
2015   11        6    19   3    2.7749   346.3    7.856      22.143
2015   11        6    19  10    2.7796   346.2    7.876      22.170
2015   11        6    19  18    2.7843   346.1    7.895      22.196
2015   11        6    19  25    2.7889   346.1    7.915      22.223
2015   11        6    19  32    2.7936   346.0    7.935      22.249
2015   11        6    19  39    2.7982   346.0    7.954      22.276
2015   11        6    19  46    2.8029   345.9    7.973      22.303
2015   11        6    19  53    2.8075   345.8    7.993      22.330
2015   11        6    20   0    2.8121   345.8    8.012      22.357
2015   11        6    20   7    2.8166   345.7    8.031      22.384
2015   11        6    20  14    2.8212   345.7    8.050      22.411
2015   11        6    20  21    2.8257   345.6    8.069      22.438
2015   11        6    20  28    2.8302   345.6    8.088      22.465
2015   11        6    20  35    2.8347   345.5    8.107      22.492
2015   11        6    20  42    2.8392   345.4    8.125      22.518
2015   11        6    20  49    2.8436   345.4    8.144      22.545
2015   11        6    20  56    2.8481   345.3    8.162      22.571
2015   11        6    21   3    2.8525   345.3    8.180      22.597
2015   11        6    21  11    2.8569   345.2    8.199      22.623
2015   11        6    21  18    2.8613   345.2    8.217      22.649
2015   11        6    21  25    2.8657   345.1    8.235      22.674
2015   11        6    21  32    2.8700   345.1    8.253      22.700
2015   11        6    21  39    2.8744   345.0    8.271      22.725
2015   11        6    21  46    2.8787   345.0    8.289      22.750
2015   11        6    21  53    2.8830   344.9    8.306      22.774
2015   11        6    22   0    2.8873   344.9    8.324      22.799
2015   11        6    22   7    2.8917   344.8    8.341      22.823
2015   11        6    22  14    2.8959   344.8    8.358      22.847
2015   11        6    22  22    2.9002   344.8    8.376      22.871
2015   11        6    22  29    2.9045   344.7    8.393      22.895
2015   11        6    22  36    2.9087   344.7    8.410      22.919
2015   11        6    22  43    2.9129   344.6    8.427      22.942
2015   11        6    22  50    2.9172   344.6    8.443      22.966
2015   11        6    22  57    2.9214   344.5    8.460      22.989
2015   11        6    23   4    2.9256   344.5    8.476      23.013
2015   11        6    23  11    2.9298   344.5    8.493      23.036
2015   11        6    23  18    2.9340   344.4    8.509      23.059
2015   11        6    23  25    2.9381   344.4    8.525      23.082
2015   11        6    23  33    2.9423   344.3    8.541      23.105
2015   11        6    23  40    2.9465   344.3    8.557      23.127
2015   11        6    23  47    2.9506   344.3    8.573      23.150
2015   11        6    23  54    2.9548   344.2    8.588      23.172
2015   11        7     0   1    2.9589   344.2    8.604      23.195
2015   11        7     0   8    2.9630   344.2    8.619      23.217
2015   11        7     0  15    2.9671   344.1    8.634      23.239
2015   11        7     0  22    2.9712   344.1    8.649      23.262
2015   11        7     0  29    2.9753   344.0    8.664      23.284
2015   11        7     0  36    2.9794   344.0    8.679      23.305
2015   11        7     0  43    2.9835   344.0    8.694      23.327
2015   11        7     0  50    2.9876   343.9    8.709      23.349
2015   11        7     0  57    2.9916   343.9    8.723      23.371
2015   11        7     1   4    2.9957   343.9    8.738      23.392
2015   11        7     1  11    2.9997   343.8    8.752      23.414
2015   11        7     1  19    3.0037   343.8    8.767      23.435
2015   11        7     1  26    3.0078   343.8    8.781      23.457
2015   11        7     1  33    3.0118   343.8    8.795      23.478
2015   11        7     1  40    3.0158   343.7    8.809      23.499
2015   11        7     1  47    3.0198   343.7    8.823      23.520
2015   11        7     1  54    3.0238   343.7    8.837      23.542
2015   11        7     2   1    3.0278   343.6    8.851      23.563
2015   11        7     2   8    3.0317   343.6    8.864      23.584
2015   11        7     2  15    3.0357   343.6    8.878      23.605
2015   11        7     2  22    3.0396   343.6    8.891      23.626
2015   11        7     2  29    3.0436   343.5    8.905      23.647
2015   11        7     2  36    3.0475   343.5    8.918      23.668
2015   11        7     2  43    3.0514   343.5    8.932      23.688
2015   11        7     2  50    3.0553   343.5    8.945      23.709
2015   11        7     2  57    3.0592   343.4    8.958      23.730
2015   11        7     3   4    3.0631   343.4    8.971      23.751
2015   11        7     3  11    3.0670   343.4    8.984      23.772
2015   11        7     3  18    3.0709   343.4    8.997      23.792
2015   11        7     3  25    3.0748   343.3    9.010      23.813
2015   11        7     3  32    3.0786   343.3    9.023      23.834
2015   11        7     3  40    3.0825   343.3    9.035      23.855
2015   11        7     3  47    3.0863   343.3    9.048      23.875
2015   11        7     3  54    3.0901   343.2    9.061      23.896
2015   11        7     4   1    3.0940   343.2    9.073      23.917
2015   11        7     4   8    3.0978   343.2    9.086      23.937
2015   11        7     4  15    3.1016   343.2    9.098      23.958
2015   11        7     4  22    3.1054   343.2    9.111      23.979
2015   11        7     4  29    3.1092   343.1    9.123      23.999
2015   11        7     4  36    3.1130   343.1    9.135      24.020
2015   11        7     4  43    3.1167   343.1    9.148      24.041
2015   11        7     4  50    3.1205   343.1    9.160      24.061
2015   11        7     4  58    3.1242   343.1    9.172      24.082
2015   11        7     5   5    3.1280   343.1    9.184      24.103
2015   11        7     5  12    3.1317   343.0    9.196      24.124
2015   11        7     5  19    3.1354   343.0    9.207      24.145
2015   11        7     5  26    3.1391   343.0    9.219      24.165
2015   11        7     5  33    3.1428   343.0    9.231      24.186
2015   11        7     5  40    3.1465   343.0    9.242      24.207
2015   11        7     5  47    3.1501   343.0    9.253      24.227
2015   11        7     5  54    3.1538   342.9    9.265      24.248
2015   11        7     6   1    3.1574   342.9    9.276      24.269
2015   11        7     6   9    3.1610   342.9    9.287      24.289
2015   11        7     6  16    3.1646   342.9    9.298      24.310
2015   11        7     6  23    3.1683   342.9    9.309      24.330
2015   11        7     6  30    3.1718   342.9    9.320      24.351
2015   11        7     6  37    3.1754   342.9    9.331      24.371
2015   11        7     6  44    3.1790   342.9    9.341      24.391
2015   11        7     6  51    3.1826   342.8    9.352      24.411
2015   11        7     6  58    3.1861   342.8    9.362      24.431
2015   11        7     7   5    3.1897   342.8    9.373      24.451
2015   11        7     7  12    3.1932   342.8    9.383      24.471
2015   11        7     7  19    3.1967   342.8    9.394      24.491
2015   11        7     7  26    3.2003   342.8    9.404      24.511
2015   11        7     7  34    3.2038   342.8    9.414      24.531
2015   11        7     7  41    3.2073   342.8    9.424      24.550
2015   11        7     7  48    3.2108   342.7    9.434      24.570
2015   11        7     7  55    3.2142   342.7    9.444      24.590
2015   11        7     8   2    3.2177   342.7    9.454      24.609
2015   11        7     8   9    3.2212   342.7    9.464      24.629
2015   11        7     8  16    3.2246   342.7    9.474      24.648
2015   11        7     8  23    3.2281   342.7    9.484      24.667
2015   11        7     8  30    3.2315   342.7    9.494      24.687
2015   11        7     8  37    3.2349   342.7    9.504      24.706
2015   11        7     8  44    3.2384   342.7    9.513      24.725
2015   11        7     8  51    3.2418   342.7    9.523      24.745
2015   11        7     8  58    3.2452   342.7    9.533      24.764
2015   11        7     9   5    3.2485   342.6    9.542      24.783
2015   11        7     9  12    3.2519   342.6    9.552      24.802
2015   11        7     9  19    3.2553   342.6    9.561      24.821
2015   11        7     9  26    3.2586   342.6    9.571      24.840
2015   11        7     9  33    3.2620   342.6    9.580      24.860
2015   11        7     9  41    3.2653   342.6    9.589      24.879
2015   11        7     9  48    3.2686   342.6    9.599      24.898
2015   11        7     9  55    3.2719   342.6    9.608      24.916
2015   11        7    10   2    3.2752   342.6    9.617      24.935
2015   11        7    10   9    3.2785   342.6    9.627      24.954
2015   11        7    10  16    3.2818   342.6    9.636      24.973
2015   11        7    10  23    3.2851   342.6    9.645      24.992
2015   11        7    10  30    3.2884   342.6    9.654      25.011
2015   11        7    10  37    3.2916   342.6    9.663      25.029
2015   11        7    10  44    3.2949   342.6    9.672      25.048
2015   11        7    10  51    3.2982   342.6    9.681      25.066
2015   11        7    10  58    3.3014   342.6    9.690      25.085
2015   11        7    11   5    3.3047   342.6    9.699      25.103
2015   11        7    11  12    3.3079   342.6    9.708      25.122
2015   11        7    11  19    3.3111   342.6    9.717      25.140
2015   11        7    11  26    3.3144   342.6    9.726      25.158
2015   11        7    11  33    3.3176   342.6    9.735      25.176
2015   11        7    11  41    3.3208   342.6    9.744      25.194
2015   11        7    11  48    3.3240   342.5    9.753      25.212
2015   11        7    11  55    3.3272   342.5    9.761      25.230
2015   11        7    12   2    3.3304   342.5    9.770      25.248
2015   11        7    12   9    3.3336   342.5    9.779      25.266
2015   11        7    12  16    3.3368   342.5    9.788      25.284
2015   11        7    12  23    3.3400   342.5    9.796      25.302
2015   11        7    12  30    3.3432   342.5    9.805      25.319
2015   11        7    12  37    3.3464   342.5    9.813      25.337
2015   11        7    12  45    3.3496   342.5    9.822      25.354
2015   11        7    12  52    3.3527   342.5    9.830      25.372
2015   11        7    12  59    3.3559   342.5    9.839      25.389
2015   11        7    13   6    3.3590   342.5    9.847      25.406
2015   11        7    13  13    3.3622   342.6    9.855      25.424
2015   11        7    13  20    3.3653   342.6    9.864      25.441
2015   11        7    13  27    3.3685   342.6    9.872      25.458
2015   11        7    13  34    3.3716   342.6    9.880      25.475
2015   11        7    13  41    3.3747   342.6    9.888      25.492
2015   11        7    13  48    3.3777   342.6    9.897      25.509
2015   11        7    13  55    3.3809   342.6    9.905      25.526
2015   11        7    14   3    3.3839   342.6    9.913      25.543
2015   11        7    14  10    3.3870   342.6    9.921      25.560
2015   11        7    14  17    3.3901   342.6    9.929      25.577
2015   11        7    14  24    3.3932   342.6    9.936      25.594
2015   11        7    14  31    3.3962   342.6    9.944      25.611
2015   11        7    14  38    3.3993   342.6    9.952      25.628
2015   11        7    14  45    3.4023   342.6    9.960      25.644
2015   11        7    14  52    3.4054   342.6    9.968      25.661
2015   11        7    14  59    3.4083   342.6    9.975      25.677
2015   11        7    15   6    3.4114   342.6    9.983      25.694
2015   11        7    15  13    3.4144   342.6    9.990      25.711
2015   11        7    15  20    3.4175   342.6    9.998      25.727
2015   11        7    15  27    3.4205   342.6   10.006      25.744
2015   11        7    15  34    3.4235   342.6   10.013      25.760
2015   11        7    15  42    3.4264   342.6   10.020      25.776
2015   11        7    15  49    3.4295   342.6   10.028      25.793
2015   11        7    15  56    3.4324   342.7   10.035      25.809
2015   11        7    16   3    3.4354   342.7   10.043      25.826
2015   11        7    16  10    3.4383   342.7   10.050      25.842
2015   11        7    16  17    3.4414   342.7   10.057      25.858
2015   11        7    16  24    3.4443   342.7   10.065      25.874
2015   11        7    16  31    3.4473   342.7   10.072      25.891
2015   11        7    16  38    3.4502   342.7   10.079      25.907
2015   11        7    16  45    3.4532   342.7   10.086      25.923
2015   11        7    16  52    3.4561   342.7   10.094      25.940
2015   11        7    16  59    3.4591   342.7   10.101      25.956
2015   11        7    17   6    3.4620   342.7   10.108      25.972
2015   11        7    17  13    3.4649   342.7   10.115      25.989
2015   11        7    17  20    3.4678   342.8   10.122      26.005
2015   11        7    17  27    3.4707   342.8   10.129      26.022
2015   11        7    17  34    3.4737   342.8   10.136      26.038
2015   11        7    17  41    3.4766   342.8   10.144      26.055
2015   11        7    17  48    3.4794   342.8   10.151      26.071
2015   11        7    17  55    3.4824   342.8   10.158      26.088
2015   11        7    18   2    3.4852   342.8   10.165      26.104
2015   11        7    18  10    3.4882   342.8   10.172      26.121
2015   11        7    18  17    3.4910   342.8   10.179      26.138
2015   11        7    18  24    3.4940   342.8   10.186      26.154
2015   11        7    18  31    3.4968   342.9   10.194      26.171
2015   11        7    18  38    3.4998   342.9   10.201      26.188
2015   11        7    18  45    3.5026   342.9   10.208      26.205
2015   11        7    18  52    3.5055   342.9   10.215      26.222
2015   11        7    18  59    3.5085   342.9   10.222      26.239
2015   11        7    19   6    3.5114   342.9   10.229      26.256
2015   11        7    19  13    3.5143   342.9   10.236      26.273
2015   11        7    19  20    3.5172   342.9   10.243      26.291
2015   11        7    19  28    3.5201   342.9   10.250      26.308
2015   11        7    19  35    3.5230   343.0   10.257      26.326
2015   11        7    19  42    3.5259   343.0   10.264      26.343
2015   11        7    19  49    3.5287   343.0   10.271      26.361
2015   11        7    19  56    3.5316   343.0   10.277      26.378
2015   11        7    20   3    3.5345   343.0   10.284      26.395
2015   11        7    20  10    3.5373   343.0   10.291      26.413
2015   11        7    20  17    3.5402   343.0   10.297      26.430
2015   11        7    20  24    3.5430   343.1   10.304      26.447
2015   11        7    20  31    3.5458   343.1   10.310      26.464
2015   11        7    20  39    3.5486   343.1   10.316      26.481
2015   11        7    20  46    3.5515   343.1   10.322      26.498
2015   11        7    20  53    3.5543   343.1   10.328      26.515
2015   11        7    21   0    3.5570   343.1   10.334      26.531
2015   11        7    21   7    3.5598   343.1   10.340      26.547
2015   11        7    21  14    3.5626   343.2   10.346      26.564
2015   11        7    21  21    3.5654   343.2   10.352      26.579
2015   11        7    21  28    3.5681   343.2   10.358      26.595
2015   11        7    21  35    3.5709   343.2   10.364      26.611
2015   11        7    21  42    3.5737   343.2   10.369      26.627
2015   11        7    21  49    3.5764   343.2   10.375      26.642
2015   11        7    21  57    3.5792   343.2   10.381      26.657
2015   11        7    22   4    3.5819   343.3   10.386      26.672
2015   11        7    22  11    3.5847   343.3   10.392      26.687
2015   11        7    22  18    3.5874   343.3   10.398      26.702
2015   11        7    22  25    3.5902   343.3   10.403      26.717
2015   11        7    22  32    3.5930   343.3   10.409      26.732
2015   11        7    22  39    3.5957   343.3   10.414      26.746
2015   11        7    22  46    3.5985   343.3   10.420      26.761
2015   11        7    22  53    3.6012   343.4   10.425      26.775
2015   11        7    23   0    3.6040   343.4   10.431      26.790
2015   11        7    23   7    3.6068   343.4   10.437      26.804
2015   11        7    23  14    3.6095   343.4   10.442      26.818
2015   11        7    23  21    3.6123   343.4   10.448      26.832
2015   11        7    23  28    3.6151   343.4   10.454      26.847
2015   11        7    23  35    3.6179   343.5   10.460      26.861
2015   11        7    23  42    3.6207   343.5   10.466      26.875
2015   11        7    23  49    3.6235   343.5   10.471      26.890
2015   11        7    23  56    3.6263   343.5   10.477      26.904
2015   11        8     0   4    3.6291   343.5   10.483      26.918
2015   11        8     0  11    3.6319   343.5   10.490      26.933
2015   11        8     0  18    3.6347   343.5   10.496      26.947
2015   11        8     0  25    3.6375   343.6   10.502      26.962
2015   11        8     0  32    3.6403   343.6   10.508      26.977
2015   11        8     0  39    3.6431   343.6   10.514      26.992
2015   11        8     0  46    3.6459   343.6   10.521      27.007
2015   11        8     0  53    3.6487   343.6   10.527      27.022
2015   11        8     1   0    3.6515   343.7   10.534      27.038
2015   11        8     1   7    3.6543   343.7   10.540      27.053
2015   11        8     1  14    3.6570   343.7   10.546      27.069
2015   11        8     1  21    3.6598   343.7   10.553      27.085
2015   11        8     1  28    3.6626   343.7   10.559      27.101
2015   11        8     1  35    3.6653   343.8   10.566      27.117
2015   11        8     1  42    3.6681   343.8   10.572      27.133
2015   11        8     1  49    3.6709   343.8   10.579      27.149
2015   11        8     1  56    3.6736   343.8   10.585      27.166
2015   11        8     2   3    3.6764   343.8   10.591      27.182
2015   11        8     2  11    3.6791   343.9   10.598      27.199
2015   11        8     2  18    3.6819   343.9   10.604      27.215
2015   11        8     2  25    3.6846   343.9   10.610      27.232
2015   11        8     2  32    3.6874   343.9   10.617      27.249
2015   11        8     2  39    3.6901   344.0   10.623      27.266
2015   11        8     2  46    3.6928   344.0   10.629      27.283
2015   11        8     2  53    3.6956   344.0   10.635      27.300
2015   11        8     3   0    3.6983   344.0   10.641      27.317
2015   11        8     3   7    3.7011   344.1   10.647      27.334
2015   11        8     3  15    3.7038   344.1   10.653      27.351
2015   11        8     3  22    3.7065   344.1   10.659      27.368
2015   11        8     3  29    3.7092   344.1   10.664      27.384
2015   11        8     3  36    3.7119   344.2   10.670      27.401
2015   11        8     3  43    3.7146   344.2   10.676      27.418
2015   11        8     3  50    3.7173   344.2   10.681      27.434
2015   11        8     3  57    3.7200   344.2   10.687      27.450
2015   11        8     4   4    3.7227   344.3   10.692      27.466
2015   11        8     4  11    3.7254   344.3   10.697      27.482
2015   11        8     4  18    3.7281   344.3   10.703      27.498
2015   11        8     4  25    3.7308   344.3   10.708      27.514
2015   11        8     4  33    3.7334   344.4   10.713      27.529
2015   11        8     4  40    3.7361   344.4   10.718      27.545
2015   11        8     4  47    3.7388   344.4   10.723      27.560
2015   11        8     4  54    3.7415   344.5   10.729      27.575
2015   11        8     5   1    3.7442   344.5   10.734      27.590
2015   11        8     5   8    3.7469   344.5   10.739      27.605
2015   11        8     5  15    3.7495   344.5   10.744      27.620
2015   11        8     5  22    3.7522   344.6   10.749      27.636
2015   11        8     5  29    3.7549   344.6   10.754      27.651
2015   11        8     5  36    3.7576   344.6   10.759      27.666
2015   11        8     5  43    3.7602   344.6   10.764      27.681
2015   11        8     5  50    3.7629   344.7   10.769      27.696
2015   11        8     5  57    3.7655   344.7   10.774      27.711
2015   11        8     6   5    3.7682   344.7   10.779      27.727
2015   11        8     6  12    3.7708   344.8   10.784      27.742
2015   11        8     6  19    3.7734   344.8   10.789      27.757
2015   11        8     6  26    3.7760   344.8   10.793      27.772
2015   11        8     6  33    3.7786   344.9   10.798      27.787
2015   11        8     6  40    3.7813   344.9   10.803      27.802
2015   11        8     6  47    3.7839   344.9   10.807      27.817
2015   11        8     6  54    3.7865   345.0   10.812      27.832
2015   11        8     7   1    3.7890   345.0   10.816      27.846
2015   11        8     7   8    3.7916   345.0   10.821      27.861
2015   11        8     7  15    3.7942   345.0   10.825      27.876
2015   11        8     7  22    3.7968   345.1   10.829      27.890
2015   11        8     7  29    3.7994   345.1   10.834      27.905
2015   11        8     7  36    3.8019   345.1   10.838      27.919
2015   11        8     7  43    3.8045   345.2   10.842      27.933
2015   11        8     7  50    3.8071   345.2   10.847      27.947
2015   11        8     7  57    3.8097   345.2   10.851      27.961
2015   11        8     8   4    3.8123   345.3   10.855      27.975
2015   11        8     8  11    3.8148   345.3   10.860      27.989
2015   11        8     8  18    3.8174   345.3   10.864      28.003
2015   11        8     8  25    3.8200   345.4   10.868      28.017
2015   11        8     8  33    3.8226   345.4   10.873      28.031
2015   11        8     8  40    3.8252   345.4   10.877      28.045
2015   11        8     8  47    3.8279   345.4   10.882      28.059
2015   11        8     8  54    3.8305   345.5   10.886      28.073
2015   11        8     9   1    3.8331   345.5   10.891      28.086
2015   11        8     9   8    3.8358   345.5   10.895      28.100
2015   11        8     9  15    3.8384   345.6   10.900      28.114
2015   11        8     9  22    3.8411   345.6   10.904      28.129
2015   11        8     9  29    3.8438   345.6   10.909      28.143
2015   11        8     9  36    3.8464   345.7   10.913      28.158
2015   11        8     9  43    3.8491   345.7   10.918      28.172
2015   11        8     9  50    3.8518   345.8   10.923      28.187
2015   11        8     9  58    3.8545   345.8   10.927      28.202
2015   11        8    10   5    3.8572   345.8   10.932      28.216
2015   11        8    10  12    3.8599   345.9   10.936      28.231
2015   11        8    10  19    3.8626   345.9   10.941      28.246
2015   11        8    10  26    3.8653   345.9   10.945      28.261
2015   11        8    10  33    3.8680   346.0   10.950      28.276
2015   11        8    10  40    3.8707   346.0   10.954      28.291
2015   11        8    10  47    3.8733   346.1   10.959      28.306
2015   11        8    10  54    3.8760   346.1   10.963      28.321
2015   11        8    11   1    3.8787   346.1   10.968      28.336
2015   11        8    11   9    3.8814   346.2   10.972      28.351
2015   11        8    11  16    3.8840   346.2   10.977      28.366
2015   11        8    11  23    3.8867   346.2   10.981      28.381
2015   11        8    11  30    3.8894   346.3   10.986      28.395
2015   11        8    11  37    3.8921   346.3   10.990      28.410
2015   11        8    11  44    3.8947   346.4   10.995      28.425
2015   11        8    11  51    3.8974   346.4   10.999      28.440
2015   11        8    11  58    3.9000   346.4   11.004      28.454
2015   11        8    12   5    3.9027   346.5   11.008      28.469
2015   11        8    12  12    3.9053   346.5   11.013      28.484
2015   11        8    12  19    3.9079   346.6   11.017      28.499
2015   11        8    12  27    3.9106   346.6   11.021      28.514
2015   11        8    12  34    3.9132   346.6   11.026      28.529
2015   11        8    12  41    3.9158   346.7   11.030      28.544
2015   11        8    12  48    3.9185   346.7   11.035      28.560
2015   11        8    12  55    3.9211   346.8   11.039      28.575
2015   11        8    13   2    3.9237   346.8   11.043      28.591
2015   11        8    13   9    3.9263   346.9   11.047      28.606
2015   11        8    13  16    3.9289   346.9   11.051      28.622
2015   11        8    13  23    3.9314   347.0   11.055      28.638
2015   11        8    13  30    3.9340   347.0   11.059      28.654
2015   11        8    13  37    3.9366   347.0   11.063      28.670
2015   11        8    13  44    3.9391   347.1   11.067      28.686
2015   11        8    13  51    3.9417   347.1   11.070      28.702
2015   11        8    13  58    3.9442   347.2   11.074      28.718
2015   11        8    14   5    3.9467   347.2   11.077      28.733
2015   11        8    14  12    3.9492   347.3   11.081      28.749
2015   11        8    14  19    3.9517   347.3   11.084      28.765
2015   11        8    14  27    3.9543   347.4   11.087      28.780
2015   11        8    14  34    3.9567   347.4   11.091      28.795
2015   11        8    14  41    3.9592   347.5   11.094      28.811
2015   11        8    14  48    3.9617   347.5   11.097      28.826
2015   11        8    14  55    3.9642   347.6   11.099      28.840
2015   11        8    15   2    3.9667   347.6   11.102      28.855
2015   11        8    15   9    3.9692   347.7   11.105      28.870
2015   11        8    15  16    3.9717   347.7   11.108      28.884
2015   11        8    15  23    3.9741   347.7   11.111      28.898
2015   11        8    15  30    3.9766   347.8   11.113      28.913
2015   11        8    15  37    3.9791   347.8   11.116      28.927
2015   11        8    15  44    3.9816   347.9   11.118      28.941
2015   11        8    15  51    3.9841   347.9   11.121      28.954
2015   11        8    15  58    3.9866   348.0   11.124      28.968
2015   11        8    16   5    3.9891   348.0   11.126      28.982
2015   11        8    16  12    3.9917   348.1   11.129      28.996
2015   11        8    16  19    3.9942   348.1   11.131      29.009
2015   11        8    16  26    3.9967   348.2   11.134      29.023
2015   11        8    16  34    3.9993   348.2   11.136      29.036
2015   11        8    16  41    4.0019   348.3   11.139      29.050
2015   11        8    16  48    4.0044   348.3   11.141      29.063
2015   11        8    16  55    4.0070   348.4   11.144      29.077
2015   11        8    17   2    4.0096   348.4   11.147      29.090
2015   11        8    17   9    4.0122   348.5   11.149      29.104
2015   11        8    17  16    4.0148   348.5   11.152      29.118
2015   11        8    17  23    4.0175   348.6   11.155      29.131
2015   11        8    17  30    4.0201   348.6   11.158      29.145
2015   11        8    17  37    4.0228   348.7   11.160      29.159
2015   11        8    17  45    4.0254   348.7   11.163      29.173
2015   11        8    17  52    4.0281   348.8   11.166      29.186
2015   11        8    17  59    4.0307   348.8   11.169      29.201
2015   11        8    18   6    4.0334   348.9   11.172      29.215
2015   11        8    18  13    4.0361   348.9   11.175      29.229
2015   11        8    18  20    4.0388   349.0   11.179      29.243
2015   11        8    18  27    4.0415   349.0   11.182      29.257
2015   11        8    18  34    4.0441   349.1   11.185      29.272
2015   11        8    18  41    4.0468   349.1   11.188      29.286
2015   11        8    18  48    4.0495   349.2   11.192      29.301
2015   11        8    18  56    4.0522   349.2   11.195      29.315
2015   11        8    19   3    4.0549   349.3   11.199      29.330
2015   11        8    19  10    4.0576   349.3   11.202      29.345
2015   11        8    19  17    4.0602   349.4   11.206      29.360
2015   11        8    19  24    4.0629   349.4   11.209      29.375
2015   11        8    19  31    4.0656   349.5   11.213      29.390
2015   11        8    19  38    4.0683   349.5   11.216      29.405
2015   11        8    19  45    4.0710   349.6   11.220      29.421
2015   11        8    19  52    4.0736   349.6   11.223      29.436
2015   11        8    19  59    4.0763   349.7   11.227      29.452
2015   11        8    20   6    4.0790   349.8   11.230      29.467
2015   11        8    20  13    4.0816   349.8   11.234      29.483
2015   11        8    20  20    4.0843   349.9   11.237      29.499
2015   11        8    20  27    4.0870   349.9   11.241      29.515
2015   11        8    20  35    4.0896   350.0   11.244      29.531
2015   11        8    20  42    4.0923   350.0   11.247      29.547
2015   11        8    20  49    4.0949   350.1   11.251      29.563
2015   11        8    20  56    4.0976   350.2   11.254      29.579
2015   11        8    21   3    4.1002   350.2   11.257      29.595
2015   11        8    21  10    4.1029   350.3   11.260      29.611
2015   11        8    21  17    4.1056   350.3   11.263      29.628
2015   11        8    21  24    4.1082   350.4   11.266      29.644
2015   11        8    21  31    4.1109   350.4   11.270      29.660
2015   11        8    21  38    4.1135   350.5   11.273      29.675
2015   11        8    21  45    4.1162   350.5   11.276      29.692
2015   11        8    21  52    4.1189   350.6   11.279      29.707
2015   11        8    21  59    4.1216   350.7   11.282      29.723
2015   11        8    22   6    4.1242   350.7   11.285      29.739
2015   11        8    22  13    4.1269   350.8   11.288      29.755
2015   11        8    22  20    4.1296   350.8   11.291      29.771
2015   11        8    22  27    4.1323   350.9   11.294      29.787
2015   11        8    22  34    4.1351   350.9   11.296      29.803
2015   11        8    22  41    4.1378   351.0   11.299      29.819
2015   11        8    22  48    4.1406   351.1   11.302      29.835
2015   11        8    22  56    4.1433   351.1   11.305      29.851
2015   11        8    23   3    4.1461   351.2   11.308      29.867
2015   11        8    23  10    4.1489   351.2   11.312      29.884
2015   11        8    23  17    4.1517   351.3   11.315      29.900
2015   11        8    23  24    4.1546   351.3   11.318      29.916
2015   11        8    23  31    4.1574   351.4   11.321      29.933
2015   11        8    23  38    4.1603   351.5   11.324      29.950
2015   11        8    23  45    4.1632   351.5   11.327      29.966
2015   11        8    23  52    4.1661   351.6   11.330      29.983
2015   11        8    23  59    4.1690   351.6   11.334      30.000
2015   11        9     0   6    4.1720   351.7   11.337      30.017
2015   11        9     0  13    4.1749   351.8   11.340      30.034
2015   11        9     0  20    4.1779   351.8   11.344      30.052
2015   11        9     0  28    4.1809   351.9   11.347      30.069
2015   11        9     0  35    4.1839   351.9   11.351      30.086
2015   11        9     0  42    4.1869   352.0   11.354      30.104
2015   11        9     0  49    4.1900   352.1   11.358      30.121
2015   11        9     0  56    4.1930   352.1   11.362      30.139
2015   11        9     1   3    4.1961   352.2   11.366      30.157
2015   11        9     1  10    4.1992   352.2   11.369      30.175
2015   11        9     1  17    4.2023   352.3   11.373      30.193
2015   11        9     1  24    4.2054   352.4   11.377      30.211
2015   11        9     1  32    4.2085   352.4   11.381      30.229
2015   11        9     1  39    4.2116   352.5   11.385      30.248
2015   11        9     1  46    4.2147   352.6   11.389      30.266
2015   11        9     1  53    4.2178   352.6   11.393      30.285
2015   11        9     2   0    4.2210   352.7   11.397      30.303
2015   11        9     2   7    4.2241   352.8   11.401      30.322
2015   11        9     2  14    4.2273   352.8   11.405      30.341
2015   11        9     2  21    4.2305   352.9   11.409      30.359
2015   11        9     2  28    4.2337   352.9   11.414      30.378
2015   11        9     2  35    4.2368   353.0   11.418      30.397
2015   11        9     2  42    4.2400   353.1   11.422      30.416
2015   11        9     2  49    4.2432   353.1   11.426      30.436
2015   11        9     2  57    4.2464   353.2   11.431      30.455
2015   11        9     3   4    4.2496   353.3   11.435      30.474
2015   11        9     3  11    4.2529   353.3   11.439      30.494
2015   11        9     3  18    4.2561   353.4   11.444      30.513
2015   11        9     3  25    4.2593   353.5   11.448      30.533
2015   11        9     3  32    4.2626   353.5   11.452      30.552
2015   11        9     3  39    4.2659   353.6   11.457      30.572
2015   11        9     3  46    4.2691   353.7   11.461      30.592
2015   11        9     3  53    4.2724   353.7   11.466      30.612
2015   11        9     4   0    4.2757   353.8   11.470      30.632
2015   11        9     4   7    4.2790   353.9   11.475      30.652
2015   11        9     4  14    4.2823   353.9   11.479      30.672
2015   11        9     4  21    4.2857   354.0   11.484      30.692
2015   11        9     4  28    4.2889   354.1   11.488      30.713
2015   11        9     4  35    4.2923   354.1   11.493      30.734
2015   11        9     4  42    4.2957   354.2   11.497      30.754
2015   11        9     4  50    4.2991   354.3   11.502      30.775
2015   11        9     4  57    4.3025   354.4   11.506      30.796
2015   11        9     5   4    4.3059   354.4   11.511      30.817
2015   11        9     5  11    4.3094   354.5   11.516      30.838
2015   11        9     5  18    4.3129   354.6   11.520      30.860
2015   11        9     5  25    4.3163   354.6   11.525      30.881
2015   11        9     5  32    4.3199   354.7   11.530      30.903
2015   11        9     5  39    4.3234   354.8   11.535      30.924
2015   11        9     5  46    4.3270   354.8   11.540      30.946
2015   11        9     5  53    4.3306   354.9   11.545      30.968
2015   11        9     6   0    4.3343   355.0   11.550      30.990
2015   11        9     6   7    4.3379   355.1   11.555      31.013
2015   11        9     6  14    4.3415   355.1   11.560      31.035
2015   11        9     6  21    4.3453   355.2   11.565      31.058
2015   11        9     6  28    4.3490   355.3   11.570      31.081
2015   11        9     6  35    4.3528   355.4   11.575      31.104
2015   11        9     6  42    4.3566   355.4   11.581      31.127
2015   11        9     6  49    4.3604   355.5   11.586      31.151
2015   11        9     6  56    4.3643   355.6   11.592      31.174
2015   11        9     7   3    4.3682   355.7   11.597      31.198
2015   11        9     7  11    4.3721   355.7   11.603      31.222
2015   11        9     7  18    4.3761   355.8   11.609      31.246
2015   11        9     7  25    4.3801   355.9   11.615      31.270
2015   11        9     7  32    4.3841   356.0   11.620      31.294
2015   11        9     7  39    4.3881   356.0   11.626      31.319
2015   11        9     7  46    4.3922   356.1   11.632      31.344
2015   11        9     7  53    4.3963   356.2   11.638      31.369
2015   11        9     8   0    4.4003   356.3   11.645      31.394
2015   11        9     8   7    4.4045   356.3   11.651      31.419
2015   11        9     8  15    4.4086   356.4   11.657      31.445
2015   11        9     8  22    4.4127   356.5   11.664      31.470
2015   11        9     8  29    4.4169   356.6   11.670      31.496
2015   11        9     8  36    4.4211   356.7   11.677      31.522
2015   11        9     8  43    4.4253   356.7   11.683      31.548
2015   11        9     8  50    4.4295   356.8   11.690      31.574
2015   11        9     8  57    4.4337   356.9   11.696      31.600
2015   11        9     9   4    4.4379   357.0   11.703      31.627
2015   11        9     9  11    4.4421   357.1   11.710      31.653
2015   11        9     9  18    4.4464   357.2   11.716      31.680
2015   11        9     9  25    4.4507   357.2   11.723      31.707
2015   11        9     9  33    4.4550   357.3   11.730      31.734
2015   11        9     9  40    4.4592   357.4   11.737      31.761
2015   11        9     9  47    4.4636   357.5   11.744      31.788
2015   11        9     9  54    4.4679   357.6   11.751      31.816
2015   11        9    10   1    4.4723   357.7   11.758      31.843
2015   11        9    10   8    4.4766   357.7   11.765      31.871
2015   11        9    10  15    4.4810   357.8   11.772      31.899
2015   11        9    10  22    4.4854   357.9   11.779      31.927
2015   11        9    10  29    4.4899   358.0   11.786      31.956
2015   11        9    10  36    4.4944   358.1   11.793      31.984
2015   11        9    10  43    4.4989   358.2   11.801      32.013
2015   11        9    10  50    4.5034   358.3   11.808      32.041
2015   11        9    10  57    4.5081   358.3   11.815      32.070
2015   11        9    11   5    4.5127   358.4   11.822      32.099
2015   11        9    11  12    4.5174   358.5   11.830      32.129
2015   11        9    11  19    4.5221   358.6   11.837      32.158
2015   11        9    11  26    4.5269   358.7   11.844      32.188
2015   11        9    11  33    4.5317   358.8   11.852      32.218
2015   11        9    11  40    4.5367   358.9   11.859      32.249
2015   11        9    11  47    4.5416   359.0   11.867      32.279
2015   11        9    11  54    4.5467   359.1   11.875      32.310
2015   11        9    12   1    4.5517   359.2   11.882      32.341
2015   11        9    12   8    4.5570   359.3   11.890      32.372
2015   11        9    12  15    4.5621   359.3   11.898      32.403
2015   11        9    12  22    4.5674   359.4   11.906      32.435
2015   11        9    12  29    4.5728   359.5   11.914      32.467
2015   11        9    12  36    4.5782   359.6   11.922      32.499
2015   11        9    12  43    4.5838   359.7   11.930      32.532
2015   11        9    12  50    4.5892   359.8   11.938      32.564
2015   11        9    12  57    4.5948   359.9   11.946      32.597
2015   11        9    13   4    4.6005   360.0   11.955      32.630
2015   11        9    13  11    4.6062   360.1   11.963      32.663
2015   11        9    13  18    4.6121   360.2   11.972      32.697
2015   11        9    13  25    4.6179   360.3   11.980      32.731
2015   11        9    13  33    4.6240   360.4   11.989      32.765
2015   11        9    13  40    4.6300   360.5   11.998      32.800
2015   11        9    13  47    4.6359   360.6   12.007      32.834
2015   11        9    13  54    4.6419   360.7   12.016      32.869
2015   11        9    14   1    4.6480   360.8   12.025      32.905
2015   11        9    14   8    4.6541   360.9   12.035      32.941
2015   11        9    14  15    4.6603   361.0   12.044      32.977
2015   11        9    14  22    4.6665   361.2   12.053      33.013
2015   11        9    14  29    4.6727   361.3   12.063      33.050
2015   11        9    14  36    4.6789   361.4   12.072      33.088
2015   11        9    14  43    4.6852   361.5   12.081      33.126
2015   11        9    14  50    4.6914   361.6   12.091      33.164
2015   11        9    14  58    4.6977   361.7   12.100      33.202
2015   11        9    15   5    4.7039   361.8   12.109      33.241
2015   11        9    15  12    4.7102   361.9   12.118      33.280
2015   11        9    15  19    4.7164   362.0   12.128      33.319
2015   11        9    15  26    4.7227   362.1   12.137      33.358
2015   11        9    15  33    4.7290   362.3   12.146      33.397
2015   11        9    15  40    4.7353   362.4   12.155      33.435
2015   11        9    15  47    4.7417   362.5   12.164      33.474
2015   11        9    15  54    4.7481   362.6   12.173      33.513
2015   11        9    16   1    4.7545   362.7   12.181      33.552
2015   11        9    16   9    4.7609   362.8   12.190      33.590
2015   11        9    16  16    4.7674   362.9   12.199      33.628
2015   11        9    16  23    4.7740   363.0   12.208      33.666
2015   11        9    16  30    4.7806   363.1   12.218      33.705
2015   11        9    16  37    4.7874   363.2   12.227      33.743
2015   11        9    16  44    4.7942   363.3   12.236      33.781
2015   11        9    16  51    4.8011   363.4   12.246      33.819
2015   11        9    16  58    4.8080   363.5   12.256      33.856
2015   11        9    17   5    4.8152   363.7   12.266      33.895
2015   11        9    17  12    4.8224   363.8   12.276      33.933
2015   11        9    17  19    4.8299   363.9   12.286      33.971
2015   11        9    17  27    4.8374   364.0   12.297      34.009
2015   11        9    17  34    4.8451   364.1   12.308      34.048
2015   11        9    17  41    4.8534   364.2   12.320      34.087
2015   11        9    17  48    4.8611   364.3   12.331      34.127
2015   11        9    17  55    4.8693   364.4   12.344      34.167
2015   11        9    18   2    4.8778   364.5   12.357      34.207
2015   11        9    18   9    4.8865   364.6   12.370      34.248
2015   11        9    18  16    4.8955   364.7   12.384      34.290
2015   11        9    18  23    4.9050   364.8   12.399      34.332
2015   11        9    18  30    4.9139   365.0   12.414      34.375
2015   11        9    18  37    4.9234   365.1   12.430      34.419
2015   11        9    18  44    4.9333   365.2   12.447      34.464
2015   11        9    18  51    4.9437   365.3   12.464      34.510
2015   11        9    18  58    4.9534   365.4   12.482      34.559
2015   11        9    19   5    4.9637   365.6   12.501      34.608
2015   11        9    19  12    4.9743   365.7   12.520      34.660
2015   11        9    19  19    4.9850   365.8   12.539      34.712
2015   11        9    19  27    4.9959   366.0   12.559      34.767
2015   11        9    19  34    5.0069   366.1   12.579      34.823
2015   11        9    19  41    5.0181   366.3   12.600      34.881
2015   11        9    19  48    5.0293   366.4   12.622      34.939
2015   11        9    19  55    5.0412   366.5   12.643      35.000
2015   11        9    20   2    5.0520   366.7   12.665      35.062
2015   11        9    20   9    5.0635   366.9   12.687      35.126
2015   11        9    20  16    5.0748   367.0   12.709      35.192
2015   11        9    20  23    5.0869   367.2   12.731      35.261
2015   11        9    20  30    5.0979   367.3   12.753      35.332
2015   11        9    20  37    5.1094   367.5   12.775      35.405
2015   11        9    20  44    5.1209   367.7   12.797      35.479
2015   11        9    20  51    5.1324   367.9   12.818      35.555
2015   11        9    20  58    5.1439   368.0   12.839      35.633
2015   11        9    21   5    5.1554   368.2   12.860      35.711
2015   11        9    21  12    5.1668   368.4   12.880      35.791
2015   11        9    21  19    5.1783   368.6   12.900      35.873
2015   11        9    21  26    5.1896   368.8   12.920      35.955
2015   11        9    21  33    5.2015   369.0   12.939      36.038
2015   11        9    21  41    5.2124   369.2   12.958      36.122
2015   11        9    21  48    5.2238   369.4   12.976      36.207
2015   11        9    21  55    5.2351   369.6   12.994      36.292
2015   11        9    22   2    5.2466   369.8   13.012      36.378
2015   11        9    22   9    5.2579   370.0   13.030      36.463
2015   11        9    22  16    5.2698   370.2   13.047      36.549
2015   11        9    22  23    5.2807   370.4   13.064      36.635
2015   11        9    22  30    5.2922   370.6   13.080      36.721
2015   11        9    22  37    5.3036   370.9   13.097      36.807
2015   11        9    22  45    5.3152   371.1   13.113      36.894
2015   11        9    22  52    5.3268   371.3   13.129      36.981
2015   11        9    22  59    5.3385   371.5   13.146      37.068
2015   11        9    23   6    5.3502   371.8   13.162      37.155
2015   11        9    23  13    5.3625   372.0   13.178      37.242
2015   11        9    23  20    5.3740   372.2   13.195      37.330
2015   11        9    23  27    5.3865   372.4   13.211      37.418
2015   11        9    23  34    5.3986   372.7   13.228      37.506
2015   11        9    23  41    5.4106   372.9   13.246      37.595
2015   11        9    23  48    5.4230   373.1   13.263      37.684
2015   11        9    23  55    5.4357   373.4   13.282      37.774
2015   11       10     0   3    5.4485   373.6   13.300      37.864
