year    month   day   hour  minute  B_enl V_enl   n_enl       T_enl
[year] [month] [day] [hour][minute] [nT]  [km/s]  [cm-3]      [kK]
2015   10       30     0   6    3.3756   336.1    9.884      25.758
2015   10       30     0  13    3.3775   336.0    9.892      25.769
2015   10       30     0  20    3.3794   336.0    9.901      25.780
2015   10       30     0  27    3.3812   336.0    9.909      25.791
2015   10       30     0  34    3.3830   336.0    9.918      25.803
2015   10       30     0  40    3.3848   335.9    9.927      25.814
2015   10       30     0  47    3.3866   335.9    9.935      25.826
2015   10       30     0  54    3.3883   335.9    9.944      25.838
2015   10       30     1   1    3.3900   335.9    9.952      25.850
2015   10       30     1   8    3.3917   335.8    9.960      25.861
2015   10       30     1  15    3.3933   335.8    9.969      25.873
2015   10       30     1  22    3.3949   335.8    9.977      25.885
2015   10       30     1  29    3.3965   335.8    9.985      25.898
2015   10       30     1  35    3.3980   335.7    9.993      25.910
2015   10       30     1  42    3.3995   335.7   10.000      25.922
2015   10       30     1  49    3.4010   335.7   10.008      25.934
2015   10       30     1  56    3.4025   335.7   10.015      25.946
2015   10       30     2   3    3.4039   335.7   10.023      25.957
2015   10       30     2  10    3.4053   335.6   10.030      25.969
2015   10       30     2  17    3.4066   335.6   10.037      25.981
2015   10       30     2  24    3.4080   335.6   10.044      25.992
2015   10       30     2  30    3.4093   335.6   10.051      26.003
2015   10       30     2  37    3.4106   335.6   10.057      26.015
2015   10       30     2  44    3.4118   335.5   10.064      26.026
2015   10       30     2  51    3.4131   335.5   10.070      26.036
2015   10       30     2  58    3.4143   335.5   10.077      26.047
2015   10       30     3   5    3.4155   335.5   10.083      26.057
2015   10       30     3  12    3.4167   335.5   10.089      26.068
2015   10       30     3  19    3.4179   335.4   10.095      26.078
2015   10       30     3  25    3.4190   335.4   10.101      26.088
2015   10       30     3  32    3.4202   335.4   10.107      26.097
2015   10       30     3  39    3.4213   335.4   10.113      26.107
2015   10       30     3  46    3.4224   335.4   10.119      26.116
2015   10       30     3  53    3.4235   335.3   10.124      26.125
2015   10       30     4   0    3.4245   335.3   10.130      26.134
2015   10       30     4   7    3.4256   335.3   10.135      26.143
2015   10       30     4  14    3.4266   335.3   10.141      26.151
2015   10       30     4  20    3.4277   335.3   10.146      26.160
2015   10       30     4  27    3.4287   335.2   10.151      26.168
2015   10       30     4  34    3.4297   335.2   10.156      26.176
2015   10       30     4  41    3.4307   335.2   10.161      26.183
2015   10       30     4  48    3.4317   335.2   10.166      26.191
2015   10       30     4  55    3.4327   335.2   10.171      26.198
2015   10       30     5   2    3.4337   335.1   10.176      26.206
2015   10       30     5   9    3.4346   335.1   10.181      26.213
2015   10       30     5  16    3.4356   335.1   10.186      26.220
2015   10       30     5  22    3.4365   335.1   10.191      26.227
2015   10       30     5  29    3.4375   335.1   10.196      26.233
2015   10       30     5  36    3.4384   335.0   10.200      26.240
2015   10       30     5  43    3.4393   335.0   10.205      26.246
2015   10       30     5  50    3.4402   335.0   10.209      26.253
2015   10       30     5  57    3.4411   335.0   10.214      26.259
2015   10       30     6   4    3.4420   335.0   10.218      26.265
2015   10       30     6  11    3.4429   334.9   10.223      26.271
2015   10       30     6  17    3.4438   334.9   10.227      26.276
2015   10       30     6  24    3.4446   334.9   10.232      26.282
2015   10       30     6  31    3.4455   334.9   10.236      26.288
2015   10       30     6  38    3.4463   334.9   10.240      26.293
2015   10       30     6  45    3.4471   334.8   10.245      26.299
2015   10       30     6  52    3.4480   334.8   10.249      26.304
2015   10       30     6  59    3.4487   334.8   10.253      26.309
2015   10       30     7   5    3.4495   334.8   10.257      26.314
2015   10       30     7  12    3.4503   334.8   10.262      26.319
2015   10       30     7  19    3.4511   334.8   10.266      26.324
2015   10       30     7  26    3.4518   334.7   10.270      26.329
2015   10       30     7  33    3.4526   334.7   10.274      26.334
2015   10       30     7  40    3.4533   334.7   10.278      26.339
2015   10       30     7  47    3.4540   334.7   10.282      26.343
2015   10       30     7  54    3.4547   334.7   10.286      26.348
2015   10       30     8   0    3.4554   334.6   10.290      26.353
2015   10       30     8   7    3.4561   334.6   10.294      26.357
2015   10       30     8  14    3.4567   334.6   10.298      26.362
2015   10       30     8  21    3.4573   334.6   10.302      26.366
2015   10       30     8  28    3.4580   334.6   10.306      26.371
2015   10       30     8  35    3.4586   334.6   10.310      26.375
2015   10       30     8  42    3.4592   334.5   10.314      26.380
2015   10       30     8  49    3.4597   334.5   10.318      26.384
2015   10       30     8  55    3.4603   334.5   10.322      26.389
2015   10       30     9   2    3.4608   334.5   10.325      26.393
2015   10       30     9   9    3.4613   334.5   10.329      26.398
2015   10       30     9  16    3.4618   334.5   10.332      26.402
2015   10       30     9  23    3.4623   334.4   10.336      26.407
2015   10       30     9  30    3.4628   334.4   10.339      26.411
2015   10       30     9  37    3.4632   334.4   10.342      26.415
2015   10       30     9  44    3.4637   334.4   10.345      26.419
2015   10       30     9  50    3.4641   334.4   10.349      26.424
2015   10       30     9  57    3.4645   334.4   10.352      26.428
2015   10       30    10   4    3.4649   334.4   10.355      26.431
2015   10       30    10  11    3.4653   334.3   10.357      26.435
2015   10       30    10  18    3.4656   334.3   10.360      26.439
2015   10       30    10  25    3.4660   334.3   10.363      26.443
2015   10       30    10  32    3.4663   334.3   10.366      26.446
2015   10       30    10  39    3.4667   334.3   10.368      26.449
2015   10       30    10  45    3.4670   334.3   10.371      26.453
2015   10       30    10  52    3.4673   334.2   10.373      26.456
2015   10       30    10  59    3.4676   334.2   10.376      26.459
2015   10       30    11   6    3.4679   334.2   10.378      26.461
2015   10       30    11  13    3.4681   334.2   10.380      26.464
2015   10       30    11  20    3.4684   334.2   10.383      26.466
2015   10       30    11  27    3.4687   334.2   10.385      26.469
2015   10       30    11  34    3.4689   334.1   10.387      26.471
2015   10       30    11  40    3.4691   334.1   10.389      26.473
2015   10       30    11  47    3.4694   334.1   10.391      26.475
2015   10       30    11  54    3.4696   334.1   10.393      26.477
2015   10       30    12   1    3.4698   334.1   10.395      26.479
2015   10       30    12   8    3.4700   334.1   10.397      26.480
2015   10       30    12  15    3.4702   334.0   10.399      26.482
2015   10       30    12  22    3.4704   334.0   10.401      26.483
2015   10       30    12  29    3.4706   334.0   10.402      26.484
2015   10       30    12  36    3.4708   334.0   10.404      26.485
2015   10       30    12  42    3.4710   334.0   10.406      26.486
2015   10       30    12  49    3.4711   334.0   10.407      26.487
2015   10       30    12  56    3.4713   333.9   10.409      26.488
2015   10       30    13   3    3.4715   333.9   10.410      26.489
2015   10       30    13  10    3.4716   333.9   10.412      26.489
2015   10       30    13  17    3.4717   333.9   10.413      26.490
2015   10       30    13  24    3.4719   333.9   10.415      26.490
2015   10       30    13  31    3.4720   333.8   10.416      26.491
2015   10       30    13  37    3.4721   333.8   10.417      26.491
2015   10       30    13  44    3.4722   333.8   10.418      26.491
2015   10       30    13  51    3.4723   333.8   10.420      26.491
2015   10       30    13  58    3.4724   333.8   10.421      26.491
2015   10       30    14   5    3.4725   333.7   10.422      26.490
2015   10       30    14  12    3.4726   333.7   10.423      26.490
2015   10       30    14  19    3.4727   333.7   10.424      26.489
2015   10       30    14  25    3.4728   333.7   10.425      26.489
2015   10       30    14  32    3.4728   333.7   10.426      26.488
2015   10       30    14  39    3.4729   333.6   10.427      26.488
2015   10       30    14  46    3.4729   333.6   10.428      26.487
2015   10       30    14  53    3.4730   333.6   10.429      26.486
2015   10       30    15   0    3.4730   333.6   10.430      26.485
2015   10       30    15   7    3.4730   333.6   10.431      26.484
2015   10       30    15  14    3.4731   333.5   10.432      26.482
2015   10       30    15  20    3.4731   333.5   10.432      26.481
2015   10       30    15  27    3.4731   333.5   10.433      26.480
2015   10       30    15  34    3.4731   333.5   10.434      26.478
2015   10       30    15  41    3.4731   333.5   10.435      26.477
2015   10       30    15  48    3.4731   333.4   10.435      26.475
2015   10       30    15  55    3.4731   333.4   10.436      26.473
2015   10       30    16   2    3.4731   333.4   10.436      26.472
2015   10       30    16   9    3.4730   333.4   10.437      26.470
2015   10       30    16  15    3.4730   333.4   10.438      26.468
2015   10       30    16  22    3.4729   333.3   10.438      26.466
2015   10       30    16  29    3.4729   333.3   10.439      26.464
2015   10       30    16  36    3.4729   333.3   10.439      26.462
2015   10       30    16  43    3.4728   333.3   10.439      26.459
2015   10       30    16  50    3.4727   333.2   10.440      26.457
2015   10       30    16  57    3.4727   333.2   10.440      26.454
2015   10       30    17   4    3.4726   333.2   10.441      26.452
2015   10       30    17  10    3.4725   333.2   10.441      26.449
2015   10       30    17  17    3.4725   333.1   10.441      26.447
2015   10       30    17  24    3.4724   333.1   10.442      26.444
2015   10       30    17  31    3.4723   333.1   10.442      26.441
2015   10       30    17  38    3.4722   333.1   10.442      26.439
2015   10       30    17  45    3.4721   333.1   10.443      26.436
2015   10       30    17  52    3.4720   333.0   10.443      26.433
2015   10       30    17  59    3.4719   333.0   10.443      26.430
2015   10       30    18   5    3.4718   333.0   10.443      26.427
2015   10       30    18  12    3.4717   333.0   10.444      26.423
2015   10       30    18  19    3.4716   332.9   10.444      26.420
2015   10       30    18  26    3.4715   332.9   10.444      26.417
2015   10       30    18  33    3.4714   332.9   10.444      26.413
2015   10       30    18  40    3.4713   332.9   10.445      26.410
2015   10       30    18  47    3.4712   332.8   10.445      26.407
2015   10       30    18  54    3.4711   332.8   10.445      26.403
2015   10       30    19   1    3.4710   332.8   10.445      26.400
2015   10       30    19   7    3.4710   332.8   10.446      26.396
2015   10       30    19  14    3.4708   332.7   10.446      26.392
2015   10       30    19  21    3.4708   332.7   10.446      26.389
2015   10       30    19  28    3.4707   332.7   10.446      26.385
2015   10       30    19  35    3.4706   332.6   10.446      26.381
2015   10       30    19  42    3.4705   332.6   10.447      26.378
2015   10       30    19  49    3.4704   332.6   10.447      26.374
2015   10       30    19  56    3.4703   332.6   10.447      26.370
2015   10       30    20   2    3.4703   332.5   10.447      26.366
2015   10       30    20   9    3.4702   332.5   10.448      26.362
2015   10       30    20  16    3.4701   332.5   10.448      26.358
2015   10       30    20  23    3.4700   332.5   10.448      26.354
2015   10       30    20  30    3.4700   332.4   10.448      26.350
2015   10       30    20  37    3.4699   332.4   10.449      26.346
2015   10       30    20  44    3.4698   332.4   10.449      26.341
2015   10       30    20  51    3.4698   332.4   10.449      26.337
2015   10       30    20  57    3.4697   332.3   10.449      26.333
2015   10       30    21   4    3.4697   332.3   10.450      26.328
2015   10       30    21  11    3.4696   332.3   10.450      26.324
2015   10       30    21  18    3.4696   332.2   10.450      26.320
2015   10       30    21  25    3.4695   332.2   10.450      26.315
2015   10       30    21  32    3.4695   332.2   10.451      26.311
2015   10       30    21  39    3.4695   332.2   10.451      26.306
2015   10       30    21  45    3.4694   332.1   10.451      26.302
2015   10       30    21  52    3.4694   332.1   10.451      26.297
2015   10       30    21  59    3.4693   332.1   10.452      26.292
2015   10       30    22   6    3.4693   332.1   10.452      26.287
2015   10       30    22  13    3.4692   332.0   10.452      26.283
2015   10       30    22  20    3.4692   332.0   10.452      26.278
2015   10       30    22  27    3.4691   332.0   10.452      26.273
2015   10       30    22  34    3.4691   331.9   10.452      26.268
2015   10       30    22  40    3.4690   331.9   10.452      26.262
2015   10       30    22  47    3.4690   331.9   10.453      26.257
2015   10       30    22  54    3.4689   331.8   10.453      26.252
2015   10       30    23   1    3.4689   331.8   10.453      26.246
2015   10       30    23   8    3.4688   331.8   10.453      26.241
2015   10       30    23  15    3.4687   331.8   10.453      26.235
2015   10       30    23  22    3.4686   331.7   10.453      26.230
2015   10       30    23  29    3.4686   331.7   10.453      26.224
2015   10       30    23  35    3.4685   331.7   10.453      26.218
2015   10       30    23  42    3.4684   331.6   10.453      26.212
2015   10       30    23  49    3.4684   331.6   10.452      26.206
2015   10       30    23  56    3.4683   331.6   10.452      26.200
2015   10       31     0   3    3.4682   331.5   10.452      26.194
2015   10       31     0  10    3.4681   331.5   10.452      26.188
2015   10       31     0  17    3.4681   331.5   10.452      26.181
2015   10       31     0  24    3.4680   331.4   10.452      26.175
2015   10       31     0  30    3.4679   331.4   10.452      26.169
2015   10       31     0  37    3.4678   331.4   10.451      26.162
2015   10       31     0  44    3.4678   331.3   10.451      26.156
2015   10       31     0  51    3.4677   331.3   10.451      26.149
2015   10       31     0  58    3.4676   331.3   10.451      26.143
2015   10       31     1   5    3.4676   331.2   10.450      26.136
2015   10       31     1  12    3.4675   331.2   10.450      26.129
2015   10       31     1  19    3.4675   331.2   10.450      26.122
2015   10       31     1  25    3.4674   331.1   10.450      26.116
2015   10       31     1  32    3.4674   331.1   10.450      26.109
2015   10       31     1  39    3.4673   331.1   10.449      26.102
2015   10       31     1  46    3.4673   331.0   10.449      26.095
2015   10       31     1  53    3.4672   331.0   10.449      26.088
2015   10       31     2   0    3.4672   331.0   10.449      26.081
2015   10       31     2   7    3.4672   330.9   10.449      26.074
2015   10       31     2  14    3.4672   330.9   10.449      26.067
2015   10       31     2  21    3.4671   330.9   10.448      26.061
2015   10       31     2  27    3.4671   330.8   10.448      26.053
2015   10       31     2  34    3.4671   330.8   10.448      26.047
2015   10       31     2  41    3.4672   330.8   10.448      26.040
2015   10       31     2  48    3.4672   330.7   10.448      26.033
2015   10       31     2  55    3.4672   330.7   10.448      26.026
2015   10       31     3   2    3.4672   330.7   10.448      26.019
2015   10       31     3   9    3.4673   330.6   10.449      26.012
2015   10       31     3  16    3.4674   330.6   10.449      26.006
2015   10       31     3  22    3.4674   330.5   10.449      25.999
2015   10       31     3  29    3.4675   330.5   10.449      25.992
2015   10       31     3  36    3.4676   330.5   10.450      25.985
2015   10       31     3  43    3.4677   330.4   10.450      25.979
2015   10       31     3  50    3.4678   330.4   10.450      25.972
2015   10       31     3  57    3.4680   330.4   10.451      25.965
2015   10       31     4   4    3.4681   330.3   10.451      25.959
2015   10       31     4  11    3.4682   330.3   10.452      25.953
2015   10       31     4  17    3.4684   330.3   10.452      25.946
2015   10       31     4  24    3.4686   330.2   10.453      25.940
2015   10       31     4  31    3.4688   330.2   10.454      25.933
2015   10       31     4  38    3.4690   330.2   10.455      25.927
2015   10       31     4  45    3.4692   330.1   10.455      25.921
2015   10       31     4  52    3.4694   330.1   10.456      25.915
2015   10       31     4  59    3.4696   330.1   10.457      25.909
2015   10       31     5   5    3.4698   330.0   10.458      25.903
2015   10       31     5  12    3.4701   330.0   10.459      25.897
2015   10       31     5  19    3.4703   330.0   10.460      25.891
2015   10       31     5  26    3.4706   329.9   10.461      25.885
2015   10       31     5  33    3.4708   329.9   10.462      25.879
2015   10       31     5  40    3.4711   329.9   10.463      25.873
2015   10       31     5  47    3.4713   329.8   10.465      25.867
2015   10       31     5  54    3.4716   329.8   10.466      25.861
2015   10       31     6   0    3.4719   329.8   10.467      25.856
2015   10       31     6   7    3.4721   329.7   10.468      25.850
2015   10       31     6  14    3.4724   329.7   10.469      25.844
2015   10       31     6  21    3.4727   329.7   10.471      25.838
2015   10       31     6  28    3.4730   329.6   10.472      25.832
2015   10       31     6  35    3.4733   329.6   10.473      25.827
2015   10       31     6  42    3.4735   329.6   10.474      25.821
2015   10       31     6  49    3.4738   329.5   10.475      25.815
2015   10       31     6  55    3.4741   329.5   10.477      25.809
2015   10       31     7   2    3.4744   329.5   10.478      25.803
2015   10       31     7   9    3.4747   329.4   10.479      25.797
2015   10       31     7  16    3.4750   329.4   10.480      25.791
2015   10       31     7  23    3.4753   329.3   10.481      25.785
2015   10       31     7  30    3.4756   329.3   10.483      25.779
2015   10       31     7  37    3.4758   329.3   10.484      25.773
2015   10       31     7  44    3.4761   329.2   10.485      25.767
2015   10       31     7  50    3.4764   329.2   10.486      25.761
2015   10       31     7  57    3.4767   329.2   10.487      25.755
2015   10       31     8   4    3.4770   329.1   10.488      25.749
2015   10       31     8  11    3.4773   329.1   10.489      25.742
2015   10       31     8  18    3.4776   329.1   10.490      25.736
2015   10       31     8  25    3.4779   329.0   10.490      25.730
2015   10       31     8  32    3.4782   329.0   10.491      25.724
2015   10       31     8  39    3.4785   329.0   10.492      25.717
2015   10       31     8  45    3.4787   328.9   10.493      25.711
2015   10       31     8  52    3.4790   328.9   10.494      25.704
2015   10       31     8  59    3.4793   328.8   10.494      25.698
2015   10       31     9   6    3.4796   328.8   10.495      25.691
2015   10       31     9  13    3.4800   328.8   10.496      25.685
2015   10       31     9  20    3.4803   328.7   10.496      25.678
2015   10       31     9  27    3.4806   328.7   10.497      25.672
2015   10       31     9  34    3.4809   328.7   10.497      25.665
2015   10       31     9  41    3.4812   328.6   10.498      25.659
2015   10       31     9  47    3.4816   328.6   10.499      25.652
2015   10       31     9  54    3.4819   328.5   10.499      25.646
2015   10       31    10   1    3.4823   328.5   10.500      25.639
2015   10       31    10   8    3.4826   328.5   10.500      25.633
2015   10       31    10  15    3.4830   328.4   10.501      25.626
2015   10       31    10  22    3.4834   328.4   10.501      25.620
2015   10       31    10  29    3.4837   328.4   10.502      25.614
2015   10       31    10  36    3.4841   328.3   10.502      25.607
2015   10       31    10  42    3.4845   328.3   10.503      25.601
2015   10       31    10  49    3.4849   328.2   10.503      25.595
2015   10       31    10  56    3.4854   328.2   10.504      25.588
2015   10       31    11   3    3.4858   328.2   10.505      25.582
2015   10       31    11  10    3.4862   328.1   10.505      25.576
2015   10       31    11  17    3.4867   328.1   10.506      25.569
2015   10       31    11  24    3.4871   328.0   10.506      25.563
2015   10       31    11  31    3.4876   328.0   10.507      25.557
2015   10       31    11  37    3.4881   328.0   10.508      25.551
2015   10       31    11  44    3.4886   327.9   10.508      25.545
2015   10       31    11  51    3.4891   327.9   10.509      25.539
2015   10       31    11  58    3.4896   327.8   10.510      25.533
2015   10       31    12   5    3.4901   327.8   10.511      25.527
2015   10       31    12  12    3.4906   327.8   10.511      25.521
2015   10       31    12  19    3.4912   327.7   10.512      25.515
2015   10       31    12  26    3.4917   327.7   10.513      25.509
2015   10       31    12  32    3.4923   327.7   10.514      25.504
2015   10       31    12  39    3.4928   327.6   10.515      25.498
2015   10       31    12  46    3.4934   327.6   10.516      25.492
2015   10       31    12  53    3.4940   327.5   10.517      25.486
2015   10       31    13   0    3.4946   327.5   10.518      25.481
2015   10       31    13   7    3.4952   327.5   10.519      25.475
2015   10       31    13  14    3.4958   327.4   10.520      25.470
2015   10       31    13  20    3.4964   327.4   10.522      25.464
2015   10       31    13  27    3.4971   327.3   10.523      25.459
2015   10       31    13  34    3.4977   327.3   10.524      25.454
2015   10       31    13  41    3.4984   327.3   10.526      25.448
2015   10       31    13  48    3.4990   327.2   10.527      25.443
2015   10       31    13  55    3.4997   327.2   10.528      25.438
2015   10       31    14   2    3.5004   327.1   10.530      25.433
2015   10       31    14   9    3.5011   327.1   10.532      25.428
2015   10       31    14  15    3.5018   327.1   10.533      25.423
2015   10       31    14  22    3.5025   327.0   10.535      25.418
2015   10       31    14  29    3.5033   327.0   10.536      25.413
2015   10       31    14  36    3.5040   326.9   10.538      25.408
2015   10       31    14  43    3.5048   326.9   10.540      25.403
2015   10       31    14  50    3.5056   326.9   10.542      25.399
2015   10       31    14  57    3.5063   326.8   10.544      25.394
2015   10       31    15   4    3.5072   326.8   10.546      25.390
2015   10       31    15  10    3.5080   326.7   10.548      25.385
2015   10       31    15  17    3.5088   326.7   10.550      25.381
2015   10       31    15  24    3.5097   326.7   10.552      25.377
2015   10       31    15  31    3.5105   326.6   10.555      25.372
2015   10       31    15  38    3.5114   326.6   10.557      25.369
2015   10       31    15  45    3.5123   326.5   10.559      25.365
2015   10       31    15  52    3.5132   326.5   10.562      25.361
2015   10       31    15  59    3.5141   326.5   10.564      25.357
2015   10       31    16   5    3.5151   326.4   10.567      25.354
2015   10       31    16  12    3.5160   326.4   10.569      25.350
2015   10       31    16  19    3.5170   326.3   10.572      25.347
2015   10       31    16  26    3.5180   326.3   10.574      25.343
2015   10       31    16  33    3.5190   326.3   10.577      25.340
2015   10       31    16  40    3.5200   326.2   10.580      25.337
2015   10       31    16  47    3.5211   326.2   10.583      25.334
2015   10       31    16  54    3.5222   326.1   10.586      25.332
2015   10       31    17   1    3.5232   326.1   10.589      25.329
2015   10       31    17   7    3.5243   326.1   10.592      25.326
2015   10       31    17  14    3.5254   326.0   10.595      25.324
2015   10       31    17  21    3.5266   326.0   10.598      25.322
2015   10       31    17  28    3.5277   325.9   10.601      25.320
2015   10       31    17  35    3.5289   325.9   10.604      25.317
2015   10       31    17  42    3.5301   325.9   10.607      25.315
2015   10       31    17  49    3.5312   325.8   10.610      25.313
2015   10       31    17  56    3.5324   325.8   10.613      25.311
2015   10       31    18   2    3.5337   325.7   10.616      25.310
2015   10       31    18   9    3.5349   325.7   10.620      25.308
2015   10       31    18  16    3.5361   325.7   10.623      25.306
2015   10       31    18  23    3.5374   325.6   10.626      25.305
2015   10       31    18  30    3.5387   325.6   10.629      25.303
2015   10       31    18  37    3.5400   325.5   10.633      25.302
2015   10       31    18  44    3.5412   325.5   10.636      25.300
2015   10       31    18  51    3.5425   325.5   10.639      25.299
2015   10       31    18  57    3.5439   325.4   10.642      25.297
2015   10       31    19   4    3.5452   325.4   10.646      25.296
2015   10       31    19  11    3.5466   325.4   10.649      25.294
2015   10       31    19  18    3.5479   325.3   10.652      25.293
2015   10       31    19  25    3.5493   325.3   10.655      25.292
2015   10       31    19  32    3.5507   325.2   10.659      25.290
2015   10       31    19  39    3.5521   325.2   10.662      25.289
2015   10       31    19  46    3.5535   325.2   10.665      25.288
2015   10       31    19  52    3.5549   325.1   10.668      25.286
2015   10       31    19  59    3.5564   325.1   10.671      25.285
2015   10       31    20   6    3.5579   325.0   10.675      25.284
2015   10       31    20  13    3.5593   325.0   10.678      25.282
2015   10       31    20  20    3.5608   325.0   10.681      25.281
2015   10       31    20  27    3.5623   324.9   10.684      25.280
2015   10       31    20  34    3.5639   324.9   10.688      25.279
2015   10       31    20  40    3.5654   324.8   10.691      25.277
2015   10       31    20  47    3.5670   324.8   10.694      25.276
2015   10       31    20  54    3.5686   324.7   10.698      25.275
2015   10       31    21   1    3.5702   324.7   10.701      25.273
2015   10       31    21   8    3.5718   324.7   10.704      25.272
2015   10       31    21  15    3.5735   324.6   10.708      25.271
2015   10       31    21  22    3.5752   324.6   10.711      25.270
2015   10       31    21  29    3.5769   324.5   10.714      25.269
2015   10       31    21  35    3.5787   324.5   10.718      25.268
2015   10       31    21  42    3.5805   324.5   10.722      25.267
2015   10       31    21  49    3.5823   324.4   10.725      25.266
2015   10       31    21  56    3.5841   324.4   10.729      25.265
2015   10       31    22   3    3.5860   324.3   10.733      25.264
2015   10       31    22  10    3.5879   324.3   10.736      25.263
2015   10       31    22  17    3.5898   324.2   10.740      25.263
2015   10       31    22  24    3.5917   324.2   10.744      25.262
2015   10       31    22  30    3.5937   324.2   10.748      25.262
2015   10       31    22  37    3.5958   324.1   10.753      25.262
2015   10       31    22  44    3.5978   324.1   10.757      25.262
2015   10       31    22  51    3.5999   324.0   10.761      25.262
2015   10       31    22  58    3.6020   324.0   10.766      25.262
2015   10       31    23   5    3.6042   324.0   10.770      25.262
2015   10       31    23  12    3.6064   323.9   10.775      25.262
2015   10       31    23  19    3.6086   323.9   10.780      25.263
2015   10       31    23  26    3.6108   323.8   10.785      25.264
2015   10       31    23  32    3.6131   323.8   10.790      25.264
2015   10       31    23  39    3.6155   323.7   10.795      25.265
2015   10       31    23  46    3.6178   323.7   10.800      25.267
2015   10       31    23  53    3.6202   323.7   10.805      25.268
2015   11        1     0   0    3.6226   323.6   10.811      25.269
2015   11        1     0   7    3.6251   323.6   10.816      25.271
2015   11        1     0  14    3.6275   323.5   10.822      25.273
2015   11        1     0  21    3.6301   323.5   10.828      25.274
2015   11        1     0  27    3.6326   323.5   10.833      25.276
2015   11        1     0  34    3.6352   323.4   10.839      25.279
2015   11        1     0  41    3.6378   323.4   10.845      25.281
2015   11        1     0  48    3.6404   323.3   10.852      25.283
2015   11        1     0  55    3.6431   323.3   10.858      25.286
2015   11        1     1   2    3.6458   323.3   10.864      25.289
2015   11        1     1   9    3.6485   323.2   10.871      25.292
2015   11        1     1  16    3.6512   323.2   10.878      25.295
2015   11        1     1  22    3.6540   323.2   10.885      25.298
2015   11        1     1  29    3.6568   323.1   10.891      25.301
2015   11        1     1  36    3.6597   323.1   10.898      25.305
2015   11        1     1  43    3.6625   323.0   10.906      25.308
2015   11        1     1  50    3.6654   323.0   10.913      25.312
2015   11        1     1  57    3.6684   323.0   10.920      25.316
2015   11        1     2   4    3.6713   322.9   10.928      25.320
2015   11        1     2  11    3.6743   322.9   10.935      25.325
2015   11        1     2  17    3.6774   322.9   10.943      25.329
2015   11        1     2  24    3.6804   322.8   10.951      25.334
2015   11        1     2  31    3.6835   322.8   10.959      25.338
2015   11        1     2  38    3.6866   322.7   10.967      25.343
2015   11        1     2  45    3.6898   322.7   10.976      25.348
2015   11        1     2  52    3.6930   322.7   10.984      25.353
2015   11        1     2  59    3.6962   322.6   10.993      25.359
2015   11        1     3   6    3.6995   322.6   11.002      25.364
2015   11        1     3  12    3.7028   322.6   11.011      25.370
2015   11        1     3  19    3.7062   322.5   11.020      25.376
2015   11        1     3  26    3.7096   322.5   11.029      25.383
2015   11        1     3  33    3.7131   322.5   11.039      25.389
2015   11        1     3  40    3.7166   322.4   11.048      25.396
2015   11        1     3  47    3.7201   322.4   11.058      25.403
2015   11        1     3  54    3.7237   322.4   11.068      25.410
2015   11        1     4   0    3.7273   322.3   11.078      25.417
2015   11        1     4   7    3.7309   322.3   11.089      25.425
2015   11        1     4  14    3.7346   322.3   11.099      25.433
2015   11        1     4  21    3.7383   322.2   11.110      25.442
2015   11        1     4  28    3.7420   322.2   11.121      25.450
2015   11        1     4  35    3.7458   322.2   11.132      25.459
2015   11        1     4  42    3.7495   322.2   11.143      25.469
2015   11        1     4  49    3.7533   322.1   11.154      25.479
2015   11        1     4  55    3.7571   322.1   11.165      25.489
2015   11        1     5   2    3.7609   322.1   11.176      25.500
2015   11        1     5   9    3.7647   322.1   11.187      25.511
2015   11        1     5  16    3.7686   322.0   11.199      25.523
2015   11        1     5  23    3.7724   322.0   11.210      25.535
2015   11        1     5  30    3.7763   322.0   11.221      25.547
2015   11        1     5  37    3.7801   322.0   11.232      25.560
2015   11        1     5  44    3.7840   321.9   11.244      25.573
2015   11        1     5  50    3.7879   321.9   11.255      25.587
2015   11        1     5  57    3.7917   321.9   11.266      25.600
2015   11        1     6   4    3.7956   321.9   11.277      25.614
2015   11        1     6  11    3.7995   321.9   11.288      25.628
2015   11        1     6  18    3.8034   321.9   11.299      25.642
2015   11        1     6  25    3.8073   321.8   11.310      25.656
2015   11        1     6  32    3.8112   321.8   11.321      25.670
2015   11        1     6  39    3.8151   321.8   11.332      25.684
2015   11        1     6  45    3.8190   321.8   11.343      25.698
2015   11        1     6  52    3.8229   321.8   11.353      25.713
2015   11        1     6  59    3.8268   321.8   11.364      25.727
2015   11        1     7   6    3.8308   321.7   11.375      25.741
2015   11        1     7  13    3.8347   321.7   11.386      25.755
2015   11        1     7  20    3.8387   321.7   11.397      25.769
2015   11        1     7  27    3.8427   321.7   11.408      25.783
2015   11        1     7  34    3.8467   321.7   11.418      25.797
2015   11        1     7  40    3.8507   321.7   11.429      25.811
2015   11        1     7  47    3.8547   321.6   11.440      25.825
2015   11        1     7  54    3.8587   321.6   11.451      25.840
2015   11        1     8   1    3.8627   321.6   11.462      25.854
2015   11        1     8   8    3.8668   321.6   11.473      25.868
2015   11        1     8  15    3.8709   321.6   11.485      25.882
2015   11        1     8  22    3.8750   321.6   11.496      25.896
2015   11        1     8  28    3.8791   321.6   11.507      25.910
2015   11        1     8  35    3.8832   321.5   11.518      25.924
2015   11        1     8  42    3.8873   321.5   11.530      25.939
2015   11        1     8  49    3.8915   321.5   11.542      25.953
2015   11        1     8  56    3.8957   321.5   11.553      25.968
2015   11        1     9   3    3.8999   321.5   11.565      25.983
2015   11        1     9  10    3.9042   321.5   11.577      25.997
2015   11        1     9  17    3.9084   321.5   11.590      26.012
2015   11        1     9  23    3.9127   321.5   11.602      26.028
2015   11        1     9  30    3.9171   321.5   11.615      26.043
2015   11        1     9  37    3.9215   321.5   11.628      26.059
2015   11        1     9  44    3.9259   321.4   11.641      26.075
2015   11        1     9  51    3.9304   321.4   11.655      26.091
2015   11        1     9  58    3.9349   321.4   11.668      26.107
2015   11        1    10   5    3.9395   321.4   11.683      26.124
2015   11        1    10  11    3.9441   321.4   11.697      26.141
2015   11        1    10  18    3.9487   321.4   11.712      26.159
2015   11        1    10  25    3.9534   321.4   11.727      26.177
2015   11        1    10  32    3.9581   321.4   11.742      26.195
2015   11        1    10  39    3.9628   321.4   11.758      26.214
2015   11        1    10  46    3.9676   321.4   11.774      26.233
2015   11        1    10  53    3.9724   321.4   11.790      26.254
2015   11        1    10  59    3.9772   321.4   11.807      26.275
2015   11        1    11   6    3.9820   321.4   11.823      26.298
2015   11        1    11  13    3.9868   321.4   11.840      26.321
2015   11        1    11  20    3.9916   321.5   11.857      26.345
2015   11        1    11  27    3.9964   321.5   11.874      26.369
2015   11        1    11  34    4.0012   321.5   11.892      26.395
2015   11        1    11  41    4.0060   321.5   11.909      26.422
2015   11        1    11  48    4.0107   321.5   11.926      26.449
2015   11        1    11  54    4.0154   321.5   11.943      26.477
2015   11        1    12   1    4.0201   321.5   11.960      26.505
2015   11        1    12   8    4.0247   321.6   11.977      26.534
2015   11        1    12  15    4.0293   321.6   11.994      26.564
2015   11        1    12  22    4.0339   321.6   12.010      26.594
2015   11        1    12  29    4.0384   321.6   12.027      26.625
2015   11        1    12  36    4.0429   321.7   12.043      26.655
2015   11        1    12  43    4.0473   321.7   12.058      26.686
2015   11        1    12  49    4.0517   321.7   12.074      26.718
2015   11        1    12  56    4.0560   321.7   12.089      26.749
2015   11        1    13   3    4.0603   321.8   12.104      26.779
2015   11        1    13  10    4.0646   321.8   12.119      26.810
2015   11        1    13  17    4.0688   321.8   12.134      26.841
2015   11        1    13  24    4.0730   321.9   12.148      26.872
2015   11        1    13  31    4.0771   321.9   12.162      26.902
2015   11        1    13  38    4.0812   321.9   12.176      26.932
2015   11        1    13  44    4.0853   321.9   12.190      26.962
2015   11        1    13  51    4.0894   322.0   12.204      26.992
2015   11        1    13  58    4.0934   322.0   12.217      27.021
2015   11        1    14   5    4.0974   322.0   12.230      27.051
2015   11        1    14  12    4.1014   322.1   12.243      27.080
2015   11        1    14  19    4.1053   322.1   12.256      27.108
2015   11        1    14  26    4.1092   322.1   12.269      27.137
2015   11        1    14  33    4.1131   322.2   12.282      27.165
2015   11        1    14  39    4.1170   322.2   12.294      27.192
2015   11        1    14  46    4.1209   322.2   12.307      27.220
2015   11        1    14  53    4.1247   322.3   12.319      27.247
2015   11        1    15   0    4.1286   322.3   12.331      27.274
2015   11        1    15   7    4.1324   322.3   12.344      27.301
2015   11        1    15  14    4.1362   322.4   12.356      27.328
2015   11        1    15  21    4.1400   322.4   12.368      27.355
2015   11        1    15  27    4.1438   322.4   12.380      27.381
2015   11        1    15  34    4.1476   322.5   12.392      27.407
2015   11        1    15  41    4.1514   322.5   12.404      27.433
2015   11        1    15  48    4.1551   322.5   12.416      27.459
2015   11        1    15  55    4.1589   322.6   12.428      27.485
2015   11        1    16   2    4.1627   322.6   12.440      27.510
2015   11        1    16   9    4.1664   322.6   12.452      27.536
2015   11        1    16  16    4.1702   322.7   12.464      27.561
2015   11        1    16  22    4.1740   322.7   12.476      27.587
2015   11        1    16  29    4.1777   322.8   12.488      27.612
2015   11        1    16  36    4.1815   322.8   12.500      27.638
2015   11        1    16  43    4.1853   322.8   12.513      27.663
2015   11        1    16  50    4.1892   322.9   12.525      27.689
2015   11        1    16  57    4.1930   322.9   12.538      27.714
2015   11        1    17   4    4.1969   323.0   12.551      27.740
2015   11        1    17  10    4.2008   323.0   12.564      27.766
2015   11        1    17  17    4.2047   323.0   12.577      27.792
2015   11        1    17  24    4.2086   323.1   12.591      27.818
2015   11        1    17  31    4.2126   323.1   12.605      27.844
2015   11        1    17  38    4.2166   323.2   12.619      27.871
2015   11        1    17  45    4.2206   323.2   12.633      27.898
2015   11        1    17  52    4.2246   323.3   12.648      27.925
2015   11        1    17  58    4.2286   323.3   12.663      27.953
2015   11        1    18   5    4.2326   323.4   12.679      27.982
2015   11        1    18  12    4.2366   323.4   12.694      28.011
2015   11        1    18  19    4.2406   323.5   12.710      28.042
2015   11        1    18  26    4.2445   323.5   12.726      28.074
2015   11        1    18  33    4.2485   323.6   12.741      28.107
2015   11        1    18  40    4.2523   323.6   12.757      28.142
2015   11        1    18  47    4.2562   323.7   12.772      28.177
2015   11        1    18  53    4.2600   323.8   12.788      28.214
2015   11        1    19   0    4.2637   323.8   12.803      28.251
2015   11        1    19   7    4.2674   323.9   12.817      28.289
2015   11        1    19  14    4.2710   324.0   12.832      28.328
2015   11        1    19  21    4.2745   324.0   12.846      28.367
2015   11        1    19  28    4.2780   324.1   12.860      28.406
2015   11        1    19  35    4.2813   324.2   12.873      28.446
2015   11        1    19  42    4.2847   324.2   12.886      28.486
2015   11        1    19  48    4.2879   324.3   12.898      28.526
2015   11        1    19  55    4.2910   324.4   12.910      28.566
2015   11        1    20   2    4.2941   324.5   12.921      28.606
2015   11        1    20   9    4.2972   324.5   12.932      28.645
2015   11        1    20  16    4.3001   324.6   12.943      28.684
2015   11        1    20  23    4.3030   324.7   12.953      28.722
2015   11        1    20  30    4.3059   324.8   12.963      28.760
2015   11        1    20  37    4.3086   324.8   12.972      28.797
2015   11        1    20  43    4.3114   324.9   12.981      28.834
2015   11        1    20  50    4.3140   325.0   12.990      28.870
2015   11        1    20  57    4.3167   325.0   12.998      28.905
2015   11        1    21   4    4.3193   325.1   13.006      28.941
2015   11        1    21  11    4.3219   325.2   13.014      28.975
2015   11        1    21  18    4.3244   325.3   13.021      29.010
2015   11        1    21  25    4.3269   325.3   13.029      29.044
2015   11        1    21  32    4.3293   325.4   13.036      29.077
2015   11        1    21  38    4.3318   325.5   13.042      29.110
2015   11        1    21  45    4.3342   325.6   13.049      29.143
2015   11        1    21  52    4.3365   325.6   13.055      29.175
2015   11        1    21  59    4.3389   325.7   13.062      29.207
2015   11        1    22   6    4.3412   325.8   13.068      29.238
2015   11        1    22  13    4.3435   325.9   13.073      29.269
2015   11        1    22  20    4.3457   325.9   13.079      29.300
2015   11        1    22  27    4.3480   326.0   13.084      29.331
2015   11        1    22  33    4.3502   326.1   13.090      29.361
2015   11        1    22  40    4.3524   326.2   13.095      29.391
2015   11        1    22  47    4.3546   326.2   13.100      29.420
2015   11        1    22  54    4.3568   326.3   13.105      29.450
2015   11        1    23   1    4.3590   326.4   13.110      29.479
2015   11        1    23   8    4.3611   326.5   13.114      29.507
2015   11        1    23  15    4.3632   326.6   13.119      29.536
2015   11        1    23  21    4.3653   326.6   13.124      29.564
2015   11        1    23  28    4.3674   326.7   13.128      29.592
2015   11        1    23  35    4.3695   326.8   13.132      29.620
2015   11        1    23  42    4.3716   326.9   13.137      29.647
2015   11        1    23  49    4.3736   327.0   13.141      29.674
2015   11        1    23  56    4.3757   327.0   13.145      29.701
2015   11        2     0   3    4.3777   327.1   13.149      29.729
2015   11        2     0   9    4.3797   327.2   13.154      29.755
2015   11        2     0  16    4.3818   327.3   13.158      29.782
2015   11        2     0  23    4.3838   327.4   13.162      29.808
2015   11        2     0  30    4.3858   327.4   13.166      29.835
2015   11        2     0  37    4.3879   327.5   13.171      29.861
2015   11        2     0  44    4.3899   327.6   13.175      29.887
2015   11        2     0  51    4.3919   327.7   13.180      29.913
2015   11        2     0  58    4.3940   327.8   13.184      29.939
2015   11        2     1   4    4.3960   327.8   13.189      29.965
2015   11        2     1  11    4.3981   327.9   13.194      29.991
2015   11        2     1  18    4.4002   328.0   13.199      30.017
2015   11        2     1  25    4.4022   328.1   13.204      30.044
2015   11        2     1  32    4.4042   328.2   13.209      30.071
2015   11        2     1  39    4.4063   328.3   13.214      30.098
2015   11        2     1  46    4.4083   328.4   13.220      30.125
2015   11        2     1  52    4.4102   328.4   13.225      30.154
2015   11        2     1  59    4.4122   328.5   13.230      30.183
2015   11        2     2   6    4.4141   328.6   13.236      30.212
2015   11        2     2  13    4.4160   328.7   13.241      30.241
2015   11        2     2  20    4.4179   328.8   13.246      30.271
2015   11        2     2  27    4.4197   328.9   13.251      30.302
2015   11        2     2  34    4.4214   329.0   13.256      30.332
2015   11        2     2  41    4.4232   329.1   13.260      30.363
2015   11        2     2  47    4.4248   329.2   13.265      30.394
2015   11        2     2  54    4.4265   329.3   13.269      30.425
2015   11        2     3   1    4.4280   329.4   13.273      30.457
2015   11        2     3   8    4.4295   329.5   13.277      30.488
2015   11        2     3  15    4.4310   329.6   13.281      30.519
2015   11        2     3  22    4.4325   329.7   13.284      30.550
2015   11        2     3  29    4.4338   329.8   13.288      30.581
2015   11        2     3  36    4.4352   329.9   13.291      30.612
2015   11        2     3  42    4.4365   330.0   13.294      30.643
2015   11        2     3  49    4.4378   330.1   13.297      30.673
2015   11        2     3  56    4.4390   330.2   13.300      30.703
2015   11        2     4   3    4.4402   330.3   13.302      30.733
2015   11        2     4  10    4.4413   330.4   13.305      30.763
2015   11        2     4  17    4.4425   330.4   13.307      30.793
2015   11        2     4  24    4.4436   330.5   13.309      30.822
2015   11        2     4  31    4.4446   330.6   13.311      30.852
2015   11        2     4  37    4.4457   330.7   13.313      30.881
2015   11        2     4  44    4.4467   330.8   13.315      30.910
2015   11        2     4  51    4.4477   330.9   13.317      30.939
2015   11        2     4  58    4.4486   331.0   13.318      30.968
2015   11        2     5   5    4.4496   331.2   13.320      30.997
2015   11        2     5  12    4.4505   331.3   13.321      31.026
2015   11        2     5  19    4.4514   331.4   13.322      31.055
2015   11        2     5  26    4.4522   331.5   13.323      31.083
2015   11        2     5  32    4.4531   331.6   13.324      31.111
2015   11        2     5  39    4.4539   331.7   13.325      31.140
2015   11        2     5  46    4.4547   331.8   13.326      31.168
2015   11        2     5  53    4.4555   331.9   13.327      31.196
2015   11        2     6   0    4.4563   332.0   13.327      31.224
2015   11        2     6   7    4.4570   332.1   13.328      31.251
2015   11        2     6  14    4.4578   332.2   13.328      31.278
2015   11        2     6  21    4.4585   332.3   13.328      31.306
2015   11        2     6  27    4.4592   332.4   13.329      31.333
2015   11        2     6  34    4.4599   332.5   13.329      31.360
2015   11        2     6  41    4.4606   332.6   13.329      31.386
2015   11        2     6  48    4.4613   332.7   13.329      31.413
2015   11        2     6  55    4.4619   332.8   13.329      31.439
2015   11        2     7   2    4.4626   332.9   13.329      31.466
2015   11        2     7   9    4.4632   333.0   13.329      31.492
2015   11        2     7  15    4.4638   333.1   13.329      31.519
2015   11        2     7  22    4.4644   333.2   13.329      31.545
2015   11        2     7  29    4.4650   333.3   13.329      31.571
2015   11        2     7  36    4.4656   333.4   13.329      31.597
2015   11        2     7  43    4.4662   333.5   13.329      31.623
2015   11        2     7  50    4.4668   333.6   13.329      31.649
2015   11        2     7  57    4.4673   333.8   13.329      31.675
2015   11        2     8   4    4.4678   333.9   13.328      31.701
2015   11        2     8  10    4.4683   334.0   13.328      31.726
2015   11        2     8  17    4.4688   334.1   13.328      31.752
2015   11        2     8  24    4.4693   334.2   13.327      31.777
2015   11        2     8  31    4.4697   334.3   13.327      31.802
2015   11        2     8  38    4.4701   334.4   13.326      31.827
2015   11        2     8  45    4.4706   334.5   13.326      31.852
2015   11        2     8  52    4.4709   334.6   13.325      31.876
2015   11        2     8  58    4.4713   334.7   13.324      31.900
2015   11        2     9   5    4.4717   334.8   13.323      31.924
2015   11        2     9  12    4.4720   334.9   13.322      31.948
2015   11        2     9  19    4.4723   335.1   13.321      31.972
2015   11        2     9  26    4.4726   335.2   13.321      31.995
2015   11        2     9  33    4.4729   335.3   13.320      32.019
2015   11        2     9  40    4.4732   335.4   13.319      32.042
2015   11        2     9  47    4.4735   335.5   13.318      32.065
2015   11        2     9  53    4.4737   335.6   13.317      32.089
2015   11        2    10   0    4.4740   335.7   13.316      32.111
2015   11        2    10   7    4.4742   335.8   13.315      32.135
2015   11        2    10  14    4.4745   335.9   13.315      32.158
2015   11        2    10  21    4.4747   336.0   13.314      32.181
2015   11        2    10  28    4.4750   336.2   13.314      32.204
2015   11        2    10  35    4.4752   336.3   13.313      32.227
2015   11        2    10  42    4.4754   336.4   13.313      32.251
2015   11        2    10  48    4.4757   336.5   13.313      32.274
2015   11        2    10  55    4.4759   336.6   13.312      32.298
2015   11        2    11   2    4.4761   336.7   13.312      32.321
2015   11        2    11   9    4.4764   336.8   13.312      32.344
2015   11        2    11  16    4.4766   337.0   13.312      32.368
2015   11        2    11  23    4.4768   337.1   13.311      32.391
2015   11        2    11  30    4.4769   337.2   13.311      32.414
2015   11        2    11  37    4.4771   337.3   13.311      32.437
2015   11        2    11  43    4.4773   337.4   13.310      32.460
2015   11        2    11  50    4.4774   337.6   13.310      32.483
2015   11        2    11  57    4.4775   337.7   13.309      32.506
2015   11        2    12   4    4.4776   337.8   13.308      32.529
2015   11        2    12  11    4.4777   337.9   13.307      32.551
2015   11        2    12  18    4.4778   338.0   13.306      32.573
2015   11        2    12  25    4.4779   338.2   13.305      32.595
2015   11        2    12  32    4.4779   338.3   13.304      32.617
2015   11        2    12  38    4.4779   338.4   13.302      32.639
2015   11        2    12  45    4.4780   338.5   13.301      32.660
2015   11        2    12  52    4.4780   338.6   13.299      32.682
2015   11        2    12  59    4.4780   338.8   13.297      32.703
2015   11        2    13   6    4.4780   338.9   13.296      32.724
2015   11        2    13  13    4.4780   339.0   13.294      32.745
2015   11        2    13  20    4.4779   339.1   13.292      32.765
2015   11        2    13  26    4.4779   339.2   13.290      32.785
2015   11        2    13  33    4.4779   339.4   13.287      32.806
2015   11        2    13  40    4.4779   339.5   13.285      32.825
2015   11        2    13  47    4.4779   339.6   13.283      32.845
2015   11        2    13  54    4.4779   339.7   13.281      32.864
2015   11        2    14   1    4.4778   339.8   13.278      32.883
2015   11        2    14   8    4.4778   340.0   13.276      32.902
2015   11        2    14  15    4.4778   340.1   13.274      32.921
2015   11        2    14  21    4.4778   340.2   13.271      32.940
2015   11        2    14  28    4.4778   340.3   13.269      32.958
2015   11        2    14  35    4.4778   340.4   13.266      32.977
2015   11        2    14  42    4.4778   340.5   13.264      32.995
2015   11        2    14  49    4.4777   340.7   13.261      33.014
2015   11        2    14  56    4.4777   340.8   13.258      33.032
2015   11        2    15   3    4.4777   340.9   13.256      33.050
2015   11        2    15   9    4.4777   341.0   13.253      33.068
2015   11        2    15  16    4.4776   341.1   13.250      33.085
2015   11        2    15  23    4.4776   341.2   13.247      33.103
2015   11        2    15  30    4.4776   341.4   13.244      33.120
2015   11        2    15  37    4.4775   341.5   13.241      33.137
2015   11        2    15  44    4.4774   341.6   13.238      33.154
2015   11        2    15  51    4.4774   341.7   13.234      33.170
2015   11        2    15  58    4.4773   341.8   13.231      33.187
2015   11        2    16   4    4.4772   342.0   13.228      33.203
2015   11        2    16  11    4.4771   342.1   13.224      33.219
2015   11        2    16  18    4.4769   342.2   13.220      33.235
2015   11        2    16  25    4.4768   342.3   13.216      33.250
2015   11        2    16  32    4.4767   342.4   13.213      33.266
2015   11        2    16  39    4.4765   342.5   13.209      33.280
2015   11        2    16  46    4.4764   342.7   13.205      33.295
2015   11        2    16  52    4.4762   342.8   13.201      33.310
2015   11        2    16  59    4.4761   342.9   13.196      33.324
2015   11        2    17   6    4.4759   343.0   13.192      33.338
2015   11        2    17  13    4.4758   343.1   13.188      33.352
2015   11        2    17  20    4.4756   343.3   13.184      33.366
2015   11        2    17  27    4.4755   343.4   13.180      33.380
2015   11        2    17  34    4.4754   343.5   13.176      33.394
2015   11        2    17  41    4.4753   343.6   13.172      33.408
2015   11        2    17  47    4.4752   343.7   13.168      33.422
2015   11        2    17  54    4.4752   343.9   13.164      33.436
2015   11        2    18   1    4.4751   344.0   13.160      33.449
2015   11        2    18   8    4.4751   344.1   13.156      33.463
2015   11        2    18  15    4.4751   344.2   13.152      33.477
2015   11        2    18  22    4.4751   344.3   13.148      33.490
2015   11        2    18  29    4.4751   344.5   13.143      33.504
2015   11        2    18  36    4.4751   344.6   13.139      33.517
2015   11        2    18  42    4.4751   344.7   13.135      33.531
2015   11        2    18  49    4.4752   344.8   13.131      33.544
2015   11        2    18  56    4.4752   345.0   13.127      33.557
2015   11        2    19   3    4.4753   345.1   13.122      33.570
2015   11        2    19  10    4.4754   345.2   13.118      33.582
2015   11        2    19  17    4.4755   345.4   13.113      33.595
2015   11        2    19  24    4.4757   345.5   13.109      33.607
2015   11        2    19  31    4.4758   345.6   13.104      33.619
2015   11        2    19  37    4.4760   345.7   13.099      33.631
2015   11        2    19  44    4.4762   345.9   13.094      33.642
2015   11        2    19  51    4.4764   346.0   13.090      33.654
2015   11        2    19  58    4.4767   346.1   13.085      33.665
2015   11        2    20   5    4.4769   346.2   13.080      33.677
2015   11        2    20  12    4.4773   346.4   13.076      33.688
2015   11        2    20  19    4.4776   346.5   13.071      33.699
2015   11        2    20  26    4.4781   346.6   13.066      33.710
2015   11        2    20  32    4.4785   346.8   13.062      33.720
2015   11        2    20  39    4.4790   346.9   13.057      33.731
2015   11        2    20  46    4.4796   347.0   13.052      33.742
2015   11        2    20  53    4.4802   347.1   13.048      33.752
2015   11        2    21   0    4.4808   347.3   13.044      33.763
2015   11        2    21   7    4.4815   347.4   13.039      33.773
2015   11        2    21  14    4.4822   347.5   13.035      33.784
2015   11        2    21  21    4.4830   347.6   13.031      33.795
2015   11        2    21  27    4.4838   347.8   13.027      33.806
2015   11        2    21  34    4.4846   347.9   13.022      33.817
2015   11        2    21  41    4.4854   348.0   13.018      33.828
2015   11        2    21  48    4.4863   348.2   13.014      33.840
2015   11        2    21  55    4.4872   348.3   13.010      33.851
2015   11        2    22   2    4.4881   348.4   13.006      33.863
2015   11        2    22   9    4.4890   348.6   13.002      33.875
2015   11        2    22  15    4.4900   348.7   12.997      33.887
2015   11        2    22  22    4.4909   348.8   12.993      33.899
2015   11        2    22  29    4.4919   349.0   12.989      33.911
2015   11        2    22  36    4.4929   349.1   12.984      33.924
2015   11        2    22  43    4.4939   349.2   12.980      33.936
2015   11        2    22  50    4.4949   349.3   12.975      33.948
2015   11        2    22  57    4.4959   349.5   12.971      33.961
2015   11        2    23   3    4.4969   349.6   12.966      33.973
2015   11        2    23  10    4.4978   349.7   12.962      33.985
2015   11        2    23  17    4.4988   349.9   12.957      33.997
2015   11        2    23  24    4.4998   350.0   12.952      34.009
2015   11        2    23  31    4.5008   350.1   12.948      34.021
2015   11        2    23  38    4.5018   350.3   12.943      34.033
2015   11        2    23  45    4.5028   350.4   12.938      34.045
2015   11        2    23  52    4.5038   350.5   12.933      34.056
2015   11        2    23  58    4.5048   350.7   12.929      34.068
2015   11        3     0   5    4.5058   350.8   12.924      34.080
2015   11        3     0  12    4.5068   350.9   12.919      34.091
2015   11        3     0  19    4.5078   351.1   12.914      34.102
2015   11        3     0  26    4.5088   351.2   12.909      34.114
2015   11        3     0  33    4.5099   351.3   12.905      34.125
2015   11        3     0  40    4.5109   351.5   12.900      34.137
2015   11        3     0  47    4.5120   351.6   12.895      34.148
2015   11        3     0  53    4.5131   351.7   12.890      34.159
2015   11        3     1   0    4.5142   351.9   12.886      34.170
2015   11        3     1   7    4.5154   352.0   12.881      34.182
2015   11        3     1  14    4.5166   352.1   12.877      34.193
2015   11        3     1  21    4.5178   352.3   12.872      34.205
2015   11        3     1  28    4.5191   352.4   12.868      34.216
2015   11        3     1  35    4.5205   352.5   12.864      34.228
2015   11        3     1  42    4.5218   352.7   12.860      34.240
2015   11        3     1  48    4.5233   352.8   12.857      34.252
2015   11        3     1  55    4.5248   352.9   12.853      34.264
2015   11        3     2   2    4.5264   353.1   12.850      34.277
2015   11        3     2   9    4.5281   353.2   12.847      34.290
2015   11        3     2  16    4.5298   353.3   12.844      34.303
2015   11        3     2  23    4.5316   353.5   12.842      34.317
2015   11        3     2  30    4.5336   353.6   12.840      34.331
2015   11        3     2  37    4.5357   353.7   12.838      34.345
2015   11        3     2  43    4.5378   353.9   12.837      34.360
2015   11        3     2  50    4.5402   354.0   12.836      34.376
2015   11        3     2  57    4.5426   354.2   12.836      34.393
2015   11        3     3   4    4.5452   354.3   12.836      34.410
2015   11        3     3  11    4.5480   354.5   12.837      34.427
2015   11        3     3  18    4.5510   354.6   12.838      34.446
2015   11        3     3  25    4.5541   354.7   12.841      34.466
2015   11        3     3  32    4.5574   354.9   12.843      34.487
2015   11        3     3  38    4.5608   355.1   12.846      34.511
2015   11        3     3  45    4.5644   355.2   12.849      34.536
2015   11        3     3  52    4.5681   355.4   12.853      34.563
2015   11        3     3  59    4.5719   355.5   12.857      34.592
2015   11        3     4   6    4.5758   355.7   12.861      34.621
2015   11        3     4  13    4.5799   355.8   12.866      34.653
2015   11        3     4  20    4.5841   356.0   12.871      34.685
2015   11        3     4  26    4.5884   356.2   12.876      34.718
2015   11        3     4  33    4.5927   356.3   12.881      34.752
2015   11        3     4  40    4.5971   356.5   12.886      34.789
2015   11        3     4  47    4.6014   356.7   12.891      34.827
2015   11        3     4  54    4.6058   356.9   12.896      34.867
2015   11        3     5   1    4.6102   357.1   12.900      34.908
2015   11        3     5   8    4.6145   357.2   12.904      34.949
2015   11        3     5  15    4.6188   357.4   12.907      34.991
2015   11        3     5  21    4.6231   357.6   12.911      35.034
2015   11        3     5  28    4.6273   357.8   12.913      35.076
2015   11        3     5  35    4.6315   358.0   12.916      35.119
2015   11        3     5  42    4.6355   358.1   12.917      35.161
2015   11        3     5  49    4.6395   358.3   12.918      35.203
2015   11        3     5  56    4.6434   358.5   12.919      35.245
2015   11        3     6   3    4.6472   358.7   12.918      35.288
2015   11        3     6   9    4.6508   358.9   12.918      35.329
2015   11        3     6  16    4.6544   359.1   12.917      35.369
2015   11        3     6  23    4.6579   359.3   12.915      35.409
2015   11        3     6  30    4.6614   359.4   12.913      35.447
2015   11        3     6  37    4.6647   359.6   12.910      35.485
2015   11        3     6  44    4.6680   359.8   12.908      35.522
2015   11        3     6  51    4.6712   360.0   12.904      35.558
2015   11        3     6  57    4.6743   360.2   12.901      35.594
2015   11        3     7   4    4.6774   360.4   12.897      35.628
2015   11        3     7  11    4.6804   360.5   12.893      35.662
2015   11        3     7  18    4.6833   360.7   12.889      35.696
2015   11        3     7  25    4.6863   360.9   12.884      35.729
2015   11        3     7  32    4.6892   361.1   12.880      35.761
2015   11        3     7  39    4.6920   361.3   12.875      35.794
2015   11        3     7  46    4.6949   361.4   12.870      35.825
2015   11        3     7  52    4.6977   361.6   12.865      35.857
2015   11        3     7  59    4.7005   361.8   12.860      35.888
2015   11        3     8   6    4.7033   362.0   12.855      35.918
2015   11        3     8  13    4.7061   362.2   12.850      35.949
2015   11        3     8  20    4.7089   362.3   12.845      35.979
2015   11        3     8  27    4.7118   362.5   12.840      36.010
2015   11        3     8  34    4.7146   362.7   12.835      36.040
2015   11        3     8  41    4.7174   362.9   12.831      36.070
2015   11        3     8  47    4.7203   363.1   12.826      36.101
2015   11        3     8  54    4.7232   363.2   12.822      36.131
2015   11        3     9   1    4.7262   363.4   12.818      36.162
2015   11        3     9   8    4.7292   363.6   12.814      36.193
2015   11        3     9  15    4.7323   363.8   12.811      36.225
2015   11        3     9  22    4.7354   364.0   12.808      36.257
2015   11        3     9  29    4.7386   364.1   12.806      36.289
2015   11        3     9  36    4.7419   364.3   12.804      36.322
2015   11        3     9  42    4.7454   364.5   12.803      36.356
2015   11        3     9  49    4.7489   364.7   12.802      36.391
2015   11        3     9  56    4.7525   364.9   12.803      36.427
2015   11        3    10   3    4.7564   365.1   12.804      36.464
2015   11        3    10  10    4.7603   365.3   12.807      36.503
2015   11        3    10  17    4.7645   365.4   12.811      36.543
2015   11        3    10  24    4.7688   365.6   12.816      36.585
2015   11        3    10  31    4.7735   365.8   12.822      36.629
2015   11        3    10  37    4.7783   366.0   12.830      36.675
2015   11        3    10  44    4.7834   366.2   12.840      36.723
2015   11        3    10  51    4.7888   366.4   12.851      36.776
2015   11        3    10  58    4.7944   366.6   12.864      36.834
2015   11        3    11   5    4.8002   366.9   12.878      36.897
2015   11        3    11  12    4.8062   367.1   12.893      36.965
2015   11        3    11  19    4.8124   367.3   12.909      37.037
2015   11        3    11  25    4.8187   367.6   12.926      37.113
2015   11        3    11  32    4.8251   367.8   12.943      37.193
2015   11        3    11  39    4.8316   368.1   12.961      37.276
2015   11        3    11  46    4.8382   368.3   12.978      37.360
2015   11        3    11  53    4.8448   368.6   12.996      37.447
2015   11        3    12   0    4.8514   368.8   13.014      37.535
2015   11        3    12   7    4.8579   369.1   13.032      37.627
2015   11        3    12  14    4.8644   369.4   13.048      37.722
2015   11        3    12  20    4.8707   369.7   13.063      37.819
2015   11        3    12  27    4.8769   370.0   13.078      37.916
2015   11        3    12  34    4.8829   370.3   13.091      38.013
2015   11        3    12  41    4.8887   370.6   13.102      38.110
2015   11        3    12  48    4.8943   370.9   13.112      38.206
2015   11        3    12  55    4.8997   371.2   13.121      38.300
2015   11        3    13   2    4.9048   371.5   13.127      38.393
2015   11        3    13   8    4.9097   371.8   13.132      38.485
2015   11        3    13  15    4.9144   372.1   13.135      38.574
2015   11        3    13  22    4.9188   372.4   13.136      38.662
2015   11        3    13  29    4.9229   372.7   13.136      38.748
2015   11        3    13  36    4.9268   373.0   13.134      38.832
2015   11        3    13  43    4.9304   373.3   13.130      38.912
2015   11        3    13  50    4.9339   373.6   13.124      38.989
2015   11        3    13  56    4.9371   373.9   13.117      39.063
2015   11        3    14   3    4.9402   374.2   13.109      39.135
2015   11        3    14  10    4.9430   374.5   13.100      39.204
2015   11        3    14  17    4.9457   374.8   13.089      39.272
2015   11        3    14  24    4.9483   375.1   13.078      39.337
2015   11        3    14  31    4.9508   375.4   13.066      39.400
2015   11        3    14  38    4.9531   375.7   13.052      39.462
2015   11        3    14  45    4.9554   376.0   13.039      39.523
2015   11        3    14  51    4.9576   376.3   13.024      39.583
2015   11        3    14  58    4.9597   376.6   13.009      39.642
2015   11        3    15   5    4.9618   376.8   12.994      39.700
2015   11        3    15  12    4.9638   377.1   12.978      39.757
2015   11        3    15  19    4.9657   377.4   12.962      39.815
2015   11        3    15  26    4.9677   377.7   12.946      39.872
2015   11        3    15  33    4.9695   378.0   12.929      39.928
2015   11        3    15  40    4.9714   378.2   12.912      39.986
2015   11        3    15  46    4.9732   378.5   12.895      40.043
2015   11        3    15  53    4.9749   378.8   12.878      40.100
2015   11        3    16   0    4.9767   379.1   12.861      40.158
2015   11        3    16   7    4.9784   379.4   12.843      40.216
2015   11        3    16  14    4.9801   379.7   12.826      40.275
2015   11        3    16  21    4.9817   380.0   12.809      40.334
2015   11        3    16  28    4.9833   380.2   12.791      40.394
2015   11        3    16  35    4.9849   380.5   12.774      40.454
2015   11        3    16  41    4.9865   380.8   12.757      40.515
2015   11        3    16  48    4.9880   381.1   12.740      40.576
2015   11        3    16  55    4.9895   381.4   12.724      40.638
2015   11        3    17   2    4.9910   381.7   12.707      40.701
2015   11        3    17   9    4.9925   382.0   12.691      40.764
2015   11        3    17  16    4.9939   382.3   12.675      40.828
2015   11        3    17  23    4.9954   382.6   12.660      40.893
2015   11        3    17  30    4.9968   382.9   12.646      40.958
2015   11        3    17  36    4.9983   383.2   12.632      41.025
2015   11        3    17  43    4.9997   383.5   12.618      41.093
2015   11        3    17  50    5.0012   383.8   12.606      41.161
2015   11        3    17  57    5.0027   384.1   12.595      41.230
2015   11        3    18   4    5.0042   384.4   12.585      41.300
2015   11        3    18  11    5.0058   384.7   12.576      41.374
2015   11        3    18  18    5.0074   385.1   12.568      41.450
2015   11        3    18  25    5.0089   385.4   12.561      41.530
2015   11        3    18  31    5.0104   385.7   12.555      41.612
2015   11        3    18  38    5.0118   386.0   12.549      41.696
2015   11        3    18  45    5.0132   386.4   12.544      41.783
2015   11        3    18  52    5.0144   386.7   12.539      41.872
2015   11        3    18  59    5.0156   387.1   12.534      41.962
2015   11        3    19   6    5.0165   387.4   12.529      42.053
2015   11        3    19  13    5.0173   387.8   12.525      42.144
2015   11        3    19  19    5.0179   388.1   12.520      42.235
2015   11        3    19  26    5.0183   388.5   12.515      42.328
2015   11        3    19  33    5.0184   388.9   12.510      42.424
2015   11        3    19  40    5.0184   389.3   12.503      42.519
2015   11        3    19  47    5.0179   389.7   12.496      42.613
2015   11        3    19  54    5.0174   390.0   12.488      42.706
2015   11        3    20   1    5.0164   390.4   12.479      42.799
2015   11        3    20   7    5.0152   390.8   12.469      42.891
2015   11        3    20  14    5.0137   391.2   12.457      42.980
2015   11        3    20  21    5.0119   391.7   12.445      43.068
2015   11        3    20  28    5.0098   392.1   12.431      43.154
2015   11        3    20  35    5.0075   392.5   12.416      43.237
2015   11        3    20  42    5.0049   392.9   12.399      43.320
2015   11        3    20  49    5.0020   393.3   12.381      43.401
2015   11        3    20  56    4.9987   393.7   12.362      43.479
2015   11        3    21   2    4.9953   394.1   12.341      43.554
2015   11        3    21   9    4.9916   394.6   12.319      43.627
2015   11        3    21  16    4.9877   395.0   12.296      43.697
2015   11        3    21  23    4.9835   395.4   12.272      43.766
2015   11        3    21  30    4.9792   395.8   12.246      43.832
2015   11        3    21  37    4.9746   396.2   12.220      43.897
2015   11        3    21  44    4.9699   396.6   12.192      43.959
2015   11        3    21  50    4.9649   397.1   12.164      44.021
2015   11        3    21  57    4.9599   397.5   12.134      44.081
2015   11        3    22   4    4.9546   397.9   12.104      44.139
2015   11        3    22  11    4.9492   398.3   12.072      44.197
2015   11        3    22  18    4.9435   398.7   12.040      44.254
2015   11        3    22  25    4.9378   399.1   12.007      44.310
2015   11        3    22  32    4.9318   399.5   11.973      44.365
2015   11        3    22  39    4.9257   399.9   11.938      44.420
2015   11        3    22  45    4.9194   400.3   11.902      44.474
2015   11        3    22  52    4.9130   400.7   11.865      44.528
2015   11        3    22  59    4.9063   401.2   11.827      44.581
2015   11        3    23   6    4.8994   401.6   11.788      44.633
2015   11        3    23  13    4.8923   402.0   11.747      44.684
2015   11        3    23  20    4.8850   402.4   11.706      44.734
2015   11        3    23  27    4.8774   402.8   11.663      44.784
2015   11        3    23  34    4.8696   403.2   11.619      44.832
2015   11        3    23  40    4.8614   403.6   11.574      44.876
2015   11        3    23  47    4.8532   404.0   11.528      44.918
2015   11        3    23  54    4.8445   404.3   11.481      44.957
2015   11        4     0   1    4.8358   404.7   11.433      44.993
2015   11        4     0   8    4.8267   405.1   11.385      45.027
2015   11        4     0  15    4.8175   405.5   11.336      45.059
2015   11        4     0  22    4.8080   405.9   11.286      45.088
2015   11        4     0  29    4.7984   406.2   11.237      45.115
2015   11        4     0  35    4.7885   406.6   11.186      45.141
2015   11        4     0  42    4.7786   407.0   11.136      45.166
2015   11        4     0  49    4.7684   407.4   11.085      45.188
2015   11        4     0  56    4.7581   407.7   11.034      45.208
2015   11        4     1   3    4.7474   408.1   10.984      45.225
2015   11        4     1  10    4.7368   408.5   10.932      45.243
2015   11        4     1  17    4.7258   408.9   10.881      45.260
2015   11        4     1  23    4.7147   409.2   10.829      45.275
2015   11        4     1  30    4.7032   409.6   10.777      45.288
2015   11        4     1  37    4.6916   410.0   10.724      45.298
2015   11        4     1  44    4.6796   410.4   10.672      45.305
2015   11        4     1  51    4.6676   410.7   10.620      45.310
2015   11        4     1  58    4.6552   411.1   10.568      45.313
2015   11        4     2   5    4.6427   411.4   10.516      45.313
2015   11        4     2  12    4.6299   411.8   10.464      45.311
2015   11        4     2  18    4.6171   412.2   10.413      45.307
2015   11        4     2  25    4.6040   412.5   10.362      45.302
2015   11        4     2  32    4.5908   412.9   10.311      45.296
2015   11        4     2  39    4.5774   413.2   10.261      45.289
2015   11        4     2  46    4.5640   413.6   10.212      45.279
2015   11        4     2  53    4.5503   413.9   10.163      45.268
2015   11        4     3   0    4.5366   414.3   10.115      45.256
2015   11        4     3   6    4.5227   414.6   10.067      45.244
2015   11        4     3  13    4.5089   415.0   10.020      45.231
2015   11        4     3  20    4.4948   415.3    9.973      45.218
2015   11        4     3  27    4.4807   415.7    9.927      45.204
2015   11        4     3  34    4.4664   416.0    9.882      45.189
2015   11        4     3  41    4.4522   416.4    9.837      45.173
2015   11        4     3  48    4.4377   416.7    9.792      45.155
2015   11        4     3  54    4.4233   417.1    9.747      45.137
2015   11        4     4   1    4.4086   417.4    9.703      45.118
2015   11        4     4   8    4.3940   417.8    9.660      45.098
2015   11        4     4  15    4.3792   418.1    9.616      45.077
2015   11        4     4  22    4.3644   418.5    9.573      45.055
2015   11        4     4  29    4.3494   418.8    9.530      45.032
2015   11        4     4  36    4.3344   419.2    9.487      45.008
2015   11        4     4  43    4.3193   419.5    9.445      44.984
2015   11        4     4  49    4.3042   419.8    9.402      44.958
2015   11        4     4  56    4.2889   420.2    9.360      44.931
2015   11        4     5   3    4.2736   420.5    9.317      44.904
2015   11        4     5  10    4.2582   420.9    9.275      44.875
2015   11        4     5  17    4.2428   421.2    9.232      44.846
2015   11        4     5  24    4.2272   421.5    9.189      44.816
2015   11        4     5  31    4.2116   421.9    9.146      44.785
2015   11        4     5  37    4.1959   422.2    9.103      44.753
2015   11        4     5  44    4.1801   422.5    9.060      44.720
2015   11        4     5  51    4.1642   422.8    9.016      44.686
2015   11        4     5  58    4.1482   423.2    8.972      44.650
2015   11        4     6   5    4.1321   423.5    8.928      44.614
2015   11        4     6  12    4.1159   423.8    8.883      44.576
2015   11        4     6  19    4.0996   424.1    8.838      44.536
2015   11        4     6  26    4.0832   424.4    8.792      44.495
2015   11        4     6  32    4.0665   424.7    8.746      44.450
2015   11        4     6  39    4.0499   425.1    8.698      44.404
2015   11        4     6  46    4.0330   425.4    8.650      44.356
2015   11        4     6  53    4.0160   425.7    8.602      44.303
2015   11        4     7   0    3.9988   425.9    8.552      44.244
2015   11        4     7   7    3.9815   426.2    8.503      44.181
2015   11        4     7  14    3.9641   426.5    8.453      44.113
2015   11        4     7  21    3.9466   426.8    8.403      44.040
2015   11        4     7  27    3.9290   427.0    8.353      43.963
2015   11        4     7  34    3.9114   427.3    8.303      43.881
2015   11        4     7  41    3.8937   427.5    8.253      43.795
2015   11        4     7  48    3.8760   427.8    8.203      43.707
2015   11        4     7  55    3.8582   428.0    8.153      43.615
2015   11        4     8   2    3.8404   428.2    8.103      43.520
2015   11        4     8   9    3.8226   428.4    8.053      43.421
2015   11        4     8  16    3.8047   428.6    8.004      43.319
2015   11        4     8  22    3.7869   428.8    7.955      43.212
2015   11        4     8  29    3.7691   429.0    7.906      43.105
2015   11        4     8  36    3.7512   429.2    7.857      42.996
2015   11        4     8  43    3.7333   429.4    7.809      42.885
2015   11        4     8  50    3.7154   429.6    7.760      42.768
2015   11        4     8  57    3.6974   429.8    7.711      42.647
2015   11        4     9   4    3.6795   430.0    7.663      42.522
2015   11        4     9  11    3.6616   430.1    7.615      42.393
2015   11        4     9  17    3.6437   430.3    7.568      42.260
2015   11        4     9  24    3.6259   430.4    7.521      42.125
2015   11        4     9  31    3.6081   430.5    7.475      41.986
2015   11        4     9  38    3.5905   430.7    7.429      41.846
2015   11        4     9  45    3.5730   430.8    7.384      41.705
2015   11        4     9  52    3.5555   430.9    7.340      41.562
2015   11        4     9  59    3.5383   431.0    7.297      41.418
2015   11        4    10   5    3.5211   431.1    7.254      41.272
2015   11        4    10  12    3.5041   431.2    7.212      41.125
2015   11        4    10  19    3.4872   431.3    7.171      40.980
2015   11        4    10  26    3.4705   431.3    7.131      40.835
2015   11        4    10  33    3.4540   431.4    7.091      40.692
2015   11        4    10  40    3.4375   431.5    7.052      40.549
2015   11        4    10  47    3.4212   431.5    7.014      40.407
2015   11        4    10  53    3.4051   431.6    6.977      40.264
2015   11        4    11   0    3.3890   431.6    6.939      40.123
2015   11        4    11   7    3.3731   431.7    6.903      39.981
2015   11        4    11  14    3.3572   431.7    6.867      39.840
2015   11        4    11  21    3.3415   431.8    6.831      39.699
2015   11        4    11  28    3.3258   431.8    6.796      39.557
2015   11        4    11  35    3.3102   431.8    6.762      39.416
2015   11        4    11  41    3.2948   431.8    6.728      39.275
2015   11        4    11  48    3.2794   431.8    6.694      39.133
2015   11        4    11  55    3.2641   431.8    6.661      38.991
2015   11        4    12   2    3.2489   431.8    6.628      38.849
2015   11        4    12   9    3.2338   431.8    6.595      38.707
2015   11        4    12  16    3.2188   431.8    6.563      38.564
2015   11        4    12  23    3.2039   431.8    6.532      38.422
2015   11        4    12  30    3.1891   431.8    6.501      38.279
2015   11        4    12  36    3.1743   431.7    6.470      38.137
2015   11        4    12  43    3.1597   431.7    6.440      37.994
2015   11        4    12  50    3.1452   431.7    6.410      37.852
2015   11        4    12  57    3.1309   431.6    6.381      37.709
2015   11        4    13   4    3.1166   431.6    6.352      37.567
2015   11        4    13  11    3.1024   431.5    6.323      37.425
2015   11        4    13  18    3.0884   431.5    6.295      37.283
2015   11        4    13  25    3.0745   431.4    6.267      37.142
2015   11        4    13  31    3.0606   431.3    6.240      37.000
2015   11        4    13  38    3.0470   431.2    6.213      36.859
2015   11        4    13  45    3.0334   431.1    6.187      36.719
2015   11        4    13  52    3.0201   431.1    6.161      36.578
2015   11        4    13  59    3.0068   431.0    6.135      36.439
2015   11        4    14   6    2.9937   430.9    6.110      36.300
2015   11        4    14  13    2.9807   430.8    6.086      36.161
2015   11        4    14  20    2.9680   430.6    6.062      36.024
2015   11        4    14  26    2.9553   430.5    6.038      35.887
2015   11        4    14  33    2.9428   430.4    6.015      35.752
2015   11        4    14  40    2.9305   430.3    5.992      35.617
2015   11        4    14  47    2.9183   430.2    5.970      35.483
2015   11        4    14  54    2.9063   430.0    5.948      35.351
2015   11        4    15   1    2.8945   429.9    5.927      35.219
2015   11        4    15   8    2.8828   429.7    5.906      35.089
2015   11        4    15  15    2.8713   429.6    5.886      34.960
2015   11        4    15  21    2.8599   429.4    5.866      34.833
2015   11        4    15  28    2.8487   429.3    5.846      34.707
2015   11        4    15  35    2.8377   429.1    5.827      34.582
2015   11        4    15  42    2.8268   428.9    5.809      34.459
2015   11        4    15  49    2.8161   428.8    5.790      34.337
2015   11        4    15  56    2.8056   428.6    5.773      34.217
2015   11        4    16   3    2.7951   428.4    5.755      34.099
2015   11        4    16   9    2.7849   428.3    5.738      33.982
2015   11        4    16  16    2.7748   428.1    5.721      33.867
2015   11        4    16  23    2.7649   427.9    5.705      33.753
2015   11        4    16  30    2.7551   427.7    5.689      33.641
2015   11        4    16  37    2.7454   427.6    5.673      33.530
2015   11        4    16  44    2.7359   427.4    5.658      33.421
2015   11        4    16  51    2.7265   427.2    5.643      33.313
2015   11        4    16  58    2.7173   427.0    5.628      33.208
2015   11        4    17   4    2.7082   426.8    5.614      33.103
2015   11        4    17  11    2.6992   426.6    5.600      33.000
2015   11        4    17  18    2.6904   426.4    5.586      32.898
2015   11        4    17  25    2.6816   426.2    5.573      32.797
2015   11        4    17  32    2.6730   425.9    5.559      32.698
2015   11        4    17  39    2.6645   425.7    5.547      32.599
2015   11        4    17  46    2.6561   425.5    5.534      32.501
2015   11        4    17  52    2.6478   425.3    5.521      32.404
2015   11        4    17  59    2.6397   425.1    5.509      32.307
2015   11        4    18   6    2.6315   424.8    5.498      32.210
2015   11        4    18  13    2.6236   424.6    5.486      32.114
2015   11        4    18  20    2.6157   424.3    5.475      32.018
2015   11        4    18  27    2.6079   424.1    5.465      31.923
2015   11        4    18  34    2.6002   423.9    5.454      31.829
2015   11        4    18  40    2.5926   423.6    5.444      31.735
2015   11        4    18  47    2.5850   423.4    5.434      31.641
2015   11        4    18  54    2.5775   423.2    5.424      31.548
2015   11        4    19   1    2.5701   423.0    5.414      31.455
2015   11        4    19   8    2.5628   422.7    5.405      31.363
2015   11        4    19  15    2.5555   422.5    5.395      31.271
2015   11        4    19  22    2.5483   422.3    5.386      31.180
2015   11        4    19  28    2.5412   422.1    5.377      31.089
2015   11        4    19  35    2.5341   421.8    5.367      30.999
2015   11        4    19  42    2.5271   421.6    5.358      30.909
2015   11        4    19  49    2.5202   421.4    5.349      30.819
2015   11        4    19  56    2.5133   421.2    5.340      30.730
2015   11        4    20   3    2.5065   420.9    5.332      30.642
2015   11        4    20  10    2.4997   420.7    5.323      30.554
2015   11        4    20  17    2.4930   420.5    5.314      30.467
2015   11        4    20  23    2.4863   420.3    5.305      30.381
2015   11        4    20  30    2.4797   420.1    5.296      30.294
2015   11        4    20  37    2.4731   419.9    5.287      30.208
2015   11        4    20  44    2.4666   419.6    5.278      30.122
2015   11        4    20  51    2.4602   419.4    5.269      30.037
2015   11        4    20  58    2.4538   419.2    5.260      29.952
2015   11        4    21   5    2.4474   419.0    5.251      29.868
2015   11        4    21  12    2.4412   418.7    5.242      29.784
2015   11        4    21  18    2.4350   418.5    5.233      29.700
2015   11        4    21  25    2.4288   418.3    5.224      29.617
2015   11        4    21  32    2.4228   418.1    5.215      29.535
2015   11        4    21  39    2.4168   417.8    5.206      29.453
2015   11        4    21  46    2.4108   417.6    5.198      29.372
2015   11        4    21  53    2.4050   417.4    5.189      29.291
2015   11        4    22   0    2.3992   417.2    5.181      29.211
2015   11        4    22   7    2.3935   416.9    5.172      29.132
2015   11        4    22  13    2.3878   416.7    5.164      29.053
2015   11        4    22  20    2.3823   416.5    5.156      28.975
2015   11        4    22  27    2.3768   416.2    5.147      28.898
2015   11        4    22  34    2.3714   416.0    5.139      28.822
2015   11        4    22  41    2.3661   415.8    5.131      28.746
2015   11        4    22  48    2.3608   415.5    5.123      28.671
2015   11        4    22  55    2.3556   415.3    5.116      28.597
2015   11        4    23   2    2.3506   415.0    5.108      28.523
2015   11        4    23   8    2.3455   414.8    5.101      28.451
2015   11        4    23  15    2.3406   414.5    5.093      28.379
2015   11        4    23  22    2.3357   414.3    5.086      28.308
2015   11        4    23  29    2.3310   414.0    5.079      28.237
2015   11        4    23  36    2.3263   413.7    5.072      28.167
2015   11        4    23  43    2.3217   413.5    5.065      28.096
2015   11        4    23  50    2.3171   413.2    5.058      28.026
2015   11        4    23  56    2.3127   412.9    5.052      27.956
2015   11        5     0   3    2.3083   412.6    5.046      27.886
2015   11        5     0  10    2.3040   412.3    5.040      27.816
2015   11        5     0  17    2.2997   412.0    5.034      27.745
2015   11        5     0  24    2.2955   411.7    5.029      27.674
2015   11        5     0  31    2.2913   411.4    5.024      27.602
2015   11        5     0  38    2.2873   411.1    5.019      27.531
2015   11        5     0  44    2.2833   410.8    5.015      27.460
2015   11        5     0  51    2.2793   410.5    5.011      27.390
2015   11        5     0  58    2.2755   410.2    5.007      27.320
2015   11        5     1   5    2.2717   409.9    5.004      27.250
2015   11        5     1  12    2.2679   409.6    5.001      27.180
2015   11        5     1  19    2.2642   409.3    4.998      27.111
2015   11        5     1  26    2.2605   409.0    4.995      27.043
2015   11        5     1  33    2.2569   408.7    4.992      26.974
2015   11        5     1  39    2.2532   408.4    4.989      26.907
2015   11        5     1  46    2.2497   408.1    4.987      26.840
2015   11        5     1  53    2.2461   407.8    4.984      26.773
2015   11        5     2   0    2.2426   407.5    4.982      26.706
2015   11        5     2   7    2.2391   407.3    4.980      26.641
2015   11        5     2  14    2.2356   407.0    4.977      26.575
2015   11        5     2  21    2.2322   406.7    4.975      26.511
2015   11        5     2  27    2.2288   406.4    4.972      26.447
2015   11        5     2  34    2.2254   406.2    4.970      26.383
2015   11        5     2  41    2.2220   405.9    4.967      26.320
2015   11        5     2  48    2.2186   405.6    4.964      26.256
2015   11        5     2  55    2.2153   405.3    4.961      26.193
2015   11        5     3   2    2.2119   405.1    4.959      26.130
2015   11        5     3   9    2.2086   404.8    4.956      26.068
2015   11        5     3  15    2.2054   404.5    4.953      26.005
2015   11        5     3  22    2.2021   404.2    4.950      25.943
2015   11        5     3  29    2.1989   403.9    4.947      25.881
2015   11        5     3  36    2.1957   403.7    4.945      25.819
2015   11        5     3  43    2.1926   403.4    4.942      25.758
2015   11        5     3  50    2.1894   403.1    4.939      25.696
2015   11        5     3  57    2.1864   402.8    4.937      25.636
2015   11        5     4   4    2.1833   402.5    4.934      25.575
2015   11        5     4  10    2.1803   402.3    4.932      25.515
2015   11        5     4  17    2.1773   402.0    4.930      25.456
2015   11        5     4  24    2.1744   401.7    4.927      25.397
2015   11        5     4  31    2.1715   401.4    4.925      25.338
2015   11        5     4  38    2.1686   401.1    4.923      25.280
2015   11        5     4  45    2.1658   400.8    4.921      25.223
2015   11        5     4  52    2.1630   400.6    4.919      25.165
2015   11        5     4  59    2.1603   400.3    4.917      25.109
2015   11        5     5   5    2.1576   400.0    4.916      25.053
2015   11        5     5  12    2.1550   399.7    4.914      24.997
2015   11        5     5  19    2.1524   399.4    4.912      24.943
2015   11        5     5  26    2.1498   399.1    4.911      24.889
2015   11        5     5  33    2.1473   398.8    4.909      24.835
2015   11        5     5  40    2.1448   398.5    4.908      24.782
2015   11        5     5  47    2.1424   398.2    4.907      24.730
2015   11        5     5  54    2.1400   397.9    4.905      24.678
2015   11        5     6   0    2.1377   397.6    4.904      24.626
2015   11        5     6   7    2.1354   397.4    4.903      24.575
2015   11        5     6  14    2.1331   397.1    4.901      24.524
2015   11        5     6  21    2.1309   396.8    4.900      24.473
2015   11        5     6  28    2.1287   396.5    4.899      24.423
2015   11        5     6  35    2.1265   396.2    4.897      24.373
2015   11        5     6  42    2.1244   395.9    4.896      24.323
2015   11        5     6  49    2.1223   395.6    4.895      24.273
2015   11        5     6  55    2.1202   395.3    4.893      24.223
2015   11        5     7   2    2.1182   395.0    4.892      24.173
2015   11        5     7   9    2.1162   394.7    4.891      24.123
2015   11        5     7  16    2.1143   394.4    4.890      24.073
2015   11        5     7  23    2.1123   394.1    4.888      24.023
2015   11        5     7  30    2.1104   393.8    4.887      23.973
2015   11        5     7  37    2.1086   393.5    4.886      23.923
2015   11        5     7  43    2.1067   393.2    4.885      23.873
2015   11        5     7  50    2.1049   392.9    4.884      23.823
2015   11        5     7  57    2.1031   392.6    4.883      23.773
2015   11        5     8   4    2.1013   392.3    4.882      23.724
2015   11        5     8  11    2.0996   391.9    4.881      23.674
2015   11        5     8  18    2.0979   391.6    4.880      23.625
2015   11        5     8  25    2.0962   391.3    4.879      23.576
2015   11        5     8  31    2.0945   391.0    4.878      23.527
2015   11        5     8  38    2.0929   390.7    4.878      23.479
2015   11        5     8  45    2.0913   390.4    4.877      23.431
2015   11        5     8  52    2.0897   390.1    4.877      23.383
2015   11        5     8  59    2.0882   389.8    4.876      23.336
2015   11        5     9   6    2.0867   389.5    4.876      23.289
2015   11        5     9  13    2.0852   389.2    4.876      23.243
2015   11        5     9  19    2.0838   388.9    4.876      23.197
2015   11        5     9  26    2.0823   388.6    4.876      23.151
2015   11        5     9  33    2.0809   388.3    4.876      23.105
2015   11        5     9  40    2.0795   388.0    4.876      23.060
2015   11        5     9  47    2.0781   387.7    4.876      23.016
2015   11        5     9  54    2.0768   387.4    4.877      22.971
2015   11        5    10   1    2.0754   387.1    4.877      22.927
2015   11        5    10   8    2.0741   386.8    4.877      22.883
2015   11        5    10  14    2.0727   386.5    4.878      22.839
2015   11        5    10  21    2.0714   386.2    4.878      22.795
2015   11        5    10  28    2.0701   385.9    4.878      22.751
2015   11        5    10  35    2.0688   385.6    4.879      22.708
2015   11        5    10  42    2.0675   385.3    4.879      22.664
2015   11        5    10  49    2.0662   385.0    4.880      22.621
2015   11        5    10  56    2.0649   384.7    4.880      22.577
2015   11        5    11   2    2.0636   384.4    4.881      22.534
2015   11        5    11   9    2.0624   384.1    4.881      22.490
2015   11        5    11  16    2.0611   383.8    4.882      22.447
2015   11        5    11  23    2.0598   383.5    4.882      22.404
2015   11        5    11  30    2.0586   383.2    4.883      22.360
2015   11        5    11  37    2.0573   382.9    4.883      22.317
2015   11        5    11  44    2.0561   382.6    4.884      22.274
2015   11        5    11  51    2.0549   382.3    4.884      22.231
2015   11        5    11  57    2.0537   381.9    4.884      22.188
2015   11        5    12   4    2.0524   381.6    4.885      22.145
2015   11        5    12  11    2.0513   381.3    4.885      22.103
2015   11        5    12  18    2.0501   381.0    4.886      22.060
2015   11        5    12  25    2.0489   380.7    4.886      22.018
2015   11        5    12  32    2.0478   380.4    4.887      21.976
2015   11        5    12  39    2.0467   380.1    4.888      21.934
2015   11        5    12  46    2.0456   379.8    4.888      21.892
2015   11        5    12  52    2.0445   379.5    4.889      21.851
2015   11        5    12  59    2.0434   379.2    4.890      21.809
2015   11        5    13   6    2.0424   378.9    4.891      21.769
2015   11        5    13  13    2.0414   378.6    4.891      21.728
2015   11        5    13  20    2.0404   378.3    4.892      21.687
2015   11        5    13  27    2.0394   378.0    4.893      21.647
2015   11        5    13  34    2.0385   377.7    4.894      21.607
2015   11        5    13  41    2.0375   377.4    4.895      21.567
2015   11        5    13  47    2.0367   377.1    4.896      21.528
2015   11        5    13  54    2.0358   376.8    4.898      21.489
2015   11        5    14   1    2.0349   376.5    4.899      21.450
2015   11        5    14   8    2.0341   376.1    4.900      21.411
2015   11        5    14  15    2.0334   375.8    4.901      21.373
2015   11        5    14  22    2.0326   375.5    4.903      21.334
2015   11        5    14  29    2.0319   375.2    4.904      21.297
2015   11        5    14  35    2.0313   374.9    4.906      21.259
2015   11        5    14  42    2.0306   374.6    4.907      21.221
2015   11        5    14  49    2.0300   374.3    4.909      21.183
2015   11        5    14  56    2.0295   374.0    4.910      21.146
2015   11        5    15   3    2.0290   373.6    4.912      21.109
2015   11        5    15  10    2.0285   373.3    4.914      21.072
2015   11        5    15  17    2.0280   373.0    4.916      21.036
2015   11        5    15  24    2.0277   372.7    4.917      20.999
2015   11        5    15  30    2.0273   372.4    4.919      20.963
2015   11        5    15  37    2.0270   372.1    4.922      20.927
2015   11        5    15  44    2.0268   371.8    4.924      20.891
2015   11        5    15  51    2.0265   371.4    4.926      20.856
2015   11        5    15  58    2.0264   371.1    4.929      20.821
2015   11        5    16   5    2.0263   370.8    4.932      20.786
2015   11        5    16  12    2.0262   370.5    4.934      20.751
2015   11        5    16  18    2.0261   370.2    4.937      20.717
2015   11        5    16  25    2.0262   369.9    4.940      20.683
2015   11        5    16  32    2.0262   369.6    4.944      20.650
2015   11        5    16  39    2.0263   369.2    4.947      20.617
2015   11        5    16  46    2.0265   368.9    4.951      20.584
2015   11        5    16  53    2.0267   368.6    4.954      20.552
2015   11        5    17   0    2.0269   368.3    4.958      20.520
2015   11        5    17   6    2.0272   368.0    4.962      20.489
2015   11        5    17  13    2.0275   367.7    4.967      20.458
2015   11        5    17  20    2.0278   367.4    4.971      20.427
2015   11        5    17  27    2.0282   367.1    4.975      20.397
2015   11        5    17  34    2.0286   366.7    4.980      20.367
2015   11        5    17  41    2.0290   366.4    4.985      20.338
2015   11        5    17  48    2.0295   366.1    4.990      20.309
2015   11        5    17  55    2.0300   365.8    4.995      20.280
2015   11        5    18   1    2.0305   365.5    5.000      20.252
2015   11        5    18   8    2.0311   365.2    5.005      20.224
2015   11        5    18  15    2.0316   364.9    5.011      20.196
2015   11        5    18  22    2.0322   364.6    5.016      20.169
2015   11        5    18  29    2.0328   364.3    5.022      20.142
2015   11        5    18  36    2.0334   364.0    5.028      20.115
2015   11        5    18  43    2.0340   363.7    5.033      20.089
2015   11        5    18  50    2.0347   363.3    5.039      20.063
2015   11        5    18  56    2.0353   363.0    5.045      20.036
2015   11        5    19   3    2.0360   362.7    5.051      20.011
2015   11        5    19  10    2.0366   362.4    5.057      19.985
2015   11        5    19  17    2.0373   362.1    5.063      19.960
2015   11        5    19  24    2.0380   361.8    5.070      19.934
2015   11        5    19  31    2.0387   361.5    5.076      19.910
2015   11        5    19  38    2.0395   361.2    5.082      19.884
2015   11        5    19  45    2.0402   360.9    5.088      19.860
2015   11        5    19  51    2.0410   360.6    5.095      19.835
2015   11        5    19  58    2.0417   360.3    5.101      19.811
2015   11        5    20   5    2.0425   360.0    5.108      19.786
2015   11        5    20  12    2.0434   359.6    5.114      19.762
2015   11        5    20  19    2.0442   359.3    5.121      19.738
2015   11        5    20  26    2.0451   359.0    5.127      19.714
2015   11        5    20  33    2.0460   358.7    5.134      19.690
2015   11        5    20  39    2.0469   358.4    5.141      19.667
2015   11        5    20  46    2.0479   358.1    5.147      19.643
2015   11        5    20  53    2.0488   357.8    5.154      19.620
2015   11        5    21   0    2.0499   357.5    5.161      19.597
2015   11        5    21   7    2.0509   357.2    5.168      19.574
2015   11        5    21  14    2.0520   356.8    5.175      19.551
2015   11        5    21  21    2.0532   356.5    5.182      19.528
2015   11        5    21  28    2.0544   356.2    5.190      19.506
2015   11        5    21  34    2.0556   355.9    5.197      19.483
2015   11        5    21  41    2.0568   355.6    5.204      19.461
2015   11        5    21  48    2.0581   355.3    5.212      19.439
2015   11        5    21  55    2.0595   355.0    5.219      19.417
2015   11        5    22   2    2.0608   354.7    5.227      19.396
2015   11        5    22   9    2.0623   354.4    5.235      19.374
2015   11        5    22  16    2.0638   354.1    5.243      19.353
2015   11        5    22  22    2.0653   353.8    5.251      19.332
2015   11        5    22  29    2.0669   353.4    5.259      19.311
2015   11        5    22  36    2.0685   353.1    5.267      19.290
2015   11        5    22  43    2.0702   352.8    5.276      19.270
2015   11        5    22  50    2.0719   352.5    5.284      19.250
2015   11        5    22  57    2.0737   352.2    5.293      19.230
2015   11        5    23   4    2.0755   351.9    5.302      19.210
2015   11        5    23  10    2.0774   351.6    5.311      19.191
2015   11        5    23  17    2.0794   351.3    5.321      19.171
2015   11        5    23  24    2.0814   351.0    5.330      19.152
2015   11        5    23  31    2.0834   350.7    5.340      19.134
2015   11        5    23  38    2.0855   350.4    5.350      19.116
2015   11        5    23  45    2.0877   350.1    5.360      19.098
2015   11        5    23  52    2.0899   349.8    5.370      19.081
2015   11        5    23  59    2.0922   349.5    5.380      19.063
2015   11        6     0   5    2.0946   349.2    5.391      19.047
2015   11        6     0  12    2.0970   348.9    5.402      19.030
2015   11        6     0  19    2.0995   348.6    5.413      19.014
2015   11        6     0  26    2.1020   348.3    5.424      18.998
2015   11        6     0  33    2.1046   348.0    5.436      18.983
2015   11        6     0  40    2.1073   347.7    5.448      18.968
2015   11        6     0  47    2.1099   347.4    5.460      18.954
2015   11        6     0  53    2.1127   347.1    5.472      18.940
2015   11        6     1   0    2.1156   346.8    5.485      18.927
2015   11        6     1   7    2.1185   346.5    5.497      18.914
2015   11        6     1  14    2.1214   346.2    5.511      18.901
2015   11        6     1  21    2.1245   345.9    5.524      18.889
2015   11        6     1  28    2.1276   345.7    5.538      18.878
2015   11        6     1  35    2.1307   345.4    5.551      18.867
2015   11        6     1  42    2.1339   345.1    5.566      18.857
2015   11        6     1  48    2.1372   344.8    5.580      18.847
2015   11        6     1  55    2.1406   344.5    5.595      18.837
2015   11        6     2   2    2.1440   344.2    5.610      18.829
2015   11        6     2   9    2.1475   344.0    5.625      18.820
2015   11        6     2  16    2.1510   343.7    5.641      18.813
2015   11        6     2  23    2.1546   343.4    5.656      18.806
2015   11        6     2  30    2.1583   343.1    5.672      18.799
2015   11        6     2  37    2.1620   342.9    5.689      18.793
2015   11        6     2  43    2.1658   342.6    5.705      18.788
2015   11        6     2  50    2.1696   342.3    5.722      18.783
2015   11        6     2  57    2.1735   342.1    5.739      18.779
2015   11        6     3   4    2.1775   341.8    5.757      18.775
2015   11        6     3  11    2.1816   341.5    5.774      18.772
2015   11        6     3  18    2.1857   341.3    5.792      18.769
2015   11        6     3  25    2.1898   341.0    5.810      18.767
2015   11        6     3  32    2.1941   340.8    5.829      18.766
2015   11        6     3  38    2.1984   340.5    5.847      18.765
2015   11        6     3  45    2.2027   340.2    5.866      18.765
2015   11        6     3  52    2.2072   340.0    5.886      18.765
2015   11        6     3  59    2.2117   339.7    5.905      18.766
2015   11        6     4   6    2.2163   339.5    5.925      18.767
2015   11        6     4  13    2.2209   339.2    5.945      18.769
2015   11        6     4  20    2.2256   339.0    5.965      18.772
2015   11        6     4  26    2.2304   338.7    5.985      18.775
2015   11        6     4  33    2.2353   338.5    6.006      18.779
2015   11        6     4  40    2.2402   338.3    6.027      18.783
2015   11        6     4  47    2.2452   338.0    6.048      18.788
2015   11        6     4  54    2.2503   337.8    6.069      18.794
2015   11        6     5   1    2.2555   337.6    6.091      18.800
2015   11        6     5   8    2.2607   337.3    6.113      18.806
2015   11        6     5  15    2.2660   337.1    6.135      18.814
2015   11        6     5  21    2.2714   336.9    6.157      18.821
2015   11        6     5  28    2.2768   336.6    6.180      18.830
2015   11        6     5  35    2.2823   336.4    6.203      18.838
2015   11        6     5  42    2.2879   336.2    6.226      18.848
2015   11        6     5  49    2.2936   336.0    6.249      18.858
2015   11        6     5  56    2.2993   335.8    6.273      18.868
2015   11        6     6   3    2.3051   335.6    6.296      18.879
2015   11        6     6   9    2.3110   335.3    6.320      18.890
2015   11        6     6  16    2.3169   335.1    6.344      18.902
2015   11        6     6  23    2.3229   334.9    6.369      18.914
2015   11        6     6  30    2.3289   334.7    6.393      18.926
2015   11        6     6  37    2.3350   334.5    6.418      18.939
2015   11        6     6  44    2.3412   334.3    6.443      18.952
2015   11        6     6  51    2.3474   334.1    6.468      18.966
2015   11        6     6  57    2.3537   333.9    6.493      18.980
2015   11        6     7   4    2.3600   333.7    6.518      18.994
2015   11        6     7  11    2.3664   333.5    6.543      19.008
2015   11        6     7  18    2.3728   333.3    6.569      19.023
2015   11        6     7  25    2.3793   333.2    6.595      19.038
2015   11        6     7  32    2.3858   333.0    6.620      19.053
2015   11        6     7  39    2.3924   332.8    6.646      19.069
2015   11        6     7  45    2.3991   332.6    6.672      19.085
2015   11        6     7  52    2.4057   332.4    6.699      19.101
2015   11        6     7  59    2.4125   332.2    6.725      19.117
2015   11        6     8   6    2.4193   332.0    6.751      19.134
2015   11        6     8  13    2.4261   331.9    6.778      19.151
2015   11        6     8  20    2.4330   331.7    6.804      19.169
2015   11        6     8  27    2.4399   331.5    6.831      19.186
2015   11        6     8  34    2.4469   331.3    6.858      19.204
2015   11        6     8  40    2.4540   331.1    6.885      19.222
2015   11        6     8  47    2.4610   331.0    6.912      19.241
2015   11        6     8  54    2.4682   330.8    6.939      19.260
2015   11        6     9   1    2.4754   330.6    6.967      19.279
2015   11        6     9   8    2.4826   330.5    6.995      19.298
2015   11        6     9  15    2.4899   330.3    7.022      19.318
2015   11        6     9  22    2.4973   330.1    7.050      19.338
2015   11        6     9  29    2.5047   330.0    7.078      19.358
2015   11        6     9  35    2.5122   329.8    7.107      19.379
2015   11        6     9  42    2.5196   329.7    7.135      19.400
2015   11        6     9  49    2.5272   329.5    7.163      19.421
2015   11        6     9  56    2.5348   329.4    7.192      19.443
2015   11        6    10   3    2.5425   329.2    7.221      19.466
2015   11        6    10  10    2.5502   329.1    7.250      19.488
2015   11        6    10  17    2.5579   328.9    7.279      19.512
2015   11        6    10  24    2.5657   328.8    7.308      19.535
2015   11        6    10  30    2.5736   328.6    7.337      19.560
2015   11        6    10  37    2.5814   328.5    7.366      19.584
2015   11        6    10  44    2.5893   328.3    7.395      19.609
2015   11        6    10  51    2.5973   328.2    7.425      19.634
2015   11        6    10  58    2.6052   328.1    7.454      19.660
2015   11        6    11   5    2.6132   328.0    7.484      19.687
2015   11        6    11  12    2.6213   327.8    7.513      19.713
2015   11        6    11  19    2.6294   327.7    7.543      19.740
2015   11        6    11  25    2.6375   327.6    7.573      19.768
2015   11        6    11  32    2.6456   327.5    7.603      19.796
2015   11        6    11  39    2.6538   327.3    7.633      19.824
2015   11        6    11  46    2.6620   327.2    7.663      19.852
2015   11        6    11  53    2.6702   327.1    7.693      19.880
2015   11        6    12   0    2.6784   327.0    7.723      19.909
2015   11        6    12   7    2.6867   326.9    7.754      19.938
2015   11        6    12  13    2.6950   326.8    7.784      19.967
2015   11        6    12  20    2.7033   326.7    7.815      19.997
2015   11        6    12  27    2.7117   326.6    7.846      20.026
2015   11        6    12  34    2.7201   326.5    7.877      20.056
2015   11        6    12  41    2.7285   326.4    7.908      20.086
2015   11        6    12  48    2.7369   326.3    7.939      20.116
2015   11        6    12  55    2.7454   326.2    7.970      20.146
2015   11        6    13   1    2.7538   326.1    8.001      20.176
2015   11        6    13   8    2.7623   326.0    8.033      20.206
2015   11        6    13  15    2.7708   325.9    8.064      20.236
2015   11        6    13  22    2.7793   325.8    8.096      20.267
2015   11        6    13  29    2.7879   325.7    8.128      20.297
2015   11        6    13  36    2.7964   325.6    8.160      20.328
2015   11        6    13  43    2.8050   325.5    8.192      20.358
2015   11        6    13  50    2.8135   325.4    8.224      20.389
2015   11        6    13  56    2.8221   325.4    8.256      20.420
2015   11        6    14   3    2.8307   325.3    8.288      20.451
2015   11        6    14  10    2.8393   325.2    8.320      20.483
2015   11        6    14  17    2.8478   325.1    8.352      20.514
2015   11        6    14  24    2.8564   325.1    8.384      20.547
2015   11        6    14  31    2.8649   325.0    8.416      20.579
2015   11        6    14  38    2.8735   324.9    8.448      20.611
2015   11        6    14  44    2.8820   324.8    8.479      20.645
2015   11        6    14  51    2.8905   324.8    8.511      20.678
2015   11        6    14  58    2.8990   324.7    8.542      20.711
2015   11        6    15   5    2.9075   324.6    8.573      20.745
2015   11        6    15  12    2.9160   324.6    8.604      20.780
2015   11        6    15  19    2.9245   324.5    8.634      20.814
2015   11        6    15  26    2.9329   324.4    8.665      20.849
2015   11        6    15  32    2.9414   324.4    8.695      20.883
2015   11        6    15  39    2.9498   324.3    8.725      20.918
2015   11        6    15  46    2.9583   324.2    8.755      20.953
2015   11        6    15  53    2.9667   324.2    8.785      20.988
2015   11        6    16   0    2.9751   324.1    8.815      21.023
2015   11        6    16   7    2.9835   324.1    8.844      21.058
2015   11        6    16  14    2.9919   324.0    8.873      21.093
2015   11        6    16  21    3.0003   323.9    8.902      21.127
2015   11        6    16  27    3.0087   323.9    8.931      21.162
2015   11        6    16  34    3.0171   323.8    8.960      21.197
2015   11        6    16  41    3.0255   323.8    8.988      21.232
2015   11        6    16  48    3.0338   323.7    9.016      21.266
2015   11        6    16  55    3.0422   323.7    9.045      21.301
2015   11        6    17   2    3.0505   323.6    9.072      21.335
2015   11        6    17   9    3.0589   323.5    9.100      21.370
2015   11        6    17  16    3.0673   323.5    9.128      21.404
2015   11        6    17  22    3.0756   323.4    9.155      21.439
2015   11        6    17  29    3.0840   323.4    9.182      21.473
2015   11        6    17  36    3.0923   323.3    9.209      21.507
2015   11        6    17  43    3.1007   323.3    9.236      21.542
2015   11        6    17  50    3.1090   323.2    9.263      21.576
2015   11        6    17  57    3.1174   323.2    9.290      21.610
2015   11        6    18   4    3.1257   323.1    9.316      21.644
2015   11        6    18  11    3.1340   323.1    9.342      21.677
2015   11        6    18  17    3.1423   323.1    9.369      21.711
2015   11        6    18  24    3.1507   323.0    9.395      21.744
2015   11        6    18  31    3.1590   323.0    9.421      21.778
2015   11        6    18  38    3.1673   322.9    9.447      21.811
2015   11        6    18  45    3.1756   322.9    9.473      21.844
2015   11        6    18  52    3.1839   322.8    9.498      21.877
2015   11        6    18  59    3.1922   322.8    9.524      21.910
2015   11        6    19   5    3.2005   322.7    9.550      21.942
2015   11        6    19  12    3.2088   322.7    9.576      21.975
2015   11        6    19  19    3.2170   322.7    9.601      22.007
2015   11        6    19  26    3.2252   322.6    9.627      22.040
2015   11        6    19  33    3.2335   322.6    9.652      22.073
2015   11        6    19  40    3.2417   322.5    9.677      22.105
2015   11        6    19  47    3.2499   322.5    9.702      22.138
2015   11        6    19  54    3.2581   322.5    9.728      22.171
2015   11        6    20   0    3.2663   322.4    9.753      22.203
2015   11        6    20   7    3.2745   322.4    9.778      22.236
2015   11        6    20  14    3.2827   322.4    9.802      22.269
2015   11        6    20  21    3.2908   322.3    9.827      22.302
2015   11        6    20  28    3.2990   322.3    9.852      22.334
2015   11        6    20  35    3.3072   322.3    9.877      22.367
2015   11        6    20  42    3.3153   322.3    9.901      22.400
2015   11        6    20  48    3.3235   322.2    9.926      22.433
2015   11        6    20  55    3.3316   322.2    9.950      22.465
2015   11        6    21   2    3.3398   322.2    9.975      22.497
2015   11        6    21   9    3.3480   322.2   10.000      22.530
2015   11        6    21  16    3.3561   322.1   10.024      22.562
2015   11        6    21  23    3.3643   322.1   10.049      22.594
2015   11        6    21  30    3.3724   322.1   10.074      22.626
2015   11        6    21  36    3.3805   322.1   10.099      22.658
2015   11        6    21  43    3.3886   322.0   10.123      22.691
2015   11        6    21  50    3.3966   322.0   10.148      22.723
2015   11        6    21  57    3.4046   322.0   10.172      22.756
2015   11        6    22   4    3.4126   322.0   10.197      22.788
2015   11        6    22  11    3.4206   322.0   10.221      22.822
2015   11        6    22  18    3.4285   322.0   10.245      22.855
2015   11        6    22  25    3.4364   322.0   10.269      22.889
2015   11        6    22  31    3.4443   322.0   10.293      22.923
2015   11        6    22  38    3.4521   322.0   10.316      22.957
2015   11        6    22  45    3.4598   321.9   10.340      22.992
2015   11        6    22  52    3.4675   321.9   10.363      23.027
2015   11        6    22  59    3.4752   321.9   10.386      23.063
2015   11        6    23   6    3.4828   321.9   10.408      23.098
2015   11        6    23  13    3.4904   321.9   10.431      23.134
2015   11        6    23  19    3.4979   321.9   10.453      23.171
2015   11        6    23  26    3.5054   321.9   10.474      23.207
2015   11        6    23  33    3.5128   321.9   10.496      23.243
2015   11        6    23  40    3.5202   321.9   10.518      23.279
2015   11        6    23  47    3.5276   321.9   10.539      23.315
2015   11        6    23  54    3.5350   321.9   10.560      23.351
2015   11        7     0   1    3.5423   321.9   10.581      23.387
2015   11        7     0   8    3.5496   321.9   10.601      23.423
2015   11        7     0  14    3.5568   321.9   10.622      23.458
2015   11        7     0  21    3.5641   321.9   10.642      23.494
2015   11        7     0  28    3.5713   321.9   10.662      23.529
2015   11        7     0  35    3.5785   321.9   10.683      23.563
2015   11        7     0  42    3.5857   321.9   10.703      23.598
2015   11        7     0  49    3.5928   321.9   10.723      23.632
2015   11        7     0  56    3.6000   321.9   10.743      23.666
2015   11        7     1   3    3.6072   321.9   10.762      23.700
2015   11        7     1   9    3.6143   321.9   10.782      23.733
2015   11        7     1  16    3.6214   321.9   10.802      23.766
2015   11        7     1  23    3.6286   321.9   10.822      23.799
2015   11        7     1  30    3.6357   321.9   10.842      23.831
2015   11        7     1  37    3.6429   321.9   10.862      23.864
2015   11        7     1  44    3.6500   321.9   10.881      23.896
2015   11        7     1  51    3.6572   321.9   10.901      23.928
2015   11        7     1  58    3.6643   321.9   10.922      23.960
2015   11        7     2   4    3.6715   321.9   10.942      23.992
2015   11        7     2  11    3.6786   321.9   10.962      24.023
2015   11        7     2  18    3.6858   322.0   10.982      24.055
2015   11        7     2  25    3.6930   322.0   11.003      24.087
2015   11        7     2  32    3.7001   322.0   11.023      24.118
2015   11        7     2  39    3.7073   322.0   11.044      24.149
2015   11        7     2  46    3.7145   322.0   11.065      24.181
2015   11        7     2  52    3.7216   322.0   11.085      24.213
2015   11        7     2  59    3.7288   322.0   11.106      24.246
2015   11        7     3   6    3.7359   322.0   11.127      24.279
2015   11        7     3  13    3.7431   322.0   11.147      24.312
2015   11        7     3  20    3.7502   322.0   11.168      24.345
2015   11        7     3  27    3.7574   322.0   11.189      24.379
2015   11        7     3  34    3.7645   322.1   11.210      24.413
2015   11        7     3  40    3.7717   322.1   11.230      24.447
2015   11        7     3  47    3.7788   322.1   11.251      24.481
2015   11        7     3  54    3.7858   322.1   11.271      24.516
2015   11        7     4   1    3.7929   322.1   11.292      24.550
2015   11        7     4   8    3.7999   322.1   11.312      24.586
2015   11        7     4  15    3.8069   322.1   11.332      24.621
2015   11        7     4  22    3.8139   322.2   11.352      24.657
2015   11        7     4  29    3.8208   322.2   11.371      24.693
2015   11        7     4  35    3.8277   322.2   11.391      24.729
2015   11        7     4  42    3.8346   322.2   11.410      24.765
2015   11        7     4  49    3.8414   322.3   11.429      24.801
2015   11        7     4  56    3.8481   322.3   11.448      24.837
2015   11        7     5   3    3.8548   322.3   11.467      24.873
2015   11        7     5  10    3.8615   322.3   11.485      24.909
2015   11        7     5  17    3.8681   322.3   11.503      24.945
2015   11        7     5  23    3.8746   322.4   11.521      24.981
2015   11        7     5  30    3.8811   322.4   11.539      25.016
2015   11        7     5  37    3.8875   322.4   11.556      25.052
2015   11        7     5  44    3.8939   322.5   11.573      25.088
2015   11        7     5  51    3.9002   322.5   11.590      25.123
2015   11        7     5  58    3.9064   322.5   11.606      25.159
2015   11        7     6   5    3.9127   322.5   11.623      25.194
2015   11        7     6  11    3.9188   322.6   11.638      25.229
2015   11        7     6  18    3.9249   322.6   11.654      25.263
2015   11        7     6  25    3.9310   322.6   11.669      25.298
2015   11        7     6  32    3.9371   322.7   11.684      25.332
2015   11        7     6  39    3.9431   322.7   11.699      25.366
2015   11        7     6  46    3.9490   322.7   11.714      25.400
2015   11        7     6  53    3.9550   322.8   11.728      25.434
2015   11        7     7   0    3.9609   322.8   11.742      25.467
2015   11        7     7   6    3.9667   322.8   11.756      25.500
2015   11        7     7  13    3.9726   322.9   11.770      25.533
2015   11        7     7  20    3.9784   322.9   11.784      25.565
2015   11        7     7  27    3.9842   322.9   11.797      25.597
2015   11        7     7  34    3.9900   323.0   11.811      25.629
2015   11        7     7  41    3.9957   323.0   11.824      25.660
2015   11        7     7  48    4.0015   323.0   11.837      25.692
2015   11        7     7  55    4.0072   323.1   11.850      25.722
2015   11        7     8   1    4.0129   323.1   11.863      25.753
2015   11        7     8   8    4.0186   323.1   11.876      25.783
2015   11        7     8  15    4.0243   323.2   11.889      25.813
2015   11        7     8  22    4.0300   323.2   11.901      25.842
2015   11        7     8  29    4.0357   323.2   11.914      25.872
2015   11        7     8  36    4.0414   323.3   11.927      25.901
2015   11        7     8  43    4.0471   323.3   11.939      25.930
2015   11        7     8  50    4.0528   323.3   11.952      25.958
2015   11        7     8  56    4.0585   323.4   11.965      25.987
2015   11        7     9   3    4.0642   323.4   11.978      26.015
2015   11        7     9  10    4.0700   323.5   11.990      26.043
2015   11        7     9  17    4.0757   323.5   12.003      26.072
2015   11        7     9  24    4.0815   323.5   12.016      26.099
2015   11        7     9  31    4.0873   323.6   12.029      26.128
2015   11        7     9  38    4.0931   323.6   12.043      26.155
2015   11        7     9  44    4.0990   323.6   12.056      26.183
2015   11        7     9  51    4.1048   323.7   12.070      26.211
2015   11        7     9  58    4.1107   323.7   12.084      26.239
2015   11        7    10   5    4.1167   323.8   12.098      26.267
2015   11        7    10  12    4.1227   323.8   12.112      26.295
2015   11        7    10  19    4.1287   323.8   12.127      26.323
2015   11        7    10  26    4.1347   323.9   12.141      26.352
2015   11        7    10  33    4.1408   323.9   12.156      26.381
2015   11        7    10  39    4.1469   324.0   12.172      26.411
2015   11        7    10  46    4.1531   324.0   12.187      26.441
2015   11        7    10  53    4.1593   324.0   12.203      26.471
2015   11        7    11   0    4.1655   324.1   12.219      26.502
2015   11        7    11   7    4.1718   324.1   12.236      26.533
2015   11        7    11  14    4.1780   324.2   12.252      26.564
2015   11        7    11  21    4.1842   324.2   12.269      26.597
2015   11        7    11  27    4.1905   324.3   12.286      26.630
2015   11        7    11  34    4.1967   324.3   12.302      26.664
2015   11        7    11  41    4.2030   324.4   12.319      26.698
2015   11        7    11  48    4.2092   324.5   12.336      26.733
2015   11        7    11  55    4.2154   324.5   12.353      26.769
2015   11        7    12   2    4.2215   324.6   12.369      26.805
2015   11        7    12   9    4.2276   324.6   12.385      26.841
2015   11        7    12  15    4.2336   324.7   12.401      26.878
2015   11        7    12  22    4.2396   324.8   12.417      26.915
2015   11        7    12  29    4.2455   324.8   12.433      26.953
2015   11        7    12  36    4.2513   324.9   12.448      26.990
2015   11        7    12  43    4.2571   325.0   12.462      27.028
2015   11        7    12  50    4.2627   325.0   12.476      27.065
2015   11        7    12  57    4.2683   325.1   12.490      27.103
2015   11        7    13   3    4.2739   325.1   12.503      27.140
2015   11        7    13  10    4.2793   325.2   12.515      27.176
2015   11        7    13  17    4.2846   325.3   12.528      27.212
2015   11        7    13  24    4.2899   325.4   12.539      27.248
2015   11        7    13  31    4.2951   325.4   12.550      27.283
2015   11        7    13  38    4.3002   325.5   12.561      27.318
2015   11        7    13  45    4.3053   325.6   12.571      27.352
2015   11        7    13  52    4.3102   325.6   12.581      27.385
2015   11        7    13  58    4.3152   325.7   12.590      27.418
2015   11        7    14   5    4.3201   325.8   12.599      27.451
2015   11        7    14  12    4.3249   325.8   12.607      27.482
2015   11        7    14  19    4.3296   325.9   12.616      27.513
2015   11        7    14  26    4.3344   325.9   12.623      27.544
2015   11        7    14  33    4.3391   326.0   12.631      27.574
2015   11        7    14  40    4.3437   326.1   12.638      27.604
2015   11        7    14  47    4.3483   326.1   12.645      27.633
2015   11        7    14  53    4.3529   326.2   12.652      27.662
2015   11        7    15   0    4.3574   326.3   12.658      27.690
2015   11        7    15   7    4.3619   326.3   12.665      27.718
2015   11        7    15  14    4.3664   326.4   12.671      27.745
2015   11        7    15  21    4.3709   326.5   12.677      27.773
2015   11        7    15  28    4.3753   326.5   12.682      27.800
2015   11        7    15  35    4.3797   326.6   12.688      27.826
2015   11        7    15  42    4.3841   326.7   12.694      27.852
2015   11        7    15  48    4.3885   326.7   12.699      27.878
2015   11        7    15  55    4.3929   326.8   12.704      27.904
2015   11        7    16   2    4.3973   326.9   12.710      27.929
2015   11        7    16   9    4.4016   326.9   12.715      27.954
2015   11        7    16  16    4.4060   327.0   12.720      27.979
2015   11        7    16  23    4.4103   327.1   12.725      28.004
2015   11        7    16  30    4.4147   327.1   12.730      28.029
2015   11        7    16  37    4.4190   327.2   12.735      28.053
2015   11        7    16  43    4.4234   327.2   12.741      28.078
2015   11        7    16  50    4.4277   327.3   12.746      28.102
2015   11        7    16  57    4.4321   327.4   12.751      28.126
2015   11        7    17   4    4.4365   327.4   12.756      28.150
2015   11        7    17  11    4.4409   327.5   12.762      28.174
2015   11        7    17  18    4.4452   327.6   12.767      28.198
2015   11        7    17  25    4.4497   327.6   12.773      28.222
2015   11        7    17  31    4.4541   327.7   12.779      28.246
2015   11        7    17  38    4.4586   327.8   12.785      28.270
2015   11        7    17  45    4.4631   327.8   12.791      28.294
2015   11        7    17  52    4.4677   327.9   12.798      28.319
2015   11        7    17  59    4.4722   328.0   12.804      28.343
2015   11        7    18   6    4.4769   328.0   12.812      28.367
2015   11        7    18  13    4.4815   328.1   12.819      28.392
2015   11        7    18  19    4.4862   328.2   12.827      28.418
2015   11        7    18  26    4.4909   328.2   12.835      28.443
2015   11        7    18  33    4.4957   328.3   12.843      28.470
2015   11        7    18  40    4.5004   328.4   12.852      28.496
2015   11        7    18  47    4.5053   328.5   12.861      28.523
2015   11        7    18  54    4.5101   328.5   12.870      28.550
2015   11        7    19   1    4.5150   328.6   12.879      28.578
2015   11        7    19   7    4.5199   328.7   12.889      28.607
2015   11        7    19  14    4.5248   328.8   12.899      28.636
2015   11        7    19  21    4.5298   328.8   12.910      28.665
2015   11        7    19  28    4.5347   328.9   12.921      28.695
2015   11        7    19  35    4.5396   329.0   12.931      28.725
2015   11        7    19  42    4.5445   329.1   12.942      28.756
2015   11        7    19  49    4.5494   329.2   12.953      28.788
2015   11        7    19  56    4.5543   329.3   12.964      28.821
2015   11        7    20   2    4.5591   329.4   12.975      28.854
2015   11        7    20   9    4.5639   329.4   12.986      28.887
2015   11        7    20  16    4.5687   329.5   12.997      28.921
2015   11        7    20  23    4.5735   329.6   13.008      28.954
2015   11        7    20  30    4.5781   329.7   13.019      28.988
2015   11        7    20  37    4.5828   329.8   13.029      29.022
2015   11        7    20  44    4.5874   329.9   13.039      29.056
2015   11        7    20  50    4.5919   330.0   13.049      29.090
2015   11        7    20  57    4.5963   330.1   13.059      29.124
2015   11        7    21   4    4.6007   330.2   13.068      29.158
2015   11        7    21  11    4.6051   330.3   13.078      29.192
2015   11        7    21  18    4.6094   330.4   13.086      29.227
2015   11        7    21  25    4.6136   330.5   13.094      29.261
2015   11        7    21  32    4.6177   330.6   13.102      29.295
2015   11        7    21  39    4.6218   330.7   13.110      29.328
2015   11        7    21  45    4.6259   330.8   13.117      29.361
2015   11        7    21  52    4.6298   330.9   13.123      29.394
2015   11        7    21  59    4.6338   331.0   13.130      29.426
2015   11        7    22   6    4.6376   331.1   13.136      29.458
2015   11        7    22  13    4.6414   331.1   13.141      29.489
2015   11        7    22  20    4.6452   331.2   13.146      29.521
2015   11        7    22  27    4.6489   331.3   13.150      29.552
2015   11        7    22  34    4.6525   331.4   13.154      29.582
2015   11        7    22  40    4.6561   331.5   13.158      29.612
2015   11        7    22  47    4.6597   331.6   13.162      29.641
2015   11        7    22  54    4.6632   331.7   13.165      29.669
2015   11        7    23   1    4.6667   331.8   13.167      29.698
2015   11        7    23   8    4.6702   331.9   13.170      29.725
2015   11        7    23  15    4.6736   332.0   13.172      29.752
2015   11        7    23  22    4.6770   332.1   13.174      29.779
2015   11        7    23  29    4.6804   332.2   13.175      29.805
2015   11        7    23  35    4.6837   332.3   13.177      29.831
2015   11        7    23  42    4.6870   332.4   13.178      29.856
2015   11        7    23  49    4.6903   332.5   13.179      29.881
2015   11        7    23  56    4.6936   332.6   13.180      29.906
2015   11        8     0   3    4.6969   332.6   13.180      29.930
2015   11        8     0  10    4.7001   332.7   13.181      29.954
2015   11        8     0  17    4.7034   332.8   13.181      29.978
2015   11        8     0  23    4.7066   332.9   13.182      30.001
2015   11        8     0  30    4.7098   333.0   13.182      30.024
2015   11        8     0  37    4.7130   333.1   13.182      30.047
2015   11        8     0  44    4.7162   333.2   13.182      30.070
2015   11        8     0  51    4.7193   333.3   13.182      30.092
2015   11        8     0  58    4.7225   333.4   13.182      30.114
2015   11        8     1   5    4.7257   333.5   13.182      30.136
2015   11        8     1  12    4.7289   333.6   13.182      30.158
2015   11        8     1  18    4.7320   333.6   13.182      30.180
2015   11        8     1  25    4.7352   333.7   13.182      30.201
2015   11        8     1  32    4.7384   333.8   13.182      30.223
2015   11        8     1  39    4.7416   333.9   13.182      30.244
2015   11        8     1  46    4.7448   334.0   13.182      30.265
2015   11        8     1  53    4.7480   334.1   13.183      30.287
2015   11        8     2   0    4.7512   334.2   13.183      30.308
2015   11        8     2   6    4.7545   334.3   13.184      30.330
2015   11        8     2  13    4.7578   334.4   13.184      30.351
2015   11        8     2  20    4.7611   334.5   13.185      30.372
2015   11        8     2  27    4.7644   334.6   13.187      30.394
2015   11        8     2  34    4.7677   334.6   13.188      30.416
2015   11        8     2  41    4.7711   334.7   13.190      30.438
2015   11        8     2  48    4.7745   334.8   13.192      30.459
2015   11        8     2  54    4.7779   334.9   13.194      30.482
2015   11        8     3   1    4.7813   335.0   13.196      30.504
2015   11        8     3   8    4.7848   335.1   13.199      30.527
2015   11        8     3  15    4.7882   335.2   13.202      30.550
2015   11        8     3  22    4.7917   335.3   13.206      30.574
2015   11        8     3  29    4.7952   335.4   13.209      30.598
2015   11        8     3  36    4.7987   335.5   13.213      30.622
2015   11        8     3  42    4.8023   335.6   13.217      30.646
2015   11        8     3  49    4.8058   335.7   13.221      30.671
2015   11        8     3  56    4.8094   335.8   13.226      30.696
2015   11        8     4   3    4.8129   335.9   13.230      30.722
2015   11        8     4  10    4.8165   336.0   13.235      30.748
2015   11        8     4  17    4.8200   336.1   13.240      30.774
2015   11        8     4  24    4.8236   336.2   13.245      30.801
2015   11        8     4  31    4.8271   336.3   13.251      30.828
2015   11        8     4  37    4.8307   336.4   13.256      30.856
2015   11        8     4  44    4.8342   336.5   13.261      30.884
2015   11        8     4  51    4.8378   336.6   13.267      30.913
2015   11        8     4  58    4.8413   336.7   13.272      30.941
2015   11        8     5   5    4.8449   336.9   13.277      30.970
2015   11        8     5  12    4.8484   337.0   13.283      30.998
2015   11        8     5  19    4.8519   337.1   13.288      31.028
2015   11        8     5  26    4.8553   337.2   13.293      31.057
2015   11        8     5  32    4.8588   337.3   13.298      31.087
2015   11        8     5  39    4.8622   337.4   13.303      31.117
2015   11        8     5  46    4.8656   337.5   13.308      31.147
2015   11        8     5  53    4.8690   337.6   13.313      31.177
2015   11        8     6   0    4.8723   337.7   13.317      31.207
2015   11        8     6   7    4.8757   337.9   13.321      31.237
2015   11        8     6  14    4.8790   338.0   13.325      31.266
2015   11        8     6  21    4.8823   338.1   13.329      31.296
2015   11        8     6  27    4.8856   338.2   13.333      31.325
2015   11        8     6  34    4.8888   338.3   13.337      31.354
2015   11        8     6  41    4.8921   338.4   13.340      31.383
2015   11        8     6  48    4.8953   338.5   13.343      31.413
2015   11        8     6  55    4.8985   338.6   13.346      31.442
2015   11        8     7   2    4.9016   338.8   13.348      31.471
2015   11        8     7   9    4.9047   338.9   13.351      31.500
2015   11        8     7  15    4.9078   339.0   13.353      31.528
2015   11        8     7  22    4.9109   339.1   13.354      31.557
2015   11        8     7  29    4.9139   339.2   13.356      31.585
2015   11        8     7  36    4.9169   339.3   13.357      31.613
2015   11        8     7  43    4.9199   339.4   13.358      31.641
2015   11        8     7  50    4.9228   339.5   13.359      31.668
2015   11        8     7  57    4.9257   339.7   13.359      31.695
2015   11        8     8   4    4.9286   339.8   13.359      31.722
2015   11        8     8  10    4.9314   339.9   13.359      31.748
2015   11        8     8  17    4.9342   340.0   13.358      31.774
2015   11        8     8  24    4.9370   340.1   13.357      31.800
2015   11        8     8  31    4.9397   340.2   13.356      31.825
2015   11        8     8  38    4.9425   340.3   13.355      31.849
2015   11        8     8  45    4.9452   340.4   13.354      31.873
2015   11        8     8  52    4.9478   340.5   13.352      31.897
2015   11        8     8  58    4.9505   340.6   13.350      31.920
2015   11        8     9   5    4.9532   340.8   13.348      31.943
2015   11        8     9  12    4.9558   340.9   13.346      31.966
2015   11        8     9  19    4.9585   341.0   13.344      31.988
2015   11        8     9  26    4.9611   341.1   13.341      32.010
2015   11        8     9  33    4.9637   341.2   13.339      32.032
2015   11        8     9  40    4.9663   341.3   13.337      32.053
2015   11        8     9  46    4.9689   341.4   13.334      32.074
2015   11        8     9  53    4.9715   341.5   13.331      32.095
2015   11        8    10   0    4.9741   341.6   13.329      32.115
2015   11        8    10   7    4.9767   341.7   13.326      32.136
2015   11        8    10  14    4.9792   341.8   13.323      32.156
2015   11        8    10  21    4.9818   341.9   13.321      32.176
2015   11        8    10  28    4.9844   342.0   13.318      32.196
2015   11        8    10  34    4.9870   342.1   13.315      32.216
2015   11        8    10  41    4.9897   342.3   13.313      32.236
2015   11        8    10  48    4.9923   342.4   13.310      32.255
2015   11        8    10  55    4.9950   342.5   13.308      32.275
2015   11        8    11   2    4.9976   342.6   13.306      32.295
2015   11        8    11   9    5.0003   342.7   13.304      32.314
2015   11        8    11  16    5.0030   342.8   13.302      32.334
2015   11        8    11  23    5.0058   342.9   13.300      32.353
2015   11        8    11  29    5.0085   343.0   13.298      32.373
2015   11        8    11  36    5.0114   343.1   13.297      32.393
2015   11        8    11  43    5.0142   343.2   13.296      32.413
2015   11        8    11  50    5.0171   343.3   13.295      32.433
2015   11        8    11  57    5.0200   343.4   13.294      32.453
2015   11        8    12   4    5.0230   343.5   13.294      32.474
2015   11        8    12  11    5.0260   343.6   13.294      32.494
2015   11        8    12  18    5.0291   343.8   13.295      32.515
2015   11        8    12  24    5.0322   343.9   13.295      32.537
2015   11        8    12  31    5.0354   344.0   13.296      32.559
2015   11        8    12  38    5.0385   344.1   13.298      32.582
2015   11        8    12  45    5.0418   344.2   13.300      32.605
2015   11        8    12  52    5.0451   344.3   13.302      32.628
2015   11        8    12  59    5.0484   344.4   13.304      32.653
2015   11        8    13   6    5.0517   344.6   13.306      32.678
2015   11        8    13  13    5.0550   344.7   13.309      32.703
2015   11        8    13  19    5.0584   344.8   13.312      32.730
2015   11        8    13  26    5.0618   344.9   13.315      32.756
2015   11        8    13  33    5.0652   345.0   13.318      32.783
2015   11        8    13  40    5.0686   345.2   13.322      32.810
2015   11        8    13  47    5.0721   345.3   13.325      32.838
2015   11        8    13  54    5.0755   345.4   13.328      32.867
2015   11        8    14   1    5.0789   345.6   13.331      32.895
2015   11        8    14   8    5.0824   345.7   13.335      32.924
2015   11        8    14  14    5.0858   345.8   13.338      32.954
2015   11        8    14  21    5.0891   345.9   13.341      32.983
2015   11        8    14  28    5.0925   346.1   13.343      33.013
2015   11        8    14  35    5.0958   346.2   13.346      33.042
2015   11        8    14  42    5.0991   346.3   13.348      33.072
2015   11        8    14  49    5.1024   346.4   13.350      33.102
2015   11        8    14  56    5.1057   346.6   13.352      33.131
2015   11        8    15   2    5.1089   346.7   13.354      33.160
2015   11        8    15   9    5.1121   346.8   13.355      33.189
2015   11        8    15  16    5.1153   347.0   13.357      33.218
2015   11        8    15  23    5.1185   347.1   13.357      33.246
2015   11        8    15  30    5.1216   347.2   13.358      33.274
2015   11        8    15  37    5.1247   347.3   13.358      33.302
2015   11        8    15  44    5.1277   347.5   13.359      33.330
2015   11        8    15  50    5.1308   347.6   13.359      33.356
2015   11        8    15  57    5.1338   347.7   13.358      33.383
2015   11        8    16   4    5.1368   347.9   13.358      33.410
2015   11        8    16  11    5.1397   348.0   13.357      33.435
2015   11        8    16  18    5.1427   348.1   13.357      33.461
2015   11        8    16  25    5.1456   348.2   13.356      33.487
2015   11        8    16  32    5.1485   348.4   13.354      33.512
2015   11        8    16  38    5.1514   348.5   13.353      33.537
2015   11        8    16  45    5.1543   348.6   13.351      33.562
2015   11        8    16  52    5.1571   348.8   13.350      33.587
2015   11        8    16  59    5.1599   348.9   13.348      33.611
2015   11        8    17   6    5.1627   349.0   13.345      33.636
2015   11        8    17  13    5.1655   349.1   13.343      33.660
2015   11        8    17  20    5.1683   349.3   13.341      33.684
2015   11        8    17  27    5.1710   349.4   13.338      33.708
2015   11        8    17  33    5.1738   349.5   13.335      33.731
2015   11        8    17  40    5.1765   349.7   13.333      33.755
2015   11        8    17  47    5.1792   349.8   13.330      33.778
2015   11        8    17  54    5.1819   349.9   13.326      33.801
2015   11        8    18   1    5.1846   350.0   13.323      33.824
2015   11        8    18   8    5.1873   350.2   13.320      33.847
2015   11        8    18  15    5.1900   350.3   13.317      33.870
2015   11        8    18  21    5.1927   350.4   13.313      33.892
2015   11        8    18  28    5.1954   350.5   13.310      33.914
2015   11        8    18  35    5.1981   350.7   13.306      33.936
2015   11        8    18  42    5.2008   350.8   13.303      33.958
2015   11        8    18  49    5.2035   350.9   13.300      33.980
2015   11        8    18  56    5.2063   351.1   13.296      34.001
2015   11        8    19   3    5.2090   351.2   13.293      34.023
2015   11        8    19  10    5.2118   351.3   13.289      34.044
2015   11        8    19  16    5.2146   351.4   13.286      34.066
2015   11        8    19  23    5.2174   351.6   13.283      34.087
2015   11        8    19  30    5.2202   351.7   13.280      34.109
2015   11        8    19  37    5.2231   351.8   13.277      34.130
2015   11        8    19  44    5.2260   351.9   13.274      34.151
2015   11        8    19  51    5.2289   352.1   13.271      34.173
2015   11        8    19  58    5.2319   352.2   13.269      34.194
2015   11        8    20   5    5.2349   352.3   13.267      34.216
2015   11        8    20  11    5.2379   352.5   13.264      34.238
2015   11        8    20  18    5.2410   352.6   13.262      34.260
2015   11        8    20  25    5.2441   352.7   13.260      34.283
2015   11        8    20  32    5.2472   352.8   13.258      34.306
2015   11        8    20  39    5.2503   353.0   13.257      34.329
2015   11        8    20  46    5.2535   353.1   13.255      34.353
2015   11        8    20  53    5.2567   353.3   13.254      34.377
2015   11        8    20  59    5.2599   353.4   13.252      34.401
2015   11        8    21   6    5.2631   353.5   13.251      34.425
2015   11        8    21  13    5.2664   353.7   13.250      34.449
2015   11        8    21  20    5.2696   353.8   13.248      34.474
2015   11        8    21  27    5.2729   353.9   13.247      34.499
2015   11        8    21  34    5.2762   354.1   13.246      34.524
2015   11        8    21  41    5.2795   354.2   13.245      34.550
2015   11        8    21  48    5.2829   354.4   13.244      34.575
2015   11        8    21  54    5.2863   354.5   13.243      34.601
2015   11        8    22   1    5.2897   354.6   13.242      34.626
2015   11        8    22   8    5.2931   354.8   13.242      34.652
2015   11        8    22  15    5.2965   354.9   13.241      34.678
2015   11        8    22  22    5.3000   355.1   13.241      34.704
2015   11        8    22  29    5.3035   355.2   13.240      34.730
2015   11        8    22  36    5.3070   355.3   13.240      34.757
2015   11        8    22  42    5.3106   355.5   13.240      34.783
2015   11        8    22  49    5.3141   355.6   13.240      34.810
2015   11        8    22  56    5.3177   355.8   13.240      34.837
2015   11        8    23   3    5.3213   355.9   13.240      34.864
2015   11        8    23  10    5.3248   356.1   13.240      34.892
2015   11        8    23  17    5.3284   356.2   13.240      34.920
2015   11        8    23  24    5.3320   356.4   13.240      34.949
2015   11        8    23  31    5.3355   356.5   13.240      34.977
2015   11        8    23  37    5.3391   356.7   13.240      35.006
2015   11        8    23  44    5.3426   356.8   13.240      35.035
2015   11        8    23  51    5.3462   357.0   13.240      35.065
2015   11        8    23  58    5.3497   357.1   13.240      35.094
2015   11        9     0   5    5.3532   357.3   13.240      35.124
