year    month   day   hour  minute  B_enl V_enl   n_enl       T_enl
[year] [month] [day] [hour][minute] [nT]  [km/s]  [cm-3]      [kK]
2015    4       24     0   0    3.3632   395.1    5.862      27.496
2015    4       24     0   6    3.3652   394.9    5.870      27.491
2015    4       24     0  12    3.3671   394.8    5.878      27.487
2015    4       24     0  19    3.3691   394.6    5.885      27.483
2015    4       24     0  25    3.3711   394.5    5.893      27.479
2015    4       24     0  31    3.3731   394.3    5.901      27.475
2015    4       24     0  37    3.3751   394.1    5.909      27.471
2015    4       24     0  43    3.3771   394.0    5.916      27.468
2015    4       24     0  49    3.3791   393.8    5.924      27.464
2015    4       24     0  55    3.3811   393.7    5.932      27.461
2015    4       24     1   1    3.3831   393.5    5.940      27.458
2015    4       24     1   8    3.3852   393.4    5.948      27.455
2015    4       24     1  14    3.3872   393.2    5.956      27.452
2015    4       24     1  20    3.3893   393.1    5.964      27.449
2015    4       24     1  26    3.3914   392.9    5.972      27.447
2015    4       24     1  32    3.3935   392.7    5.980      27.444
2015    4       24     1  38    3.3957   392.6    5.988      27.442
2015    4       24     1  44    3.3978   392.4    5.996      27.441
2015    4       24     1  50    3.4000   392.3    6.005      27.439
2015    4       24     1  56    3.4022   392.1    6.013      27.438
2015    4       24     2   3    3.4044   392.0    6.021      27.436
2015    4       24     2   9    3.4066   391.8    6.030      27.436
2015    4       24     2  15    3.4088   391.7    6.038      27.435
2015    4       24     2  21    3.4111   391.5    6.047      27.434
2015    4       24     2  27    3.4134   391.4    6.055      27.434
2015    4       24     2  33    3.4157   391.2    6.064      27.434
2015    4       24     2  39    3.4180   391.1    6.072      27.435
2015    4       24     2  45    3.4204   390.9    6.081      27.436
2015    4       24     2  51    3.4228   390.8    6.090      27.436
2015    4       24     2  58    3.4252   390.7    6.099      27.438
2015    4       24     3   4    3.4276   390.5    6.107      27.439
2015    4       24     3  10    3.4300   390.4    6.116      27.441
2015    4       24     3  16    3.4325   390.2    6.125      27.443
2015    4       24     3  22    3.4350   390.1    6.134      27.445
2015    4       24     3  28    3.4375   390.0    6.143      27.448
2015    4       24     3  34    3.4400   389.8    6.152      27.451
2015    4       24     3  40    3.4425   389.7    6.161      27.454
2015    4       24     3  46    3.4451   389.5    6.171      27.457
2015    4       24     3  53    3.4476   389.4    6.180      27.461
2015    4       24     3  59    3.4502   389.3    6.189      27.465
2015    4       24     4   5    3.4528   389.1    6.198      27.469
2015    4       24     4  11    3.4554   389.0    6.208      27.473
2015    4       24     4  17    3.4581   388.9    6.217      27.478
2015    4       24     4  23    3.4607   388.7    6.227      27.483
2015    4       24     4  29    3.4634   388.6    6.236      27.488
2015    4       24     4  35    3.4661   388.5    6.246      27.494
2015    4       24     4  41    3.4688   388.3    6.255      27.499
2015    4       24     4  48    3.4716   388.2    6.265      27.505
2015    4       24     4  54    3.4743   388.1    6.275      27.512
2015    4       24     5   0    3.4771   388.0    6.285      27.518
2015    4       24     5   6    3.4799   387.8    6.294      27.525
2015    4       24     5  12    3.4827   387.7    6.304      27.532
2015    4       24     5  18    3.4855   387.6    6.314      27.539
2015    4       24     5  24    3.4883   387.5    6.324      27.546
2015    4       24     5  30    3.4911   387.3    6.334      27.554
2015    4       24     5  36    3.4939   387.2    6.344      27.562
2015    4       24     5  43    3.4967   387.1    6.355      27.570
2015    4       24     5  49    3.4995   387.0    6.365      27.578
2015    4       24     5  55    3.5023   386.9    6.375      27.586
2015    4       24     6   1    3.5051   386.8    6.385      27.595
2015    4       24     6   7    3.5079   386.6    6.396      27.604
2015    4       24     6  13    3.5107   386.5    6.406      27.612
2015    4       24     6  19    3.5135   386.4    6.416      27.621
2015    4       24     6  25    3.5162   386.3    6.427      27.630
2015    4       24     6  31    3.5190   386.2    6.437      27.639
2015    4       24     6  38    3.5217   386.1    6.448      27.649
2015    4       24     6  44    3.5245   386.0    6.458      27.658
2015    4       24     6  50    3.5272   385.9    6.468      27.667
2015    4       24     6  56    3.5299   385.8    6.479      27.677
2015    4       24     7   2    3.5326   385.6    6.489      27.686
2015    4       24     7   8    3.5354   385.5    6.499      27.695
2015    4       24     7  14    3.5381   385.4    6.510      27.705
2015    4       24     7  20    3.5408   385.3    6.520      27.714
2015    4       24     7  26    3.5435   385.2    6.530      27.724
2015    4       24     7  33    3.5463   385.1    6.540      27.733
2015    4       24     7  39    3.5490   385.0    6.551      27.743
2015    4       24     7  45    3.5517   384.9    6.561      27.752
2015    4       24     7  51    3.5544   384.8    6.571      27.761
2015    4       24     7  57    3.5572   384.7    6.581      27.771
2015    4       24     8   3    3.5599   384.6    6.591      27.780
2015    4       24     8   9    3.5626   384.5    6.601      27.789
2015    4       24     8  15    3.5653   384.4    6.611      27.798
2015    4       24     8  21    3.5681   384.3    6.621      27.807
2015    4       24     8  28    3.5708   384.2    6.631      27.816
2015    4       24     8  34    3.5736   384.1    6.641      27.824
2015    4       24     8  40    3.5763   384.0    6.651      27.833
2015    4       24     8  46    3.5791   383.9    6.660      27.842
2015    4       24     8  52    3.5818   383.8    6.670      27.850
2015    4       24     8  58    3.5846   383.6    6.680      27.859
2015    4       24     9   4    3.5874   383.5    6.689      27.867
2015    4       24     9  10    3.5901   383.4    6.699      27.875
2015    4       24     9  16    3.5929   383.3    6.709      27.884
2015    4       24     9  23    3.5957   383.3    6.718      27.892
2015    4       24     9  29    3.5986   383.2    6.728      27.900
2015    4       24     9  35    3.6014   383.1    6.737      27.908
2015    4       24     9  41    3.6042   383.0    6.747      27.916
2015    4       24     9  47    3.6071   382.9    6.756      27.924
2015    4       24     9  53    3.6099   382.8    6.765      27.933
2015    4       24     9  59    3.6128   382.7    6.775      27.941
2015    4       24    10   5    3.6157   382.6    6.784      27.949
2015    4       24    10  12    3.6186   382.5    6.793      27.957
2015    4       24    10  18    3.6216   382.4    6.803      27.965
2015    4       24    10  24    3.6245   382.3    6.812      27.973
2015    4       24    10  30    3.6274   382.2    6.821      27.982
2015    4       24    10  36    3.6304   382.1    6.831      27.990
2015    4       24    10  42    3.6334   382.0    6.840      27.999
2015    4       24    10  48    3.6364   381.9    6.849      28.008
2015    4       24    10  54    3.6395   381.8    6.858      28.016
2015    4       24    11   0    3.6425   381.7    6.868      28.025
2015    4       24    11   7    3.6456   381.6    6.877      28.034
2015    4       24    11  13    3.6487   381.6    6.886      28.044
2015    4       24    11  19    3.6518   381.5    6.896      28.053
2015    4       24    11  25    3.6549   381.4    6.905      28.063
2015    4       24    11  31    3.6581   381.3    6.914      28.072
2015    4       24    11  37    3.6612   381.2    6.924      28.082
2015    4       24    11  43    3.6644   381.1    6.933      28.092
2015    4       24    11  49    3.6676   381.0    6.943      28.103
2015    4       24    11  55    3.6709   381.0    6.952      28.113
2015    4       24    12   2    3.6741   380.9    6.962      28.124
2015    4       24    12   8    3.6774   380.8    6.971      28.135
2015    4       24    12  14    3.6807   380.7    6.981      28.146
2015    4       24    12  20    3.6840   380.6    6.990      28.157
2015    4       24    12  26    3.6874   380.5    7.000      28.169
2015    4       24    12  32    3.6907   380.5    7.010      28.181
2015    4       24    12  38    3.6940   380.4    7.019      28.192
2015    4       24    12  44    3.6974   380.3    7.029      28.205
2015    4       24    12  50    3.7008   380.2    7.039      28.217
2015    4       24    12  57    3.7041   380.1    7.049      28.230
2015    4       24    13   3    3.7075   380.1    7.059      28.242
2015    4       24    13   9    3.7108   380.0    7.068      28.255
2015    4       24    13  15    3.7141   379.9    7.078      28.268
2015    4       24    13  21    3.7175   379.8    7.088      28.281
2015    4       24    13  27    3.7208   379.8    7.098      28.294
2015    4       24    13  33    3.7241   379.7    7.108      28.308
2015    4       24    13  39    3.7275   379.6    7.118      28.321
2015    4       24    13  45    3.7308   379.6    7.128      28.334
2015    4       24    13  52    3.7341   379.5    7.138      28.348
2015    4       24    13  58    3.7374   379.4    7.148      28.361
2015    4       24    14   4    3.7407   379.3    7.157      28.375
2015    4       24    14  10    3.7440   379.3    7.167      28.389
2015    4       24    14  16    3.7473   379.2    7.177      28.402
2015    4       24    14  22    3.7506   379.1    7.187      28.416
2015    4       24    14  28    3.7539   379.0    7.197      28.429
2015    4       24    14  34    3.7572   379.0    7.206      28.443
2015    4       24    14  40    3.7605   378.9    7.216      28.456
2015    4       24    14  47    3.7638   378.8    7.226      28.470
2015    4       24    14  53    3.7671   378.7    7.235      28.483
2015    4       24    14  59    3.7704   378.7    7.245      28.497
2015    4       24    15   5    3.7737   378.6    7.255      28.510
2015    4       24    15  11    3.7770   378.5    7.264      28.523
2015    4       24    15  17    3.7803   378.4    7.274      28.536
2015    4       24    15  23    3.7836   378.4    7.284      28.549
2015    4       24    15  29    3.7869   378.3    7.293      28.563
2015    4       24    15  35    3.7903   378.2    7.303      28.576
2015    4       24    15  42    3.7936   378.2    7.312      28.588
2015    4       24    15  48    3.7970   378.1    7.322      28.601
2015    4       24    15  54    3.8004   378.0    7.332      28.614
2015    4       24    16   0    3.8037   377.9    7.342      28.627
2015    4       24    16   6    3.8072   377.9    7.351      28.640
2015    4       24    16  12    3.8106   377.8    7.361      28.653
2015    4       24    16  18    3.8140   377.7    7.371      28.666
2015    4       24    16  24    3.8175   377.7    7.381      28.678
2015    4       24    16  30    3.8210   377.6    7.391      28.691
2015    4       24    16  37    3.8245   377.5    7.401      28.704
2015    4       24    16  43    3.8280   377.5    7.410      28.717
2015    4       24    16  49    3.8316   377.4    7.420      28.730
2015    4       24    16  55    3.8352   377.3    7.430      28.743
2015    4       24    17   1    3.8388   377.3    7.441      28.756
2015    4       24    17   7    3.8424   377.2    7.451      28.769
2015    4       24    17  13    3.8461   377.1    7.461      28.782
2015    4       24    17  19    3.8497   377.1    7.471      28.796
2015    4       24    17  25    3.8535   377.0    7.481      28.809
2015    4       24    17  32    3.8572   377.0    7.492      28.822
2015    4       24    17  38    3.8610   376.9    7.502      28.835
2015    4       24    17  44    3.8648   376.8    7.513      28.849
2015    4       24    17  50    3.8686   376.8    7.523      28.862
2015    4       24    17  56    3.8725   376.7    7.534      28.876
2015    4       24    18   2    3.8763   376.7    7.544      28.890
2015    4       24    18   8    3.8803   376.6    7.555      28.903
2015    4       24    18  14    3.8842   376.6    7.566      28.917
2015    4       24    18  20    3.8882   376.5    7.577      28.931
2015    4       24    18  27    3.8922   376.4    7.588      28.945
2015    4       24    18  33    3.8963   376.4    7.599      28.959
2015    4       24    18  39    3.9003   376.3    7.610      28.974
2015    4       24    18  45    3.9045   376.3    7.622      28.988
2015    4       24    18  51    3.9086   376.2    7.633      29.003
2015    4       24    18  57    3.9128   376.2    7.645      29.017
2015    4       24    19   3    3.9170   376.1    7.656      29.032
2015    4       24    19   9    3.9212   376.1    7.668      29.047
2015    4       24    19  16    3.9254   376.0    7.680      29.063
2015    4       24    19  22    3.9296   376.0    7.693      29.078
2015    4       24    19  28    3.9338   376.0    7.705      29.095
2015    4       24    19  34    3.9381   375.9    7.717      29.111
2015    4       24    19  40    3.9423   375.9    7.729      29.129
2015    4       24    19  46    3.9465   375.8    7.742      29.147
2015    4       24    19  52    3.9508   375.8    7.754      29.167
2015    4       24    19  58    3.9550   375.8    7.766      29.187
2015    4       24    20   4    3.9593   375.7    7.778      29.208
2015    4       24    20  11    3.9635   375.7    7.790      29.230
2015    4       24    20  17    3.9678   375.7    7.802      29.252
2015    4       24    20  23    3.9720   375.6    7.814      29.274
2015    4       24    20  29    3.9763   375.6    7.826      29.297
2015    4       24    20  35    3.9805   375.6    7.838      29.320
2015    4       24    20  41    3.9848   375.5    7.850      29.342
2015    4       24    20  47    3.9890   375.5    7.862      29.365
2015    4       24    20  53    3.9932   375.5    7.873      29.388
2015    4       24    20  59    3.9975   375.4    7.885      29.411
2015    4       24    21   6    4.0017   375.4    7.896      29.434
2015    4       24    21  12    4.0060   375.4    7.908      29.458
2015    4       24    21  18    4.0102   375.3    7.919      29.481
2015    4       24    21  24    4.0145   375.3    7.931      29.504
2015    4       24    21  30    4.0187   375.3    7.942      29.527
2015    4       24    21  36    4.0229   375.2    7.953      29.550
2015    4       24    21  42    4.0271   375.2    7.965      29.572
2015    4       24    21  48    4.0313   375.2    7.976      29.595
2015    4       24    21  54    4.0355   375.2    7.987      29.618
2015    4       24    22   1    4.0397   375.1    7.998      29.641
2015    4       24    22   7    4.0439   375.1    8.009      29.663
2015    4       24    22  13    4.0481   375.1    8.021      29.686
2015    4       24    22  19    4.0523   375.0    8.032      29.709
2015    4       24    22  25    4.0565   375.0    8.043      29.731
2015    4       24    22  31    4.0607   375.0    8.054      29.754
2015    4       24    22  37    4.0649   375.0    8.065      29.777
2015    4       24    22  43    4.0691   374.9    8.076      29.799
2015    4       24    22  49    4.0733   374.9    8.087      29.822
2015    4       24    22  56    4.0775   374.9    8.098      29.845
2015    4       24    23   2    4.0817   374.9    8.109      29.867
2015    4       24    23   8    4.0859   374.9    8.120      29.889
2015    4       24    23  14    4.0901   374.8    8.131      29.912
2015    4       24    23  20    4.0943   374.8    8.142      29.934
2015    4       24    23  26    4.0985   374.8    8.153      29.956
2015    4       24    23  32    4.1028   374.8    8.164      29.977
2015    4       24    23  38    4.1070   374.8    8.175      29.999
2015    4       24    23  44    4.1113   374.7    8.186      30.021
2015    4       24    23  51    4.1156   374.7    8.197      30.042
2015    4       24    23  57    4.1199   374.7    8.208      30.064
2015    4       25     0   3    4.1242   374.7    8.219      30.085
2015    4       25     0   9    4.1285   374.7    8.230      30.106
2015    4       25     0  15    4.1329   374.7    8.241      30.128
2015    4       25     0  21    4.1372   374.6    8.253      30.149
2015    4       25     0  27    4.1416   374.6    8.264      30.170
2015    4       25     0  33    4.1460   374.6    8.275      30.191
2015    4       25     0  39    4.1504   374.6    8.287      30.213
2015    4       25     0  46    4.1549   374.6    8.298      30.234
2015    4       25     0  52    4.1593   374.6    8.310      30.255
2015    4       25     0  58    4.1638   374.6    8.322      30.277
2015    4       25     1   4    4.1683   374.6    8.334      30.298
2015    4       25     1  10    4.1728   374.6    8.346      30.320
2015    4       25     1  16    4.1774   374.6    8.358      30.342
2015    4       25     1  22    4.1819   374.6    8.370      30.364
2015    4       25     1  28    4.1865   374.6    8.383      30.386
2015    4       25     1  34    4.1911   374.5    8.395      30.408
2015    4       25     1  41    4.1958   374.5    8.408      30.431
2015    4       25     1  47    4.2005   374.5    8.421      30.454
2015    4       25     1  53    4.2052   374.5    8.435      30.477
2015    4       25     1  59    4.2100   374.5    8.448      30.501
2015    4       25     2   5    4.2148   374.5    8.462      30.525
2015    4       25     2  11    4.2196   374.5    8.477      30.549
2015    4       25     2  17    4.2244   374.5    8.491      30.574
2015    4       25     2  23    4.2293   374.5    8.506      30.599
2015    4       25     2  29    4.2342   374.5    8.521      30.625
2015    4       25     2  36    4.2391   374.6    8.537      30.652
2015    4       25     2  42    4.2440   374.6    8.553      30.680
2015    4       25     2  48    4.2490   374.6    8.569      30.708
2015    4       25     2  54    4.2540   374.6    8.585      30.738
2015    4       25     3   0    4.2590   374.6    8.602      30.769
2015    4       25     3   6    4.2641   374.6    8.619      30.802
2015    4       25     3  12    4.2692   374.6    8.636      30.836
2015    4       25     3  18    4.2744   374.7    8.653      30.874
2015    4       25     3  24    4.2795   374.7    8.670      30.913
2015    4       25     3  31    4.2846   374.7    8.687      30.954
2015    4       25     3  37    4.2898   374.8    8.703      30.996
2015    4       25     3  43    4.2949   374.8    8.720      31.040
2015    4       25     3  49    4.3000   374.8    8.736      31.085
2015    4       25     3  55    4.3051   374.9    8.751      31.131
2015    4       25     4   1    4.3101   374.9    8.766      31.176
2015    4       25     4   7    4.3151   374.9    8.781      31.221
2015    4       25     4  13    4.3200   375.0    8.796      31.265
2015    4       25     4  19    4.3249   375.0    8.810      31.308
2015    4       25     4  26    4.3298   375.0    8.824      31.351
2015    4       25     4  32    4.3346   375.1    8.838      31.394
2015    4       25     4  38    4.3393   375.1    8.851      31.436
2015    4       25     4  44    4.3440   375.2    8.863      31.477
2015    4       25     4  50    4.3487   375.2    8.876      31.517
2015    4       25     4  56    4.3533   375.2    8.888      31.556
2015    4       25     5   2    4.3579   375.3    8.900      31.595
2015    4       25     5   8    4.3624   375.3    8.912      31.633
2015    4       25     5  15    4.3669   375.3    8.923      31.671
2015    4       25     5  21    4.3713   375.4    8.934      31.708
2015    4       25     5  27    4.3757   375.4    8.945      31.744
2015    4       25     5  33    4.3801   375.5    8.956      31.780
2015    4       25     5  39    4.3845   375.5    8.967      31.815
2015    4       25     5  45    4.3888   375.5    8.977      31.850
2015    4       25     5  51    4.3931   375.6    8.987      31.884
2015    4       25     5  57    4.3973   375.6    8.997      31.918
2015    4       25     6   3    4.4015   375.7    9.006      31.951
2015    4       25     6  10    4.4057   375.7    9.016      31.983
2015    4       25     6  16    4.4099   375.7    9.025      32.016
2015    4       25     6  22    4.4140   375.8    9.034      32.047
2015    4       25     6  28    4.4181   375.8    9.043      32.078
2015    4       25     6  34    4.4223   375.9    9.052      32.109
2015    4       25     6  40    4.4263   375.9    9.061      32.139
2015    4       25     6  46    4.4304   375.9    9.069      32.169
2015    4       25     6  52    4.4344   376.0    9.078      32.199
2015    4       25     6  58    4.4385   376.0    9.086      32.228
2015    4       25     7   5    4.4425   376.1    9.094      32.257
2015    4       25     7  11    4.4465   376.1    9.103      32.285
2015    4       25     7  17    4.4505   376.2    9.111      32.313
2015    4       25     7  23    4.4544   376.2    9.119      32.340
2015    4       25     7  29    4.4584   376.2    9.127      32.368
2015    4       25     7  35    4.4623   376.3    9.134      32.395
2015    4       25     7  41    4.4663   376.3    9.142      32.422
2015    4       25     7  47    4.4702   376.4    9.150      32.448
2015    4       25     7  53    4.4741   376.4    9.158      32.475
2015    4       25     8   0    4.4780   376.5    9.165      32.501
2015    4       25     8   6    4.4820   376.5    9.173      32.527
2015    4       25     8  12    4.4858   376.5    9.181      32.553
2015    4       25     8  18    4.4897   376.6    9.189      32.579
2015    4       25     8  24    4.4936   376.6    9.196      32.605
2015    4       25     8  30    4.4975   376.7    9.204      32.630
2015    4       25     8  36    4.5014   376.7    9.212      32.656
2015    4       25     8  42    4.5053   376.8    9.220      32.682
2015    4       25     8  48    4.5092   376.8    9.228      32.708
2015    4       25     8  55    4.5131   376.8    9.236      32.733
2015    4       25     9   1    4.5170   376.9    9.244      32.759
2015    4       25     9   7    4.5209   376.9    9.252      32.785
2015    4       25     9  13    4.5248   377.0    9.261      32.812
2015    4       25     9  19    4.5287   377.0    9.269      32.838
2015    4       25     9  25    4.5326   377.1    9.278      32.865
2015    4       25     9  31    4.5366   377.1    9.287      32.892
2015    4       25     9  37    4.5406   377.2    9.296      32.919
2015    4       25     9  43    4.5446   377.2    9.306      32.946
2015    4       25     9  50    4.5486   377.3    9.316      32.974
2015    4       25     9  56    4.5527   377.3    9.326      33.003
2015    4       25    10   2    4.5568   377.3    9.336      33.032
2015    4       25    10   8    4.5610   377.4    9.347      33.061
2015    4       25    10  14    4.5652   377.4    9.359      33.091
2015    4       25    10  20    4.5694   377.5    9.370      33.122
2015    4       25    10  26    4.5738   377.5    9.382      33.155
2015    4       25    10  32    4.5781   377.6    9.394      33.189
2015    4       25    10  38    4.5825   377.7    9.406      33.225
2015    4       25    10  45    4.5870   377.7    9.419      33.263
2015    4       25    10  51    4.5914   377.8    9.431      33.303
2015    4       25    10  57    4.5959   377.9    9.443      33.344
2015    4       25    11   3    4.6004   377.9    9.456      33.388
2015    4       25    11   9    4.6049   378.0    9.468      33.432
2015    4       25    11  15    4.6094   378.1    9.480      33.476
2015    4       25    11  21    4.6139   378.1    9.492      33.520
2015    4       25    11  27    4.6184   378.2    9.504      33.565
2015    4       25    11  33    4.6228   378.3    9.516      33.611
2015    4       25    11  40    4.6272   378.4    9.527      33.657
2015    4       25    11  46    4.6315   378.5    9.538      33.704
2015    4       25    11  52    4.6358   378.5    9.549      33.752
2015    4       25    11  58    4.6399   378.6    9.559      33.800
2015    4       25    12   4    4.6440   378.7    9.569      33.849
2015    4       25    12  10    4.6481   378.8    9.579      33.898
2015    4       25    12  16    4.6520   378.9    9.588      33.947
2015    4       25    12  22    4.6559   379.0    9.596      33.996
2015    4       25    12  28    4.6597   379.1    9.604      34.043
2015    4       25    12  35    4.6634   379.1    9.612      34.089
2015    4       25    12  41    4.6671   379.2    9.619      34.135
2015    4       25    12  47    4.6706   379.3    9.626      34.179
2015    4       25    12  53    4.6741   379.4    9.633      34.222
2015    4       25    12  59    4.6775   379.5    9.639      34.265
2015    4       25    13   5    4.6809   379.6    9.644      34.307
2015    4       25    13  11    4.6841   379.6    9.650      34.347
2015    4       25    13  17    4.6874   379.7    9.655      34.387
2015    4       25    13  23    4.6905   379.8    9.659      34.426
2015    4       25    13  30    4.6936   379.9    9.664      34.464
2015    4       25    13  36    4.6967   380.0    9.668      34.501
2015    4       25    13  42    4.6997   380.1    9.671      34.537
2015    4       25    13  48    4.7027   380.1    9.675      34.572
2015    4       25    13  54    4.7056   380.2    9.678      34.607
2015    4       25    14   0    4.7085   380.3    9.681      34.641
2015    4       25    14   6    4.7113   380.4    9.684      34.674
2015    4       25    14  12    4.7142   380.5    9.687      34.707
2015    4       25    14  18    4.7169   380.5    9.690      34.739
2015    4       25    14  25    4.7197   380.6    9.692      34.770
2015    4       25    14  31    4.7224   380.7    9.694      34.801
2015    4       25    14  37    4.7251   380.8    9.696      34.831
2015    4       25    14  43    4.7278   380.9    9.698      34.861
2015    4       25    14  49    4.7304   380.9    9.700      34.890
2015    4       25    14  55    4.7330   381.0    9.701      34.919
2015    4       25    15   1    4.7356   381.1    9.703      34.947
2015    4       25    15   7    4.7382   381.2    9.704      34.975
2015    4       25    15  13    4.7408   381.2    9.706      35.003
2015    4       25    15  20    4.7433   381.3    9.707      35.030
2015    4       25    15  26    4.7458   381.4    9.708      35.057
2015    4       25    15  32    4.7483   381.5    9.709      35.084
2015    4       25    15  38    4.7508   381.6    9.710      35.110
2015    4       25    15  44    4.7533   381.6    9.711      35.136
2015    4       25    15  50    4.7558   381.7    9.712      35.162
2015    4       25    15  56    4.7583   381.8    9.713      35.187
2015    4       25    16   2    4.7607   381.9    9.714      35.212
2015    4       25    16   9    4.7632   382.0    9.714      35.237
2015    4       25    16  15    4.7656   382.0    9.715      35.262
2015    4       25    16  21    4.7681   382.1    9.716      35.286
2015    4       25    16  27    4.7705   382.2    9.717      35.311
2015    4       25    16  33    4.7729   382.3    9.717      35.335
2015    4       25    16  39    4.7754   382.3    9.718      35.359
2015    4       25    16  45    4.7778   382.4    9.719      35.383
2015    4       25    16  51    4.7802   382.5    9.719      35.406
2015    4       25    16  57    4.7827   382.6    9.720      35.430
2015    4       25    17   4    4.7851   382.7    9.721      35.453
2015    4       25    17  10    4.7876   382.7    9.722      35.477
2015    4       25    17  16    4.7900   382.8    9.723      35.500
2015    4       25    17  22    4.7925   382.9    9.724      35.524
2015    4       25    17  28    4.7950   383.0    9.725      35.547
2015    4       25    17  34    4.7975   383.0    9.726      35.571
2015    4       25    17  40    4.8000   383.1    9.728      35.594
2015    4       25    17  46    4.8026   383.2    9.729      35.618
2015    4       25    17  52    4.8052   383.3    9.731      35.642
2015    4       25    17  59    4.8078   383.3    9.733      35.666
2015    4       25    18   5    4.8104   383.4    9.735      35.690
2015    4       25    18  11    4.8130   383.5    9.738      35.714
2015    4       25    18  17    4.8157   383.6    9.740      35.739
2015    4       25    18  23    4.8185   383.7    9.743      35.765
2015    4       25    18  29    4.8213   383.7    9.747      35.791
2015    4       25    18  35    4.8241   383.8    9.750      35.818
2015    4       25    18  41    4.8269   383.9    9.754      35.845
2015    4       25    18  47    4.8297   384.0    9.758      35.873
2015    4       25    18  54    4.8326   384.1    9.762      35.903
2015    4       25    19   0    4.8354   384.2    9.766      35.934
2015    4       25    19   6    4.8382   384.3    9.771      35.966
2015    4       25    19  12    4.8410   384.4    9.775      35.999
2015    4       25    19  18    4.8438   384.5    9.780      36.034
2015    4       25    19  24    4.8465   384.6    9.784      36.070
2015    4       25    19  30    4.8493   384.7    9.788      36.106
2015    4       25    19  36    4.8520   384.8    9.793      36.142
2015    4       25    19  42    4.8546   384.9    9.797      36.178
2015    4       25    19  49    4.8572   385.0    9.802      36.214
2015    4       25    19  55    4.8598   385.1    9.806      36.251
2015    4       25    20   1    4.8623   385.2    9.810      36.288
2015    4       25    20   7    4.8647   385.3    9.814      36.326
2015    4       25    20  13    4.8671   385.4    9.818      36.365
2015    4       25    20  19    4.8693   385.5    9.821      36.405
2015    4       25    20  25    4.8715   385.6    9.824      36.445
2015    4       25    20  31    4.8736   385.7    9.827      36.485
2015    4       25    20  37    4.8757   385.9    9.829      36.525
2015    4       25    20  44    4.8776   386.0    9.831      36.564
2015    4       25    20  50    4.8795   386.1    9.832      36.603
2015    4       25    20  56    4.8813   386.2    9.833      36.641
2015    4       25    21   2    4.8831   386.3    9.834      36.678
2015    4       25    21   8    4.8848   386.4    9.834      36.714
2015    4       25    21  14    4.8864   386.5    9.834      36.750
2015    4       25    21  20    4.8879   386.7    9.833      36.785
2015    4       25    21  26    4.8894   386.8    9.832      36.819
2015    4       25    21  32    4.8909   386.9    9.831      36.852
2015    4       25    21  39    4.8923   387.0    9.830      36.884
2015    4       25    21  45    4.8937   387.1    9.828      36.916
2015    4       25    21  51    4.8950   387.2    9.826      36.947
2015    4       25    21  57    4.8964   387.3    9.824      36.978
2015    4       25    22   3    4.8976   387.4    9.822      37.008
2015    4       25    22   9    4.8989   387.5    9.820      37.038
2015    4       25    22  15    4.9002   387.6    9.817      37.067
2015    4       25    22  21    4.9014   387.8    9.814      37.095
2015    4       25    22  27    4.9026   387.9    9.812      37.123
2015    4       25    22  34    4.9038   388.0    9.809      37.151
2015    4       25    22  40    4.9050   388.1    9.806      37.179
2015    4       25    22  46    4.9062   388.2    9.803      37.206
2015    4       25    22  52    4.9074   388.3    9.800      37.233
2015    4       25    22  58    4.9086   388.4    9.796      37.259
2015    4       25    23   4    4.9098   388.5    9.793      37.286
2015    4       25    23  10    4.9109   388.6    9.790      37.312
2015    4       25    23  16    4.9121   388.7    9.786      37.338
2015    4       25    23  22    4.9133   388.9    9.783      37.363
2015    4       25    23  29    4.9145   389.0    9.780      37.389
2015    4       25    23  35    4.9157   389.1    9.776      37.414
2015    4       25    23  41    4.9169   389.2    9.773      37.440
2015    4       25    23  47    4.9182   389.3    9.769      37.465
2015    4       25    23  53    4.9194   389.4    9.766      37.490
2015    4       25    23  59    4.9207   389.5    9.763      37.516
2015    4       26     0   5    4.9220   389.6    9.759      37.541
2015    4       26     0  11    4.9233   389.8    9.756      37.567
2015    4       26     0  17    4.9246   389.9    9.752      37.593
2015    4       26     0  24    4.9259   390.0    9.749      37.619
2015    4       26     0  30    4.9272   390.1    9.745      37.644
2015    4       26     0  36    4.9285   390.2    9.741      37.670
2015    4       26     0  42    4.9297   390.4    9.738      37.695
2015    4       26     0  48    4.9310   390.5    9.734      37.720
2015    4       26     0  54    4.9322   390.6    9.730      37.745
2015    4       26     1   0    4.9334   390.7    9.726      37.770
2015    4       26     1   6    4.9346   390.9    9.722      37.794
2015    4       26     1  12    4.9358   391.0    9.718      37.818
2015    4       26     1  19    4.9369   391.1    9.713      37.842
2015    4       26     1  25    4.9379   391.3    9.709      37.865
2015    4       26     1  31    4.9390   391.4    9.704      37.888
2015    4       26     1  37    4.9400   391.5    9.700      37.910
2015    4       26     1  43    4.9409   391.7    9.695      37.932
2015    4       26     1  49    4.9419   391.8    9.690      37.953
2015    4       26     1  55    4.9427   391.9    9.685      37.973
2015    4       26     2   1    4.9436   392.1    9.680      37.993
2015    4       26     2   7    4.9443   392.2    9.675      38.013
2015    4       26     2  14    4.9451   392.3    9.670      38.032
2015    4       26     2  20    4.9457   392.5    9.664      38.050
2015    4       26     2  26    4.9464   392.6    9.659      38.068
2015    4       26     2  32    4.9470   392.7    9.654      38.085
2015    4       26     2  38    4.9476   392.9    9.649      38.102
2015    4       26     2  44    4.9482   393.0    9.644      38.118
2015    4       26     2  50    4.9488   393.1    9.639      38.134
2015    4       26     2  56    4.9493   393.2    9.634      38.150
2015    4       26     3   2    4.9498   393.4    9.629      38.165
2015    4       26     3   9    4.9503   393.5    9.625      38.182
2015    4       26     3  15    4.9507   393.6    9.621      38.200
2015    4       26     3  21    4.9511   393.8    9.616      38.218
2015    4       26     3  27    4.9515   393.9    9.612      38.237
2015    4       26     3  33    4.9518   394.0    9.607      38.258
2015    4       26     3  39    4.9521   394.2    9.603      38.279
2015    4       26     3  45    4.9524   394.3    9.598      38.302
2015    4       26     3  51    4.9526   394.4    9.593      38.325
2015    4       26     3  58    4.9528   394.6    9.588      38.349
2015    4       26     4   4    4.9529   394.7    9.583      38.373
2015    4       26     4  10    4.9530   394.8    9.577      38.396
2015    4       26     4  16    4.9531   395.0    9.571      38.420
2015    4       26     4  22    4.9530   395.1    9.565      38.444
2015    4       26     4  28    4.9529   395.3    9.558      38.468
2015    4       26     4  34    4.9528   395.4    9.552      38.491
2015    4       26     4  40    4.9526   395.5    9.545      38.514
2015    4       26     4  46    4.9524   395.7    9.537      38.536
2015    4       26     4  53    4.9522   395.8    9.530      38.558
2015    4       26     4  59    4.9519   395.9    9.522      38.580
2015    4       26     5   5    4.9516   396.1    9.514      38.601
2015    4       26     5  11    4.9512   396.2    9.506      38.622
2015    4       26     5  17    4.9508   396.3    9.498      38.642
2015    4       26     5  23    4.9504   396.5    9.489      38.662
2015    4       26     5  29    4.9500   396.6    9.481      38.681
2015    4       26     5  35    4.9495   396.8    9.472      38.700
2015    4       26     5  41    4.9490   396.9    9.463      38.719
2015    4       26     5  48    4.9486   397.0    9.454      38.737
2015    4       26     5  54    4.9481   397.2    9.444      38.755
2015    4       26     6   0    4.9475   397.3    9.435      38.772
2015    4       26     6   6    4.9470   397.4    9.426      38.790
2015    4       26     6  12    4.9465   397.6    9.416      38.807
2015    4       26     6  18    4.9460   397.7    9.407      38.823
2015    4       26     6  24    4.9455   397.8    9.397      38.840
2015    4       26     6  30    4.9450   398.0    9.387      38.856
2015    4       26     6  36    4.9445   398.1    9.378      38.871
2015    4       26     6  43    4.9440   398.2    9.368      38.887
2015    4       26     6  49    4.9435   398.4    9.358      38.902
2015    4       26     6  55    4.9430   398.5    9.348      38.917
2015    4       26     7   1    4.9424   398.7    9.338      38.931
2015    4       26     7   7    4.9419   398.8    9.328      38.946
2015    4       26     7  13    4.9414   398.9    9.319      38.960
2015    4       26     7  19    4.9408   399.1    9.309      38.975
2015    4       26     7  25    4.9403   399.2    9.299      38.989
2015    4       26     7  31    4.9397   399.4    9.289      39.003
2015    4       26     7  38    4.9391   399.5    9.279      39.017
2015    4       26     7  44    4.9384   399.6    9.269      39.031
2015    4       26     7  50    4.9378   399.8    9.258      39.044
2015    4       26     7  56    4.9370   399.9    9.248      39.058
2015    4       26     8   2    4.9362   400.1    9.238      39.071
2015    4       26     8   8    4.9354   400.2    9.227      39.084
2015    4       26     8  14    4.9345   400.4    9.216      39.097
2015    4       26     8  20    4.9336   400.6    9.205      39.110
2015    4       26     8  26    4.9326   400.7    9.194      39.123
2015    4       26     8  33    4.9315   400.9    9.183      39.135
2015    4       26     8  39    4.9303   401.1    9.171      39.147
2015    4       26     8  45    4.9291   401.2    9.159      39.158
2015    4       26     8  51    4.9278   401.4    9.146      39.169
2015    4       26     8  57    4.9263   401.6    9.133      39.179
2015    4       26     9   3    4.9247   401.7    9.119      39.188
2015    4       26     9   9    4.9230   401.9    9.105      39.195
2015    4       26     9  15    4.9211   402.1    9.090      39.200
2015    4       26     9  21    4.9191   402.2    9.075      39.203
2015    4       26     9  28    4.9170   402.4    9.060      39.205
2015    4       26     9  34    4.9148   402.6    9.044      39.205
2015    4       26     9  40    4.9125   402.7    9.029      39.204
2015    4       26     9  46    4.9101   402.9    9.013      39.201
2015    4       26     9  52    4.9077   403.0    8.997      39.197
2015    4       26     9  58    4.9053   403.1    8.982      39.193
2015    4       26    10   4    4.9028   403.3    8.966      39.189
2015    4       26    10  10    4.9004   403.4    8.950      39.184
2015    4       26    10  16    4.8979   403.6    8.935      39.179
2015    4       26    10  23    4.8954   403.7    8.919      39.174
2015    4       26    10  29    4.8929   403.8    8.904      39.169
2015    4       26    10  35    4.8903   404.0    8.888      39.163
2015    4       26    10  41    4.8878   404.1    8.873      39.157
2015    4       26    10  47    4.8853   404.2    8.858      39.151
2015    4       26    10  53    4.8828   404.3    8.844      39.145
2015    4       26    10  59    4.8803   404.5    8.829      39.139
2015    4       26    11   5    4.8778   404.6    8.814      39.134
2015    4       26    11  11    4.8754   404.7    8.800      39.129
2015    4       26    11  18    4.8729   404.8    8.785      39.124
2015    4       26    11  24    4.8704   405.0    8.771      39.119
2015    4       26    11  30    4.8678   405.1    8.756      39.115
2015    4       26    11  36    4.8653   405.2    8.742      39.111
2015    4       26    11  42    4.8628   405.3    8.727      39.106
2015    4       26    11  48    4.8602   405.5    8.713      39.102
2015    4       26    11  54    4.8576   405.6    8.698      39.098
2015    4       26    12   0    4.8550   405.7    8.684      39.093
2015    4       26    12   6    4.8523   405.8    8.669      39.088
2015    4       26    12  13    4.8497   406.0    8.654      39.082
2015    4       26    12  19    4.8469   406.1    8.639      39.076
2015    4       26    12  25    4.8442   406.2    8.624      39.070
2015    4       26    12  31    4.8415   406.3    8.609      39.064
2015    4       26    12  37    4.8387   406.5    8.594      39.056
2015    4       26    12  43    4.8359   406.6    8.579      39.049
2015    4       26    12  49    4.8331   406.7    8.564      39.041
2015    4       26    12  55    4.8302   406.8    8.549      39.032
2015    4       26    13   1    4.8274   406.9    8.534      39.023
2015    4       26    13   8    4.8245   407.1    8.518      39.014
2015    4       26    13  14    4.8216   407.2    8.503      39.003
2015    4       26    13  20    4.8187   407.3    8.488      38.992
2015    4       26    13  26    4.8158   407.4    8.472      38.980
2015    4       26    13  32    4.8128   407.5    8.457      38.968
2015    4       26    13  38    4.8099   407.6    8.441      38.955
2015    4       26    13  44    4.8069   407.8    8.426      38.941
2015    4       26    13  50    4.8040   407.9    8.410      38.927
2015    4       26    13  56    4.8010   408.0    8.394      38.912
2015    4       26    14   3    4.7980   408.1    8.379      38.897
2015    4       26    14   9    4.7950   408.2    8.363      38.881
2015    4       26    14  15    4.7919   408.3    8.348      38.864
2015    4       26    14  21    4.7889   408.4    8.332      38.847
2015    4       26    14  27    4.7858   408.5    8.317      38.830
2015    4       26    14  33    4.7826   408.6    8.301      38.812
2015    4       26    14  39    4.7794   408.8    8.285      38.794
2015    4       26    14  45    4.7763   408.9    8.270      38.775
2015    4       26    14  51    4.7730   409.0    8.254      38.756
2015    4       26    14  58    4.7697   409.1    8.239      38.737
2015    4       26    15   4    4.7664   409.2    8.224      38.717
2015    4       26    15  10    4.7630   409.3    8.208      38.697
2015    4       26    15  16    4.7597   409.4    8.193      38.677
2015    4       26    15  22    4.7562   409.5    8.177      38.656
2015    4       26    15  28    4.7527   409.6    8.162      38.636
2015    4       26    15  34    4.7492   409.7    8.146      38.616
2015    4       26    15  40    4.7456   409.8    8.131      38.596
2015    4       26    15  47    4.7420   409.9    8.115      38.576
2015    4       26    15  53    4.7384   410.0    8.100      38.555
2015    4       26    15  59    4.7348   410.1    8.084      38.535
2015    4       26    16   5    4.7310   410.3    8.068      38.514
2015    4       26    16  11    4.7273   410.4    8.052      38.494
2015    4       26    16  17    4.7235   410.5    8.035      38.473
2015    4       26    16  23    4.7196   410.6    8.019      38.451
2015    4       26    16  29    4.7156   410.7    8.002      38.426
2015    4       26    16  35    4.7115   410.8    7.984      38.401
2015    4       26    16  42    4.7074   410.9    7.967      38.374
2015    4       26    16  48    4.7032   411.0    7.950      38.347
2015    4       26    16  54    4.6990   411.1    7.933      38.319
2015    4       26    17   0    4.6948   411.1    7.916      38.289
2015    4       26    17   6    4.6906   411.2    7.899      38.259
2015    4       26    17  12    4.6864   411.3    7.882      38.228
2015    4       26    17  18    4.6823   411.3    7.866      38.199
2015    4       26    17  24    4.6782   411.4    7.850      38.169
2015    4       26    17  30    4.6742   411.5    7.834      38.139
2015    4       26    17  37    4.6702   411.6    7.819      38.109
2015    4       26    17  43    4.6662   411.6    7.803      38.079
2015    4       26    17  49    4.6623   411.7    7.788      38.048
2015    4       26    17  55    4.6584   411.8    7.773      38.018
2015    4       26    18   1    4.6545   411.8    7.759      37.987
2015    4       26    18   7    4.6506   411.9    7.745      37.957
2015    4       26    18  13    4.6468   412.0    7.730      37.926
2015    4       26    18  19    4.6429   412.0    7.716      37.895
2015    4       26    18  25    4.6391   412.1    7.703      37.864
2015    4       26    18  32    4.6353   412.2    7.689      37.832
2015    4       26    18  38    4.6315   412.2    7.676      37.800
2015    4       26    18  44    4.6277   412.3    7.662      37.768
2015    4       26    18  50    4.6239   412.3    7.649      37.736
2015    4       26    18  56    4.6201   412.4    7.636      37.704
2015    4       26    19   2    4.6163   412.5    7.623      37.671
2015    4       26    19   8    4.6125   412.5    7.610      37.638
2015    4       26    19  14    4.6087   412.6    7.598      37.605
2015    4       26    19  20    4.6049   412.6    7.585      37.572
2015    4       26    19  27    4.6011   412.7    7.573      37.539
2015    4       26    19  33    4.5973   412.8    7.561      37.506
2015    4       26    19  39    4.5935   412.8    7.549      37.472
2015    4       26    19  45    4.5897   412.9    7.537      37.439
2015    4       26    19  51    4.5859   412.9    7.525      37.405
2015    4       26    19  57    4.5821   413.0    7.513      37.372
2015    4       26    20   3    4.5782   413.0    7.502      37.338
2015    4       26    20   9    4.5744   413.1    7.490      37.304
2015    4       26    20  15    4.5706   413.1    7.479      37.270
2015    4       26    20  22    4.5668   413.1    7.468      37.236
2015    4       26    20  28    4.5630   413.2    7.456      37.202
2015    4       26    20  34    4.5592   413.2    7.445      37.168
2015    4       26    20  40    4.5554   413.3    7.435      37.133
2015    4       26    20  46    4.5516   413.3    7.424      37.098
2015    4       26    20  52    4.5478   413.3    7.413      37.063
2015    4       26    20  58    4.5440   413.4    7.402      37.028
2015    4       26    21   4    4.5402   413.4    7.392      36.993
2015    4       26    21  10    4.5365   413.4    7.382      36.958
2015    4       26    21  17    4.5328   413.5    7.371      36.922
2015    4       26    21  23    4.5290   413.5    7.361      36.888
2015    4       26    21  29    4.5253   413.5    7.351      36.853
2015    4       26    21  35    4.5216   413.5    7.341      36.818
2015    4       26    21  41    4.5180   413.6    7.332      36.783
2015    4       26    21  47    4.5143   413.6    7.322      36.748
2015    4       26    21  53    4.5107   413.6    7.312      36.713
2015    4       26    21  59    4.5071   413.6    7.303      36.678
2015    4       26    22   5    4.5035   413.7    7.293      36.643
2015    4       26    22  12    4.4999   413.7    7.284      36.607
2015    4       26    22  18    4.4963   413.7    7.275      36.572
2015    4       26    22  24    4.4928   413.7    7.266      36.536
2015    4       26    22  30    4.4892   413.7    7.257      36.500
2015    4       26    22  36    4.4857   413.7    7.248      36.465
2015    4       26    22  42    4.4821   413.7    7.239      36.429
2015    4       26    22  48    4.4786   413.7    7.230      36.393
2015    4       26    22  54    4.4750   413.8    7.221      36.357
2015    4       26    23   0    4.4714   413.8    7.212      36.321
2015    4       26    23   7    4.4679   413.8    7.204      36.285
2015    4       26    23  13    4.4643   413.8    7.195      36.250
2015    4       26    23  19    4.4608   413.8    7.187      36.214
2015    4       26    23  25    4.4573   413.8    7.179      36.178
2015    4       26    23  31    4.4538   413.8    7.170      36.142
2015    4       26    23  37    4.4503   413.8    7.162      36.107
2015    4       26    23  43    4.4468   413.8    7.154      36.071
2015    4       26    23  49    4.4434   413.8    7.146      36.036
2015    4       26    23  55    4.4399   413.8    7.138      36.001
2015    4       27     0   2    4.4365   413.8    7.130      35.966
2015    4       27     0   8    4.4332   413.8    7.122      35.931
2015    4       27     0  14    4.4298   413.8    7.114      35.897
2015    4       27     0  20    4.4265   413.8    7.106      35.862
2015    4       27     0  26    4.4231   413.8    7.099      35.828
2015    4       27     0  32    4.4199   413.8    7.091      35.793
2015    4       27     0  38    4.4166   413.8    7.084      35.759
2015    4       27     0  44    4.4134   413.8    7.076      35.724
2015    4       27     0  50    4.4102   413.7    7.069      35.689
2015    4       27     0  57    4.4070   413.7    7.062      35.654
2015    4       27     1   3    4.4038   413.7    7.055      35.619
2015    4       27     1   9    4.4007   413.7    7.048      35.583
2015    4       27     1  15    4.3976   413.7    7.041      35.547
2015    4       27     1  21    4.3945   413.7    7.035      35.511
2015    4       27     1  27    4.3914   413.7    7.028      35.474
2015    4       27     1  33    4.3884   413.7    7.022      35.438
2015    4       27     1  39    4.3854   413.7    7.015      35.401
2015    4       27     1  45    4.3824   413.7    7.009      35.364
2015    4       27     1  52    4.3794   413.7    7.003      35.328
2015    4       27     1  58    4.3764   413.6    6.997      35.291
2015    4       27     2   4    4.3735   413.6    6.991      35.254
2015    4       27     2  10    4.3705   413.6    6.986      35.217
2015    4       27     2  16    4.3676   413.6    6.980      35.181
2015    4       27     2  22    4.3647   413.6    6.974      35.144
2015    4       27     2  28    4.3618   413.6    6.969      35.107
2015    4       27     2  34    4.3590   413.6    6.964      35.071
2015    4       27     2  40    4.3562   413.5    6.959      35.035
2015    4       27     2  47    4.3533   413.5    6.954      34.999
2015    4       27     2  53    4.3505   413.5    6.949      34.963
2015    4       27     2  59    4.3478   413.5    6.944      34.928
2015    4       27     3   5    4.3450   413.5    6.940      34.893
2015    4       27     3  11    4.3423   413.4    6.935      34.858
2015    4       27     3  17    4.3396   413.4    6.931      34.824
2015    4       27     3  23    4.3369   413.4    6.927      34.790
2015    4       27     3  29    4.3342   413.4    6.923      34.756
2015    4       27     3  35    4.3316   413.3    6.919      34.723
2015    4       27     3  42    4.3290   413.3    6.915      34.691
2015    4       27     3  48    4.3264   413.3    6.912      34.659
2015    4       27     3  54    4.3239   413.3    6.908      34.627
2015    4       27     4   0    4.3213   413.2    6.905      34.597
2015    4       27     4   6    4.3188   413.2    6.902      34.566
2015    4       27     4  12    4.3164   413.2    6.898      34.536
2015    4       27     4  18    4.3140   413.1    6.895      34.507
2015    4       27     4  24    4.3116   413.1    6.893      34.478
2015    4       27     4  31    4.3092   413.1    6.890      34.450
2015    4       27     4  37    4.3069   413.0    6.887      34.422
2015    4       27     4  43    4.3046   413.0    6.885      34.394
2015    4       27     4  49    4.3024   413.0    6.883      34.367
2015    4       27     4  55    4.3002   412.9    6.880      34.340
2015    4       27     5   1    4.2980   412.9    6.878      34.314
2015    4       27     5   7    4.2958   412.9    6.876      34.287
2015    4       27     5  13    4.2938   412.8    6.874      34.261
2015    4       27     5  19    4.2917   412.8    6.872      34.235
2015    4       27     5  26    4.2897   412.8    6.871      34.208
2015    4       27     5  32    4.2877   412.7    6.869      34.182
2015    4       27     5  38    4.2857   412.7    6.867      34.155
2015    4       27     5  44    4.2838   412.6    6.866      34.129
2015    4       27     5  50    4.2819   412.6    6.864      34.102
2015    4       27     5  56    4.2800   412.6    6.863      34.075
2015    4       27     6   2    4.2781   412.5    6.861      34.048
2015    4       27     6   8    4.2762   412.5    6.860      34.022
2015    4       27     6  14    4.2744   412.4    6.859      33.995
2015    4       27     6  21    4.2725   412.4    6.858      33.968
2015    4       27     6  27    4.2707   412.3    6.856      33.941
2015    4       27     6  33    4.2689   412.3    6.855      33.915
2015    4       27     6  39    4.2671   412.3    6.854      33.888
2015    4       27     6  45    4.2653   412.2    6.853      33.861
2015    4       27     6  51    4.2635   412.2    6.852      33.834
2015    4       27     6  57    4.2618   412.1    6.851      33.808
2015    4       27     7   3    4.2600   412.1    6.850      33.781
2015    4       27     7   9    4.2583   412.1    6.849      33.754
2015    4       27     7  16    4.2565   412.0    6.848      33.727
2015    4       27     7  22    4.2548   412.0    6.847      33.700
2015    4       27     7  28    4.2531   411.9    6.846      33.674
2015    4       27     7  34    4.2514   411.9    6.845      33.647
2015    4       27     7  40    4.2497   411.8    6.844      33.620
2015    4       27     7  46    4.2480   411.8    6.843      33.593
2015    4       27     7  52    4.2463   411.7    6.842      33.567
2015    4       27     7  58    4.2447   411.7    6.841      33.540
2015    4       27     8   4    4.2431   411.7    6.840      33.514
2015    4       27     8  11    4.2414   411.6    6.839      33.487
2015    4       27     8  17    4.2398   411.6    6.839      33.461
2015    4       27     8  23    4.2382   411.5    6.838      33.434
2015    4       27     8  29    4.2367   411.5    6.837      33.408
2015    4       27     8  35    4.2351   411.4    6.836      33.382
2015    4       27     8  41    4.2336   411.4    6.835      33.357
2015    4       27     8  47    4.2321   411.3    6.834      33.331
2015    4       27     8  53    4.2306   411.3    6.833      33.305
2015    4       27     8  59    4.2291   411.3    6.833      33.280
2015    4       27     9   6    4.2277   411.2    6.832      33.255
2015    4       27     9  12    4.2262   411.2    6.831      33.230
2015    4       27     9  18    4.2248   411.1    6.830      33.205
2015    4       27     9  24    4.2234   411.1    6.830      33.180
2015    4       27     9  30    4.2220   411.0    6.829      33.155
2015    4       27     9  36    4.2207   411.0    6.828      33.131
2015    4       27     9  42    4.2194   410.9    6.827      33.106
2015    4       27     9  48    4.2180   410.9    6.827      33.082
2015    4       27     9  54    4.2167   410.8    6.826      33.058
2015    4       27    10   1    4.2155   410.8    6.825      33.034
2015    4       27    10   7    4.2142   410.7    6.824      33.010
2015    4       27    10  13    4.2130   410.7    6.824      32.987
2015    4       27    10  19    4.2118   410.6    6.823      32.963
2015    4       27    10  25    4.2106   410.6    6.822      32.940
2015    4       27    10  31    4.2095   410.5    6.822      32.917
2015    4       27    10  37    4.2083   410.5    6.821      32.895
2015    4       27    10  43    4.2072   410.4    6.820      32.872
2015    4       27    10  49    4.2061   410.4    6.820      32.850
2015    4       27    10  56    4.2050   410.3    6.819      32.828
2015    4       27    11   2    4.2040   410.3    6.818      32.806
2015    4       27    11   8    4.2029   410.2    6.818      32.784
2015    4       27    11  14    4.2019   410.2    6.817      32.762
2015    4       27    11  20    4.2009   410.1    6.816      32.740
2015    4       27    11  26    4.1999   410.1    6.816      32.718
2015    4       27    11  32    4.1989   410.0    6.815      32.696
2015    4       27    11  38    4.1979   409.9    6.814      32.675
2015    4       27    11  44    4.1970   409.9    6.814      32.653
2015    4       27    11  51    4.1960   409.8    6.813      32.632
2015    4       27    11  57    4.1951   409.8    6.813      32.610
2015    4       27    12   3    4.1942   409.7    6.812      32.589
2015    4       27    12   9    4.1933   409.7    6.812      32.568
2015    4       27    12  15    4.1925   409.6    6.811      32.547
2015    4       27    12  21    4.1916   409.6    6.811      32.526
2015    4       27    12  27    4.1908   409.5    6.810      32.505
2015    4       27    12  33    4.1899   409.5    6.810      32.484
2015    4       27    12  39    4.1891   409.4    6.810      32.463
2015    4       27    12  46    4.1883   409.4    6.809      32.443
2015    4       27    12  52    4.1875   409.3    6.809      32.422
2015    4       27    12  58    4.1867   409.3    6.809      32.402
2015    4       27    13   4    4.1860   409.2    6.809      32.382
2015    4       27    13  10    4.1852   409.1    6.809      32.361
2015    4       27    13  16    4.1845   409.1    6.809      32.342
2015    4       27    13  22    4.1838   409.0    6.809      32.322
2015    4       27    13  28    4.1831   409.0    6.809      32.302
2015    4       27    13  34    4.1824   408.9    6.809      32.282
2015    4       27    13  41    4.1818   408.9    6.809      32.263
2015    4       27    13  47    4.1811   408.8    6.810      32.243
2015    4       27    13  53    4.1805   408.7    6.810      32.224
2015    4       27    13  59    4.1799   408.7    6.811      32.206
2015    4       27    14   5    4.1794   408.6    6.811      32.187
2015    4       27    14  11    4.1788   408.6    6.812      32.168
2015    4       27    14  17    4.1783   408.5    6.812      32.150
2015    4       27    14  23    4.1778   408.5    6.813      32.132
2015    4       27    14  29    4.1772   408.4    6.814      32.114
2015    4       27    14  36    4.1768   408.3    6.815      32.096
2015    4       27    14  42    4.1763   408.3    6.816      32.078
2015    4       27    14  48    4.1758   408.2    6.817      32.060
2015    4       27    14  54    4.1754   408.2    6.817      32.042
2015    4       27    15   0    4.1750   408.1    6.818      32.024
2015    4       27    15   6    4.1746   408.1    6.820      32.007
2015    4       27    15  12    4.1742   408.0    6.821      31.989
2015    4       27    15  18    4.1738   407.9    6.822      31.972
2015    4       27    15  24    4.1735   407.9    6.823      31.954
2015    4       27    15  31    4.1731   407.8    6.824      31.937
2015    4       27    15  37    4.1728   407.8    6.826      31.920
2015    4       27    15  43    4.1725   407.7    6.827      31.903
2015    4       27    15  49    4.1722   407.7    6.828      31.887
2015    4       27    15  55    4.1720   407.6    6.830      31.870
2015    4       27    16   1    4.1717   407.5    6.831      31.853
2015    4       27    16   7    4.1715   407.5    6.833      31.837
2015    4       27    16  13    4.1712   407.4    6.834      31.820
2015    4       27    16  20    4.1710   407.4    6.836      31.804
2015    4       27    16  26    4.1708   407.3    6.838      31.787
2015    4       27    16  32    4.1707   407.3    6.839      31.771
2015    4       27    16  38    4.1705   407.2    6.841      31.755
2015    4       27    16  44    4.1703   407.2    6.843      31.738
2015    4       27    16  50    4.1702   407.1    6.845      31.722
2015    4       27    16  56    4.1701   407.0    6.847      31.706
2015    4       27    17   2    4.1700   407.0    6.848      31.690
2015    4       27    17   8    4.1699   406.9    6.850      31.674
2015    4       27    17  15    4.1698   406.9    6.852      31.659
2015    4       27    17  21    4.1697   406.8    6.854      31.643
2015    4       27    17  27    4.1697   406.7    6.856      31.628
2015    4       27    17  33    4.1696   406.7    6.858      31.613
2015    4       27    17  39    4.1696   406.6    6.860      31.598
2015    4       27    17  45    4.1696   406.6    6.862      31.584
2015    4       27    17  51    4.1696   406.5    6.864      31.569
2015    4       27    17  57    4.1697   406.4    6.866      31.555
2015    4       27    18   3    4.1697   406.4    6.868      31.541
2015    4       27    18  10    4.1697   406.3    6.869      31.527
2015    4       27    18  16    4.1698   406.3    6.871      31.514
2015    4       27    18  22    4.1699   406.2    6.873      31.500
2015    4       27    18  28    4.1700   406.2    6.875      31.486
2015    4       27    18  34    4.1701   406.1    6.877      31.473
2015    4       27    18  40    4.1702   406.0    6.878      31.459
2015    4       27    18  46    4.1703   406.0    6.880      31.445
2015    4       27    18  52    4.1705   405.9    6.882      31.432
2015    4       27    18  58    4.1706   405.9    6.884      31.419
2015    4       27    19   5    4.1708   405.8    6.885      31.405
2015    4       27    19  11    4.1710   405.7    6.887      31.392
2015    4       27    19  17    4.1711   405.7    6.889      31.379
2015    4       27    19  23    4.1713   405.6    6.891      31.366
2015    4       27    19  29    4.1716   405.6    6.893      31.353
2015    4       27    19  35    4.1718   405.5    6.894      31.340
2015    4       27    19  41    4.1720   405.4    6.896      31.328
2015    4       27    19  47    4.1723   405.4    6.898      31.315
2015    4       27    19  53    4.1726   405.3    6.900      31.302
2015    4       27    20   0    4.1729   405.3    6.902      31.290
2015    4       27    20   6    4.1732   405.2    6.904      31.278
2015    4       27    20  12    4.1736   405.1    6.906      31.266
2015    4       27    20  18    4.1739   405.1    6.907      31.254
2015    4       27    20  24    4.1743   405.0    6.909      31.243
2015    4       27    20  30    4.1748   404.9    6.912      31.231
2015    4       27    20  36    4.1752   404.9    6.914      31.221
2015    4       27    20  42    4.1756   404.8    6.916      31.210
2015    4       27    20  48    4.1761   404.8    6.918      31.199
2015    4       27    20  55    4.1766   404.7    6.920      31.189
2015    4       27    21   1    4.1771   404.6    6.922      31.179
2015    4       27    21   7    4.1777   404.6    6.925      31.170
2015    4       27    21  13    4.1783   404.5    6.927      31.160
2015    4       27    21  19    4.1789   404.4    6.930      31.151
2015    4       27    21  25    4.1795   404.4    6.932      31.142
2015    4       27    21  31    4.1802   404.3    6.935      31.134
2015    4       27    21  37    4.1809   404.3    6.938      31.125
2015    4       27    21  43    4.1816   404.2    6.941      31.117
2015    4       27    21  50    4.1823   404.1    6.944      31.109
2015    4       27    21  56    4.1831   404.1    6.947      31.102
2015    4       27    22   2    4.1839   404.0    6.950      31.094
2015    4       27    22   8    4.1848   404.0    6.953      31.087
2015    4       27    22  14    4.1856   403.9    6.957      31.080
2015    4       27    22  20    4.1866   403.9    6.960      31.073
2015    4       27    22  26    4.1875   403.8    6.964      31.067
2015    4       27    22  32    4.1884   403.7    6.968      31.061
2015    4       27    22  38    4.1894   403.7    6.972      31.055
2015    4       27    22  45    4.1904   403.6    6.975      31.049
2015    4       27    22  51    4.1914   403.6    6.979      31.043
2015    4       27    22  57    4.1925   403.5    6.983      31.038
2015    4       27    23   3    4.1936   403.5    6.988      31.032
2015    4       27    23   9    4.1947   403.4    6.992      31.027
2015    4       27    23  15    4.1958   403.3    6.996      31.022
2015    4       27    23  21    4.1969   403.3    7.000      31.017
2015    4       27    23  27    4.1981   403.2    7.005      31.012
2015    4       27    23  33    4.1992   403.2    7.009      31.008
2015    4       27    23  40    4.2004   403.1    7.014      31.003
2015    4       27    23  46    4.2016   403.1    7.018      30.998
2015    4       27    23  52    4.2028   403.0    7.023      30.993
2015    4       27    23  58    4.2040   403.0    7.027      30.989
2015    4       28     0   4    4.2053   402.9    7.032      30.984
2015    4       28     0  10    4.2065   402.9    7.037      30.979
2015    4       28     0  16    4.2078   402.8    7.041      30.975
2015    4       28     0  22    4.2091   402.8    7.046      30.970
2015    4       28     0  28    4.2104   402.7    7.051      30.966
2015    4       28     0  35    4.2117   402.6    7.055      30.962
2015    4       28     0  41    4.2131   402.6    7.060      30.958
2015    4       28     0  47    4.2144   402.5    7.065      30.954
2015    4       28     0  53    4.2158   402.5    7.070      30.950
2015    4       28     0  59    4.2172   402.4    7.075      30.946
2015    4       28     1   5    4.2186   402.4    7.080      30.942
2015    4       28     1  11    4.2201   402.3    7.084      30.939
2015    4       28     1  17    4.2216   402.3    7.089      30.936
2015    4       28     1  23    4.2231   402.2    7.094      30.933
2015    4       28     1  30    4.2246   402.2    7.100      30.931
2015    4       28     1  36    4.2261   402.1    7.105      30.928
2015    4       28     1  42    4.2277   402.1    7.110      30.926
2015    4       28     1  48    4.2293   402.0    7.115      30.924
2015    4       28     1  54    4.2310   402.0    7.120      30.922
2015    4       28     2   0    4.2326   401.9    7.126      30.921
2015    4       28     2   6    4.2343   401.9    7.131      30.920
2015    4       28     2  12    4.2361   401.8    7.136      30.919
2015    4       28     2  18    4.2378   401.8    7.142      30.918
2015    4       28     2  25    4.2396   401.7    7.147      30.918
2015    4       28     2  31    4.2414   401.7    7.153      30.918
2015    4       28     2  37    4.2433   401.6    7.159      30.918
2015    4       28     2  43    4.2452   401.6    7.165      30.918
2015    4       28     2  49    4.2471   401.6    7.170      30.919
2015    4       28     2  55    4.2491   401.5    7.176      30.920
2015    4       28     3   1    4.2511   401.5    7.182      30.922
2015    4       28     3   7    4.2531   401.4    7.189      30.923
2015    4       28     3  13    4.2552   401.4    7.195      30.926
2015    4       28     3  20    4.2572   401.3    7.201      30.929
2015    4       28     3  26    4.2593   401.3    7.207      30.933
2015    4       28     3  32    4.2614   401.3    7.213      30.937
2015    4       28     3  38    4.2636   401.2    7.219      30.942
2015    4       28     3  44    4.2657   401.2    7.225      30.948
2015    4       28     3  50    4.2679   401.2    7.231      30.954
2015    4       28     3  56    4.2701   401.1    7.237      30.961
2015    4       28     4   2    4.2723   401.1    7.243      30.969
2015    4       28     4   8    4.2745   401.1    7.249      30.976
2015    4       28     4  15    4.2767   401.1    7.255      30.984
2015    4       28     4  21    4.2789   401.0    7.261      30.992
2015    4       28     4  27    4.2811   401.0    7.266      31.000
2015    4       28     4  33    4.2833   401.0    7.272      31.008
2015    4       28     4  39    4.2855   400.9    7.278      31.017
2015    4       28     4  45    4.2877   400.9    7.283      31.025
2015    4       28     4  51    4.2900   400.9    7.289      31.033
2015    4       28     4  57    4.2922   400.9    7.295      31.041
2015    4       28     5   3    4.2945   400.8    7.300      31.050
2015    4       28     5  10    4.2968   400.8    7.306      31.058
2015    4       28     5  16    4.2991   400.8    7.311      31.067
2015    4       28     5  22    4.3014   400.8    7.317      31.075
2015    4       28     5  28    4.3037   400.7    7.322      31.084
2015    4       28     5  34    4.3060   400.7    7.328      31.092
2015    4       28     5  40    4.3083   400.7    7.333      31.100
2015    4       28     5  46    4.3106   400.7    7.339      31.109
2015    4       28     5  52    4.3130   400.7    7.344      31.117
2015    4       28     5  59    4.3154   400.6    7.350      31.125
2015    4       28     6   5    4.3177   400.6    7.355      31.134
2015    4       28     6  11    4.3201   400.6    7.361      31.142
2015    4       28     6  17    4.3225   400.6    7.366      31.151
2015    4       28     6  23    4.3249   400.6    7.372      31.159
2015    4       28     6  29    4.3273   400.5    7.377      31.168
2015    4       28     6  35    4.3297   400.5    7.382      31.176
2015    4       28     6  41    4.3321   400.5    7.388      31.185
2015    4       28     6  47    4.3345   400.5    7.393      31.194
2015    4       28     6  54    4.3370   400.5    7.398      31.202
2015    4       28     7   0    4.3394   400.5    7.404      31.211
2015    4       28     7   6    4.3419   400.4    7.409      31.220
2015    4       28     7  12    4.3444   400.4    7.415      31.229
2015    4       28     7  18    4.3468   400.4    7.420      31.238
2015    4       28     7  24    4.3493   400.4    7.425      31.248
2015    4       28     7  30    4.3518   400.4    7.431      31.257
2015    4       28     7  36    4.3544   400.4    7.436      31.267
2015    4       28     7  42    4.3569   400.4    7.441      31.276
2015    4       28     7  49    4.3595   400.3    7.447      31.286
2015    4       28     7  55    4.3620   400.3    7.452      31.296
2015    4       28     8   1    4.3647   400.3    7.458      31.307
2015    4       28     8   7    4.3673   400.3    7.463      31.317
2015    4       28     8  13    4.3699   400.3    7.469      31.328
2015    4       28     8  19    4.3726   400.3    7.474      31.339
2015    4       28     8  25    4.3752   400.3    7.480      31.351
2015    4       28     8  31    4.3779   400.3    7.485      31.362
2015    4       28     8  37    4.3806   400.3    7.491      31.375
2015    4       28     8  44    4.3834   400.3    7.496      31.387
2015    4       28     8  50    4.3861   400.3    7.501      31.400
2015    4       28     8  56    4.3889   400.3    7.507      31.414
2015    4       28     9   2    4.3916   400.3    7.512      31.428
2015    4       28     9   8    4.3944   400.2    7.518      31.442
2015    4       28     9  14    4.3972   400.2    7.523      31.457
2015    4       28     9  20    4.4000   400.2    7.528      31.472
2015    4       28     9  26    4.4028   400.2    7.534      31.487
2015    4       28     9  32    4.4057   400.2    7.539      31.502
2015    4       28     9  39    4.4085   400.2    7.544      31.518
2015    4       28     9  45    4.4114   400.2    7.550      31.533
2015    4       28     9  51    4.4142   400.2    7.555      31.549
2015    4       28     9  57    4.4171   400.2    7.560      31.565
2015    4       28    10   3    4.4200   400.2    7.566      31.581
2015    4       28    10   9    4.4229   400.2    7.571      31.597
2015    4       28    10  15    4.4258   400.3    7.577      31.613
2015    4       28    10  21    4.4288   400.3    7.582      31.630
2015    4       28    10  27    4.4317   400.3    7.588      31.646
2015    4       28    10  34    4.4347   400.3    7.593      31.663
2015    4       28    10  40    4.4377   400.3    7.599      31.681
2015    4       28    10  46    4.4406   400.3    7.605      31.698
2015    4       28    10  52    4.4436   400.3    7.610      31.717
2015    4       28    10  58    4.4466   400.3    7.616      31.735
2015    4       28    11   4    4.4496   400.3    7.621      31.754
2015    4       28    11  10    4.4526   400.3    7.627      31.774
2015    4       28    11  16    4.4556   400.3    7.632      31.794
2015    4       28    11  22    4.4585   400.4    7.638      31.814
2015    4       28    11  29    4.4615   400.4    7.643      31.835
2015    4       28    11  35    4.4645   400.4    7.648      31.855
2015    4       28    11  41    4.4675   400.4    7.653      31.876
2015    4       28    11  47    4.4704   400.4    7.659      31.897
2015    4       28    11  53    4.4734   400.4    7.664      31.918
2015    4       28    11  59    4.4763   400.4    7.669      31.939
2015    4       28    12   5    4.4793   400.5    7.674      31.960
2015    4       28    12  11    4.4822   400.5    7.679      31.982
2015    4       28    12  17    4.4851   400.5    7.683      32.004
2015    4       28    12  24    4.4881   400.5    7.688      32.026
2015    4       28    12  30    4.4910   400.5    7.693      32.047
2015    4       28    12  36    4.4939   400.6    7.697      32.069
2015    4       28    12  42    4.4967   400.6    7.702      32.091
2015    4       28    12  48    4.4996   400.6    7.706      32.112
2015    4       28    12  54    4.5024   400.6    7.710      32.133
2015    4       28    13   0    4.5053   400.6    7.715      32.154
2015    4       28    13   6    4.5081   400.7    7.719      32.175
2015    4       28    13  12    4.5109   400.7    7.723      32.195
2015    4       28    13  19    4.5137   400.7    7.726      32.216
2015    4       28    13  25    4.5165   400.7    7.730      32.236
2015    4       28    13  31    4.5193   400.7    7.734      32.256
2015    4       28    13  37    4.5220   400.8    7.737      32.276
2015    4       28    13  43    4.5248   400.8    7.741      32.297
2015    4       28    13  49    4.5275   400.8    7.744      32.317
2015    4       28    13  55    4.5302   400.9    7.748      32.337
2015    4       28    14   1    4.5329   400.9    7.751      32.357
2015    4       28    14   7    4.5356   400.9    7.754      32.378
2015    4       28    14  14    4.5383   400.9    7.757      32.398
2015    4       28    14  20    4.5410   401.0    7.760      32.418
2015    4       28    14  26    4.5437   401.0    7.763      32.438
2015    4       28    14  32    4.5463   401.0    7.766      32.458
2015    4       28    14  38    4.5490   401.1    7.768      32.478
2015    4       28    14  44    4.5517   401.1    7.771      32.499
2015    4       28    14  50    4.5543   401.1    7.774      32.519
2015    4       28    14  56    4.5570   401.1    7.776      32.539
2015    4       28    15   2    4.5596   401.2    7.779      32.559
2015    4       28    15   9    4.5623   401.2    7.782      32.579
2015    4       28    15  15    4.5650   401.2    7.784      32.599
2015    4       28    15  21    4.5676   401.3    7.787      32.619
2015    4       28    15  27    4.5703   401.3    7.790      32.639
2015    4       28    15  33    4.5730   401.3    7.792      32.660
2015    4       28    15  39    4.5757   401.4    7.794      32.680
2015    4       28    15  45    4.5783   401.4    7.797      32.701
2015    4       28    15  51    4.5810   401.4    7.799      32.722
2015    4       28    15  57    4.5837   401.5    7.801      32.743
2015    4       28    16   4    4.5863   401.5    7.804      32.764
2015    4       28    16  10    4.5890   401.5    7.806      32.786
2015    4       28    16  16    4.5917   401.6    7.808      32.807
2015    4       28    16  22    4.5943   401.6    7.810      32.829
2015    4       28    16  28    4.5970   401.7    7.812      32.851
2015    4       28    16  34    4.5996   401.7    7.814      32.874
2015    4       28    16  40    4.6022   401.7    7.816      32.896
2015    4       28    16  46    4.6049   401.8    7.818      32.918
2015    4       28    16  52    4.6075   401.8    7.820      32.940
2015    4       28    16  59    4.6101   401.8    7.822      32.963
2015    4       28    17   5    4.6127   401.9    7.824      32.985
2015    4       28    17  11    4.6153   401.9    7.826      33.008
2015    4       28    17  17    4.6179   402.0    7.828      33.030
2015    4       28    17  23    4.6205   402.0    7.830      33.053
2015    4       28    17  29    4.6232   402.0    7.832      33.075
2015    4       28    17  35    4.6258   402.1    7.834      33.098
2015    4       28    17  41    4.6284   402.1    7.837      33.121
2015    4       28    17  48    4.6311   402.2    7.839      33.144
2015    4       28    17  54    4.6337   402.2    7.841      33.167
2015    4       28    18   0    4.6364   402.2    7.844      33.191
2015    4       28    18   6    4.6390   402.3    7.846      33.216
2015    4       28    18  12    4.6417   402.3    7.849      33.240
2015    4       28    18  18    4.6443   402.4    7.851      33.266
2015    4       28    18  24    4.6470   402.4    7.854      33.291
2015    4       28    18  30    4.6496   402.5    7.857      33.317
2015    4       28    18  36    4.6523   402.5    7.859      33.343
2015    4       28    18  43    4.6549   402.6    7.862      33.369
2015    4       28    18  49    4.6576   402.6    7.865      33.395
2015    4       28    18  55    4.6602   402.7    7.868      33.421
2015    4       28    19   1    4.6629   402.7    7.870      33.446
2015    4       28    19   7    4.6655   402.8    7.873      33.472
2015    4       28    19  13    4.6682   402.8    7.876      33.498
2015    4       28    19  19    4.6708   402.9    7.879      33.525
2015    4       28    19  25    4.6735   402.9    7.882      33.552
2015    4       28    19  31    4.6761   403.0    7.884      33.580
2015    4       28    19  38    4.6787   403.0    7.887      33.608
2015    4       28    19  44    4.6813   403.1    7.889      33.637
2015    4       28    19  50    4.6838   403.1    7.892      33.666
2015    4       28    19  56    4.6864   403.2    7.894      33.696
2015    4       28    20   2    4.6889   403.2    7.896      33.725
2015    4       28    20   8    4.6913   403.3    7.898      33.754
2015    4       28    20  14    4.6938   403.4    7.900      33.782
2015    4       28    20  20    4.6962   403.4    7.901      33.811
2015    4       28    20  26    4.6986   403.5    7.903      33.839
2015    4       28    20  33    4.7010   403.5    7.904      33.866
2015    4       28    20  39    4.7034   403.6    7.905      33.894
2015    4       28    20  45    4.7057   403.6    7.906      33.921
2015    4       28    20  51    4.7080   403.7    7.907      33.947
2015    4       28    20  57    4.7103   403.8    7.908      33.974
2015    4       28    21   3    4.7126   403.8    7.909      34.000
2015    4       28    21   9    4.7148   403.9    7.909      34.026
2015    4       28    21  15    4.7171   403.9    7.910      34.051
2015    4       28    21  21    4.7193   404.0    7.910      34.076
2015    4       28    21  28    4.7215   404.0    7.911      34.101
2015    4       28    21  34    4.7237   404.1    7.911      34.125
2015    4       28    21  40    4.7259   404.2    7.911      34.150
2015    4       28    21  46    4.7281   404.2    7.911      34.174
2015    4       28    21  52    4.7302   404.3    7.911      34.198
2015    4       28    21  58    4.7324   404.3    7.912      34.222
2015    4       28    22   4    4.7346   404.4    7.912      34.245
2015    4       28    22  10    4.7367   404.5    7.911      34.269
2015    4       28    22  16    4.7389   404.5    7.911      34.293
2015    4       28    22  23    4.7410   404.6    7.911      34.317
2015    4       28    22  29    4.7431   404.7    7.911      34.340
2015    4       28    22  35    4.7452   404.7    7.911      34.364
2015    4       28    22  41    4.7473   404.8    7.911      34.388
2015    4       28    22  47    4.7494   404.9    7.910      34.412
2015    4       28    22  53    4.7515   404.9    7.910      34.436
2015    4       28    22  59    4.7535   405.0    7.910      34.459
2015    4       28    23   5    4.7556   405.1    7.909      34.483
2015    4       28    23  11    4.7576   405.1    7.909      34.507
2015    4       28    23  18    4.7596   405.2    7.908      34.531
2015    4       28    23  24    4.7616   405.3    7.908      34.554
2015    4       28    23  30    4.7636   405.3    7.907      34.577
2015    4       28    23  36    4.7656   405.4    7.906      34.600
2015    4       28    23  42    4.7676   405.5    7.906      34.622
2015    4       28    23  48    4.7695   405.5    7.905      34.644
2015    4       28    23  54    4.7714   405.6    7.904      34.666
2015    4       29     0   0    4.7733   405.7    7.903      34.688
2015    4       29     0   6    4.7752   405.7    7.902      34.710
2015    4       29     0  13    4.7771   405.8    7.901      34.731
2015    4       29     0  19    4.7790   405.9    7.900      34.753
2015    4       29     0  25    4.7809   406.0    7.899      34.774
2015    4       29     0  31    4.7827   406.0    7.899      34.795
2015    4       29     0  37    4.7846   406.1    7.898      34.816
2015    4       29     0  43    4.7865   406.2    7.897      34.836
2015    4       29     0  49    4.7884   406.2    7.896      34.857
2015    4       29     0  55    4.7902   406.3    7.895      34.878
2015    4       29     1   1    4.7921   406.4    7.894      34.899
2015    4       29     1   8    4.7940   406.5    7.894      34.919
2015    4       29     1  14    4.7959   406.5    7.893      34.941
2015    4       29     1  20    4.7978   406.6    7.893      34.962
2015    4       29     1  26    4.7997   406.7    7.892      34.984
2015    4       29     1  32    4.8016   406.8    7.892      35.006
2015    4       29     1  38    4.8035   406.8    7.892      35.028
2015    4       29     1  44    4.8054   406.9    7.891      35.051
2015    4       29     1  50    4.8073   407.0    7.891      35.074
2015    4       29     1  56    4.8093   407.1    7.891      35.097
2015    4       29     2   3    4.8112   407.2    7.890      35.120
2015    4       29     2   9    4.8131   407.2    7.890      35.144
2015    4       29     2  15    4.8150   407.3    7.890      35.166
2015    4       29     2  21    4.8169   407.4    7.890      35.189
2015    4       29     2  27    4.8189   407.5    7.890      35.212
2015    4       29     2  33    4.8208   407.6    7.890      35.235
2015    4       29     2  39    4.8227   407.7    7.890      35.259
2015    4       29     2  45    4.8247   407.7    7.890      35.282
2015    4       29     2  51    4.8266   407.8    7.890      35.306
2015    4       29     2  58    4.8285   407.9    7.890      35.331
2015    4       29     3   4    4.8305   408.0    7.890      35.355
2015    4       29     3  10    4.8324   408.1    7.890      35.381
2015    4       29     3  16    4.8343   408.2    7.890      35.407
2015    4       29     3  22    4.8361   408.3    7.890      35.434
2015    4       29     3  28    4.8380   408.4    7.890      35.460
2015    4       29     3  34    4.8398   408.5    7.890      35.487
2015    4       29     3  40    4.8415   408.6    7.889      35.514
2015    4       29     3  46    4.8433   408.7    7.889      35.541
2015    4       29     3  53    4.8449   408.7    7.888      35.568
2015    4       29     3  59    4.8466   408.8    7.887      35.594
2015    4       29     4   5    4.8482   408.9    7.886      35.620
2015    4       29     4  11    4.8498   409.0    7.885      35.646
2015    4       29     4  17    4.8513   409.1    7.884      35.671
2015    4       29     4  23    4.8527   409.2    7.883      35.696
2015    4       29     4  29    4.8542   409.3    7.881      35.721
2015    4       29     4  35    4.8556   409.4    7.879      35.745
2015    4       29     4  41    4.8569   409.5    7.878      35.769
2015    4       29     4  48    4.8582   409.6    7.876      35.792
2015    4       29     4  54    4.8595   409.7    7.874      35.816
2015    4       29     5   0    4.8608   409.8    7.872      35.839
2015    4       29     5   6    4.8620   409.9    7.870      35.861
2015    4       29     5  12    4.8632   410.0    7.867      35.883
2015    4       29     5  18    4.8643   410.1    7.865      35.906
2015    4       29     5  24    4.8655   410.2    7.862      35.928
2015    4       29     5  30    4.8666   410.3    7.860      35.949
2015    4       29     5  36    4.8677   410.4    7.857      35.971
2015    4       29     5  43    4.8687   410.5    7.855      35.992
2015    4       29     5  49    4.8698   410.6    7.852      36.013
2015    4       29     5  55    4.8708   410.7    7.849      36.034
2015    4       29     6   1    4.8718   410.8    7.846      36.054
2015    4       29     6   7    4.8727   410.9    7.843      36.075
2015    4       29     6  13    4.8737   411.0    7.840      36.096
2015    4       29     6  19    4.8746   411.1    7.837      36.117
2015    4       29     6  25    4.8755   411.2    7.834      36.137
2015    4       29     6  31    4.8764   411.3    7.831      36.157
2015    4       29     6  38    4.8773   411.4    7.828      36.177
2015    4       29     6  44    4.8781   411.5    7.825      36.197
2015    4       29     6  50    4.8789   411.6    7.821      36.216
2015    4       29     6  56    4.8797   411.7    7.818      36.235
2015    4       29     7   2    4.8805   411.8    7.814      36.254
2015    4       29     7   8    4.8813   411.9    7.811      36.273
2015    4       29     7  14    4.8820   412.0    7.807      36.291
2015    4       29     7  20    4.8827   412.1    7.803      36.309
2015    4       29     7  27    4.8834   412.2    7.799      36.326
2015    4       29     7  33    4.8841   412.3    7.795      36.344
2015    4       29     7  39    4.8848   412.4    7.791      36.361
2015    4       29     7  45    4.8855   412.5    7.787      36.377
2015    4       29     7  51    4.8861   412.6    7.783      36.394
2015    4       29     7  57    4.8868   412.7    7.779      36.410
2015    4       29     8   3    4.8874   412.8    7.775      36.426
2015    4       29     8   9    4.8880   412.9    7.771      36.442
2015    4       29     8  15    4.8887   413.0    7.767      36.458
2015    4       29     8  22    4.8893   413.1    7.763      36.473
2015    4       29     8  28    4.8899   413.2    7.758      36.489
2015    4       29     8  34    4.8905   413.3    7.754      36.504
2015    4       29     8  40    4.8911   413.4    7.750      36.519
2015    4       29     8  46    4.8917   413.5    7.746      36.534
2015    4       29     8  52    4.8923   413.6    7.741      36.549
2015    4       29     8  58    4.8929   413.7    7.737      36.564
2015    4       29     9   4    4.8935   413.8    7.733      36.578
2015    4       29     9  10    4.8941   413.9    7.729      36.593
2015    4       29     9  17    4.8948   414.0    7.725      36.608
2015    4       29     9  23    4.8954   414.1    7.721      36.622
2015    4       29     9  29    4.8960   414.2    7.717      36.637
2015    4       29     9  35    4.8967   414.3    7.713      36.652
2015    4       29     9  41    4.8973   414.4    7.709      36.666
2015    4       29     9  47    4.8980   414.5    7.705      36.681
2015    4       29     9  53    4.8986   414.7    7.702      36.696
2015    4       29     9  59    4.8993   414.8    7.698      36.711
2015    4       29    10   5    4.9000   414.9    7.694      36.726
2015    4       29    10  12    4.9008   415.0    7.691      36.741
2015    4       29    10  18    4.9015   415.1    7.688      36.756
2015    4       29    10  24    4.9022   415.2    7.684      36.771
2015    4       29    10  30    4.9030   415.3    7.681      36.787
2015    4       29    10  36    4.9037   415.4    7.678      36.803
2015    4       29    10  42    4.9045   415.5    7.675      36.820
2015    4       29    10  48    4.9052   415.6    7.672      36.837
2015    4       29    10  54    4.9060   415.7    7.669      36.854
2015    4       29    11   0    4.9067   415.8    7.666      36.872
2015    4       29    11   7    4.9074   416.0    7.663      36.889
2015    4       29    11  13    4.9081   416.1    7.660      36.907
2015    4       29    11  19    4.9088   416.2    7.657      36.924
2015    4       29    11  25    4.9094   416.3    7.654      36.941
2015    4       29    11  31    4.9100   416.4    7.651      36.958
2015    4       29    11  37    4.9105   416.5    7.648      36.975
2015    4       29    11  43    4.9110   416.7    7.645      36.992
2015    4       29    11  49    4.9115   416.8    7.642      37.009
2015    4       29    11  55    4.9119   416.9    7.639      37.026
2015    4       29    12   2    4.9123   417.0    7.636      37.042
2015    4       29    12   8    4.9127   417.1    7.633      37.059
2015    4       29    12  14    4.9130   417.2    7.630      37.075
2015    4       29    12  20    4.9132   417.4    7.627      37.091
2015    4       29    12  26    4.9135   417.5    7.624      37.108
2015    4       29    12  32    4.9137   417.6    7.621      37.124
2015    4       29    12  38    4.9139   417.7    7.617      37.140
2015    4       29    12  44    4.9140   417.8    7.614      37.157
2015    4       29    12  50    4.9141   418.0    7.611      37.174
2015    4       29    12  57    4.9142   418.1    7.608      37.191
2015    4       29    13   3    4.9143   418.2    7.604      37.208
2015    4       29    13   9    4.9143   418.3    7.601      37.226
2015    4       29    13  15    4.9143   418.4    7.597      37.243
2015    4       29    13  21    4.9143   418.6    7.593      37.261
2015    4       29    13  27    4.9142   418.7    7.590      37.279
2015    4       29    13  33    4.9141   418.8    7.586      37.296
2015    4       29    13  39    4.9140   418.9    7.582      37.313
2015    4       29    13  45    4.9139   419.0    7.578      37.331
2015    4       29    13  52    4.9137   419.2    7.574      37.348
2015    4       29    13  58    4.9136   419.3    7.569      37.365
2015    4       29    14   4    4.9134   419.4    7.565      37.381
2015    4       29    14  10    4.9132   419.5    7.561      37.398
2015    4       29    14  16    4.9130   419.6    7.556      37.414
2015    4       29    14  22    4.9128   419.7    7.552      37.430
2015    4       29    14  28    4.9126   419.8    7.547      37.446
2015    4       29    14  34    4.9123   420.0    7.542      37.461
2015    4       29    14  40    4.9121   420.1    7.538      37.476
2015    4       29    14  47    4.9118   420.2    7.533      37.491
2015    4       29    14  53    4.9116   420.3    7.528      37.506
2015    4       29    14  59    4.9113   420.4    7.523      37.520
2015    4       29    15   5    4.9110   420.5    7.518      37.534
2015    4       29    15  11    4.9107   420.6    7.513      37.548
2015    4       29    15  17    4.9104   420.7    7.508      37.561
2015    4       29    15  23    4.9101   420.8    7.503      37.575
2015    4       29    15  29    4.9098   421.0    7.498      37.588
2015    4       29    15  35    4.9095   421.1    7.492      37.600
2015    4       29    15  42    4.9092   421.2    7.487      37.613
2015    4       29    15  48    4.9089   421.3    7.482      37.625
2015    4       29    15  54    4.9086   421.4    7.477      37.637
2015    4       29    16   0    4.9083   421.5    7.471      37.648
2015    4       29    16   6    4.9080   421.6    7.466      37.660
2015    4       29    16  12    4.9076   421.7    7.460      37.671
2015    4       29    16  18    4.9073   421.8    7.455      37.682
2015    4       29    16  24    4.9070   421.9    7.450      37.693
2015    4       29    16  30    4.9067   422.0    7.444      37.703
2015    4       29    16  37    4.9063   422.1    7.439      37.714
2015    4       29    16  43    4.9060   422.2    7.433      37.724
2015    4       29    16  49    4.9057   422.3    7.428      37.733
2015    4       29    16  55    4.9054   422.4    7.423      37.743
2015    4       29    17   1    4.9050   422.6    7.417      37.753
2015    4       29    17   7    4.9047   422.7    7.412      37.762
2015    4       29    17  13    4.9044   422.8    7.406      37.771
2015    4       29    17  19    4.9040   422.9    7.401      37.780
2015    4       29    17  25    4.9037   423.0    7.395      37.788
2015    4       29    17  32    4.9034   423.1    7.390      37.797
2015    4       29    17  38    4.9031   423.2    7.385      37.805
2015    4       29    17  44    4.9027   423.3    7.379      37.813
2015    4       29    17  50    4.9024   423.4    7.374      37.822
2015    4       29    17  56    4.9021   423.5    7.369      37.829
2015    4       29    18   2    4.9018   423.6    7.363      37.837
2015    4       29    18   8    4.9015   423.7    7.358      37.844
2015    4       29    18  14    4.9012   423.8    7.353      37.852
2015    4       29    18  20    4.9009   423.9    7.348      37.859
2015    4       29    18  27    4.9005   424.0    7.343      37.866
2015    4       29    18  33    4.9002   424.1    7.338      37.873
2015    4       29    18  39    4.8999   424.2    7.333      37.880
2015    4       29    18  45    4.8996   424.3    7.328      37.887
2015    4       29    18  51    4.8992   424.4    7.323      37.894
2015    4       29    18  57    4.8989   424.5    7.318      37.900
2015    4       29    19   3    4.8986   424.6    7.313      37.907
2015    4       29    19   9    4.8982   424.7    7.308      37.913
2015    4       29    19  15    4.8979   424.8    7.304      37.919
2015    4       29    19  22    4.8976   424.9    7.299      37.926
2015    4       29    19  28    4.8972   425.0    7.295      37.932
2015    4       29    19  34    4.8969   425.1    7.290      37.939
2015    4       29    19  40    4.8965   425.3    7.286      37.945
2015    4       29    19  46    4.8961   425.4    7.282      37.952
2015    4       29    19  52    4.8958   425.5    7.278      37.959
2015    4       29    19  58    4.8954   425.6    7.274      37.966
2015    4       29    20   4    4.8949   425.7    7.269      37.973
2015    4       29    20  10    4.8945   425.8    7.265      37.980
2015    4       29    20  17    4.8941   425.9    7.261      37.987
2015    4       29    20  23    4.8936   426.0    7.257      37.994
2015    4       29    20  29    4.8931   426.1    7.253      38.002
2015    4       29    20  35    4.8926   426.2    7.250      38.009
2015    4       29    20  41    4.8921   426.3    7.246      38.017
2015    4       29    20  47    4.8915   426.4    7.242      38.024
2015    4       29    20  53    4.8910   426.5    7.238      38.032
2015    4       29    20  59    4.8904   426.6    7.235      38.039
2015    4       29    21   6    4.8898   426.7    7.231      38.047
2015    4       29    21  12    4.8891   426.8    7.227      38.055
2015    4       29    21  18    4.8885   426.9    7.223      38.063
2015    4       29    21  24    4.8878   427.0    7.219      38.070
2015    4       29    21  30    4.8871   427.1    7.216      38.078
2015    4       29    21  36    4.8864   427.2    7.212      38.085
2015    4       29    21  42    4.8857   427.3    7.208      38.092
2015    4       29    21  48    4.8850   427.4    7.204      38.099
2015    4       29    21  54    4.8842   427.5    7.200      38.107
2015    4       29    22   1    4.8835   427.6    7.196      38.113
2015    4       29    22   7    4.8827   427.7    7.192      38.120
2015    4       29    22  13    4.8819   427.8    7.188      38.127
2015    4       29    22  19    4.8811   427.9    7.184      38.133
2015    4       29    22  25    4.8803   428.0    7.180      38.140
2015    4       29    22  31    4.8796   428.1    7.176      38.146
2015    4       29    22  37    4.8787   428.2    7.171      38.152
2015    4       29    22  43    4.8779   428.3    7.167      38.158
2015    4       29    22  49    4.8771   428.4    7.163      38.164
2015    4       29    22  56    4.8763   428.5    7.159      38.170
2015    4       29    23   2    4.8755   428.6    7.154      38.176
2015    4       29    23   8    4.8747   428.7    7.150      38.181
2015    4       29    23  14    4.8739   428.8    7.146      38.187
2015    4       29    23  20    4.8731   428.9    7.141      38.192
2015    4       29    23  26    4.8723   429.0    7.137      38.198
2015    4       29    23  32    4.8715   429.1    7.132      38.203
2015    4       29    23  38    4.8707   429.2    7.128      38.208
2015    4       29    23  44    4.8699   429.3    7.123      38.214
2015    4       29    23  51    4.8691   429.3    7.119      38.219
2015    4       29    23  57    4.8684   429.4    7.115      38.224
2015    4       30     0   3    4.8676   429.5    7.110      38.229
2015    4       30     0   9    4.8669   429.6    7.106      38.234
2015    4       30     0  15    4.8661   429.7    7.101      38.239
2015    4       30     0  21    4.8654   429.8    7.097      38.244
2015    4       30     0  27    4.8647   429.9    7.093      38.249
2015    4       30     0  33    4.8640   429.9    7.088      38.254
2015    4       30     0  39    4.8634   430.0    7.084      38.259
2015    4       30     0  46    4.8628   430.1    7.080      38.265
2015    4       30     0  52    4.8621   430.2    7.076      38.270
2015    4       30     0  58    4.8615   430.3    7.072      38.275
2015    4       30     1   4    4.8610   430.4    7.068      38.281
2015    4       30     1  10    4.8604   430.5    7.064      38.286
2015    4       30     1  16    4.8599   430.5    7.060      38.292
2015    4       30     1  22    4.8594   430.6    7.057      38.298
2015    4       30     1  28    4.8589   430.7    7.053      38.304
2015    4       30     1  34    4.8585   430.8    7.050      38.311
2015    4       30     1  41    4.8581   430.9    7.046      38.317
2015    4       30     1  47    4.8577   431.0    7.043      38.324
2015    4       30     1  53    4.8574   431.0    7.040      38.331
2015    4       30     1  59    4.8571   431.1    7.037      38.338
2015    4       30     2   5    4.8568   431.2    7.035      38.345
2015    4       30     2  11    4.8566   431.3    7.032      38.353
2015    4       30     2  17    4.8563   431.4    7.030      38.361
2015    4       30     2  23    4.8562   431.5    7.027      38.370
2015    4       30     2  29    4.8560   431.5    7.025      38.378
2015    4       30     2  36    4.8559   431.6    7.024      38.388
2015    4       30     2  42    4.8558   431.7    7.022      38.398
2015    4       30     2  48    4.8557   431.8    7.020      38.408
2015    4       30     2  54    4.8557   431.9    7.019      38.419
2015    4       30     3   0    4.8556   432.0    7.018      38.431
2015    4       30     3   6    4.8556   432.1    7.016      38.444
2015    4       30     3  12    4.8556   432.2    7.015      38.456
2015    4       30     3  18    4.8555   432.2    7.014      38.469
2015    4       30     3  24    4.8555   432.3    7.013      38.482
2015    4       30     3  31    4.8555   432.4    7.012      38.495
2015    4       30     3  37    4.8554   432.5    7.011      38.509
2015    4       30     3  43    4.8553   432.6    7.010      38.523
2015    4       30     3  49    4.8551   432.7    7.009      38.537
2015    4       30     3  55    4.8550   432.8    7.008      38.552
2015    4       30     4   1    4.8548   432.9    7.007      38.568
2015    4       30     4   7    4.8546   433.0    7.006      38.584
2015    4       30     4  13    4.8543   433.1    7.005      38.600
2015    4       30     4  19    4.8541   433.2    7.003      38.616
2015    4       30     4  26    4.8538   433.3    7.002      38.632
2015    4       30     4  32    4.8535   433.4    7.000      38.647
2015    4       30     4  38    4.8532   433.5    6.998      38.662
2015    4       30     4  44    4.8528   433.6    6.996      38.676
2015    4       30     4  50    4.8525   433.6    6.994      38.691
2015    4       30     4  56    4.8521   433.7    6.992      38.705
2015    4       30     5   2    4.8517   433.8    6.990      38.718
2015    4       30     5   8    4.8514   433.9    6.987      38.731
2015    4       30     5  14    4.8510   434.0    6.985      38.744
2015    4       30     5  21    4.8506   434.1    6.982      38.756
2015    4       30     5  27    4.8502   434.2    6.980      38.768
2015    4       30     5  33    4.8498   434.3    6.977      38.779
2015    4       30     5  39    4.8494   434.4    6.974      38.790
2015    4       30     5  45    4.8490   434.5    6.972      38.801
2015    4       30     5  51    4.8485   434.6    6.969      38.812
2015    4       30     5  57    4.8481   434.7    6.966      38.822
2015    4       30     6   3    4.8477   434.7    6.963      38.832
2015    4       30     6   9    4.8473   434.8    6.960      38.841
2015    4       30     6  16    4.8469   434.9    6.957      38.850
2015    4       30     6  22    4.8465   435.0    6.954      38.860
2015    4       30     6  28    4.8461   435.1    6.951      38.868
2015    4       30     6  34    4.8457   435.2    6.948      38.877
2015    4       30     6  40    4.8453   435.3    6.945      38.885
2015    4       30     6  46    4.8449   435.4    6.942      38.894
2015    4       30     6  52    4.8445   435.5    6.939      38.901
2015    4       30     6  58    4.8441   435.5    6.936      38.909
2015    4       30     7   4    4.8438   435.6    6.933      38.917
2015    4       30     7  11    4.8434   435.7    6.930      38.924
2015    4       30     7  17    4.8430   435.8    6.927      38.932
2015    4       30     7  23    4.8427   435.9    6.924      38.939
2015    4       30     7  29    4.8423   436.0    6.921      38.946
2015    4       30     7  35    4.8420   436.1    6.918      38.953
2015    4       30     7  41    4.8417   436.1    6.915      38.960
2015    4       30     7  47    4.8414   436.2    6.912      38.967
2015    4       30     7  53    4.8411   436.3    6.909      38.974
2015    4       30     7  59    4.8409   436.4    6.906      38.981
2015    4       30     8   6    4.8406   436.5    6.903      38.987
2015    4       30     8  12    4.8403   436.6    6.900      38.994
2015    4       30     8  18    4.8401   436.7    6.898      39.001
2015    4       30     8  24    4.8398   436.8    6.895      39.008
2015    4       30     8  30    4.8396   436.9    6.892      39.015
2015    4       30     8  36    4.8394   436.9    6.890      39.023
2015    4       30     8  42    4.8391   437.0    6.887      39.031
2015    4       30     8  48    4.8389   437.1    6.885      39.039
2015    4       30     8  54    4.8387   437.2    6.882      39.047
2015    4       30     9   1    4.8384   437.3    6.880      39.056
2015    4       30     9   7    4.8382   437.4    6.877      39.065
2015    4       30     9  13    4.8380   437.5    6.875      39.074
2015    4       30     9  19    4.8378   437.6    6.872      39.084
2015    4       30     9  25    4.8375   437.7    6.870      39.093
2015    4       30     9  31    4.8373   437.8    6.868      39.102
2015    4       30     9  37    4.8371   437.9    6.865      39.111
2015    4       30     9  43    4.8368   438.0    6.863      39.121
2015    4       30     9  49    4.8366   438.1    6.860      39.130
2015    4       30     9  56    4.8363   438.1    6.858      39.140
2015    4       30    10   2    4.8360   438.2    6.856      39.150
2015    4       30    10   8    4.8357   438.3    6.854      39.159
2015    4       30    10  14    4.8354   438.4    6.851      39.169
2015    4       30    10  20    4.8351   438.5    6.849      39.179
2015    4       30    10  26    4.8348   438.6    6.847      39.190
2015    4       30    10  32    4.8345   438.7    6.845      39.200
2015    4       30    10  38    4.8341   438.8    6.842      39.211
2015    4       30    10  45    4.8337   438.9    6.840      39.221
2015    4       30    10  51    4.8334   439.0    6.838      39.232
2015    4       30    10  57    4.8330   439.1    6.835      39.243
2015    4       30    11   3    4.8325   439.2    6.833      39.254
2015    4       30    11   9    4.8321   439.3    6.830      39.264
2015    4       30    11  15    4.8317   439.4    6.828      39.275
2015    4       30    11  21    4.8312   439.5    6.825      39.286
2015    4       30    11  27    4.8308   439.6    6.822      39.296
2015    4       30    11  33    4.8303   439.6    6.819      39.306
2015    4       30    11  40    4.8299   439.7    6.816      39.316
2015    4       30    11  46    4.8294   439.8    6.814      39.326
2015    4       30    11  52    4.8289   439.9    6.811      39.336
2015    4       30    11  58    4.8284   440.0    6.808      39.345
2015    4       30    12   4    4.8279   440.1    6.805      39.354
2015    4       30    12  10    4.8274   440.2    6.802      39.363
2015    4       30    12  16    4.8270   440.3    6.799      39.372
2015    4       30    12  22    4.8265   440.4    6.795      39.380
2015    4       30    12  28    4.8259   440.5    6.792      39.389
2015    4       30    12  35    4.8254   440.6    6.789      39.397
2015    4       30    12  41    4.8249   440.7    6.786      39.405
2015    4       30    12  47    4.8244   440.8    6.783      39.413
2015    4       30    12  53    4.8239   440.8    6.780      39.421
2015    4       30    12  59    4.8234   440.9    6.776      39.428
2015    4       30    13   5    4.8229   441.0    6.773      39.435
2015    4       30    13  11    4.8224   441.1    6.770      39.443
2015    4       30    13  17    4.8219   441.2    6.767      39.450
2015    4       30    13  23    4.8213   441.3    6.763      39.457
2015    4       30    13  30    4.8208   441.4    6.760      39.463
2015    4       30    13  36    4.8203   441.5    6.757      39.470
2015    4       30    13  42    4.8198   441.6    6.754      39.477
2015    4       30    13  48    4.8193   441.6    6.751      39.483
2015    4       30    13  54    4.8188   441.7    6.747      39.489
2015    4       30    14   0    4.8183   441.8    6.744      39.495
2015    4       30    14   6    4.8178   441.9    6.741      39.502
2015    4       30    14  12    4.8173   442.0    6.738      39.508
2015    4       30    14  18    4.8168   442.1    6.735      39.514
2015    4       30    14  25    4.8163   442.2    6.732      39.520
2015    4       30    14  31    4.8158   442.3    6.729      39.525
2015    4       30    14  37    4.8153   442.4    6.726      39.531
2015    4       30    14  43    4.8148   442.4    6.723      39.537
2015    4       30    14  49    4.8144   442.5    6.720      39.543
2015    4       30    14  55    4.8139   442.6    6.717      39.549
2015    4       30    15   1    4.8134   442.7    6.714      39.555
2015    4       30    15   7    4.8130   442.8    6.712      39.560
2015    4       30    15  13    4.8125   442.9    6.709      39.566
2015    4       30    15  20    4.8121   443.0    6.706      39.572
2015    4       30    15  26    4.8116   443.1    6.704      39.579
2015    4       30    15  32    4.8112   443.1    6.701      39.585
2015    4       30    15  38    4.8107   443.2    6.699      39.591
2015    4       30    15  44    4.8102   443.3    6.696      39.598
2015    4       30    15  50    4.8098   443.4    6.694      39.605
2015    4       30    15  56    4.8093   443.5    6.691      39.613
2015    4       30    16   2    4.8088   443.6    6.688      39.621
2015    4       30    16   8    4.8083   443.7    6.686      39.630
2015    4       30    16  15    4.8079   443.8    6.683      39.638
2015    4       30    16  21    4.8073   443.9    6.681      39.647
2015    4       30    16  27    4.8068   444.0    6.678      39.656
2015    4       30    16  33    4.8063   444.1    6.675      39.665
2015    4       30    16  39    4.8058   444.2    6.673      39.674
2015    4       30    16  45    4.8053   444.2    6.670      39.683
2015    4       30    16  51    4.8047   444.3    6.667      39.692
2015    4       30    16  57    4.8042   444.4    6.664      39.700
2015    4       30    17   3    4.8036   444.5    6.661      39.709
2015    4       30    17  10    4.8031   444.6    6.659      39.718
2015    4       30    17  16    4.8025   444.7    6.656      39.727
2015    4       30    17  22    4.8019   444.8    6.653      39.735
2015    4       30    17  28    4.8014   444.9    6.650      39.743
2015    4       30    17  34    4.8008   445.0    6.647      39.752
2015    4       30    17  40    4.8002   445.1    6.644      39.760
2015    4       30    17  46    4.7996   445.2    6.641      39.769
2015    4       30    17  52    4.7991   445.2    6.638      39.777
2015    4       30    17  58    4.7985   445.3    6.635      39.785
2015    4       30    18   5    4.7979   445.4    6.632      39.794
2015    4       30    18  11    4.7973   445.5    6.629      39.802
2015    4       30    18  17    4.7967   445.6    6.626      39.810
2015    4       30    18  23    4.7961   445.7    6.623      39.818
2015    4       30    18  29    4.7956   445.8    6.620      39.826
2015    4       30    18  35    4.7950   445.9    6.617      39.834
2015    4       30    18  41    4.7944   446.0    6.614      39.842
2015    4       30    18  47    4.7938   446.0    6.611      39.850
2015    4       30    18  53    4.7932   446.1    6.608      39.858
2015    4       30    19   0    4.7927   446.2    6.605      39.865
2015    4       30    19   6    4.7921   446.3    6.603      39.873
2015    4       30    19  12    4.7916   446.4    6.600      39.881
2015    4       30    19  18    4.7910   446.5    6.597      39.889
2015    4       30    19  24    4.7905   446.6    6.594      39.897
2015    4       30    19  30    4.7900   446.7    6.591      39.904
2015    4       30    19  36    4.7894   446.7    6.589      39.912
2015    4       30    19  42    4.7889   446.8    6.586      39.920
2015    4       30    19  48    4.7884   446.9    6.583      39.928
2015    4       30    19  55    4.7879   447.0    6.581      39.936
2015    4       30    20   1    4.7874   447.1    6.578      39.945
2015    4       30    20   7    4.7870   447.2    6.576      39.953
2015    4       30    20  13    4.7865   447.2    6.573      39.961
2015    4       30    20  19    4.7860   447.3    6.571      39.970
2015    4       30    20  25    4.7856   447.4    6.569      39.979
2015    4       30    20  31    4.7851   447.5    6.566      39.988
2015    4       30    20  37    4.7847   447.6    6.564      39.998
2015    4       30    20  43    4.7842   447.7    6.562      40.008
2015    4       30    20  50    4.7838   447.8    6.559      40.018
2015    4       30    20  56    4.7833   447.9    6.557      40.029
2015    4       30    21   2    4.7828   447.9    6.554      40.040
2015    4       30    21   8    4.7824   448.0    6.552      40.051
2015    4       30    21  14    4.7819   448.1    6.549      40.062
2015    4       30    21  20    4.7815   448.2    6.547      40.073
2015    4       30    21  26    4.7810   448.3    6.544      40.084
2015    4       30    21  32    4.7805   448.4    6.542      40.095
2015    4       30    21  38    4.7801   448.5    6.539      40.105
2015    4       30    21  45    4.7796   448.5    6.537      40.115
2015    4       30    21  51    4.7791   448.6    6.534      40.126
2015    4       30    21  57    4.7786   448.7    6.532      40.136
2015    4       30    22   3    4.7781   448.8    6.529      40.146
2015    4       30    22   9    4.7776   448.9    6.526      40.156
2015    4       30    22  15    4.7770   449.0    6.524      40.165
2015    4       30    22  21    4.7765   449.1    6.521      40.175
2015    4       30    22  27    4.7760   449.2    6.518      40.185
2015    4       30    22  33    4.7754   449.2    6.515      40.195
2015    4       30    22  40    4.7749   449.3    6.512      40.205
2015    4       30    22  46    4.7743   449.4    6.509      40.215
2015    4       30    22  52    4.7737   449.5    6.506      40.224
2015    4       30    22  58    4.7732   449.6    6.503      40.234
2015    4       30    23   4    4.7726   449.7    6.500      40.243
2015    4       30    23  10    4.7720   449.8    6.497      40.252
2015    4       30    23  16    4.7714   449.8    6.494      40.261
2015    4       30    23  22    4.7708   449.9    6.491      40.269
2015    4       30    23  29    4.7702   450.0    6.488      40.277
2015    4       30    23  35    4.7696   450.1    6.485      40.286
2015    4       30    23  41    4.7690   450.2    6.482      40.294
2015    4       30    23  47    4.7683   450.3    6.479      40.301
2015    4       30    23  53    4.7677   450.4    6.475      40.309
2015    4       30    23  59    4.7671   450.4    6.472      40.317
2015    5        1     0   5    4.7665   450.5    6.469      40.324
2015    5        1     0  11    4.7659   450.6    6.466      40.331
2015    5        1     0  17    4.7652   450.7    6.463      40.338
2015    5        1     0  24    4.7646   450.8    6.459      40.345
2015    5        1     0  30    4.7640   450.9    6.456      40.352
2015    5        1     0  36    4.7634   450.9    6.453      40.359
2015    5        1     0  42    4.7628   451.0    6.450      40.366
2015    5        1     0  48    4.7621   451.1    6.447      40.373
2015    5        1     0  54    4.7615   451.2    6.444      40.379
2015    5        1     1   0    4.7609   451.3    6.441      40.386
2015    5        1     1   6    4.7603   451.4    6.438      40.392
2015    5        1     1  12    4.7596   451.5    6.435      40.399
2015    5        1     1  19    4.7590   451.5    6.432      40.406
2015    5        1     1  25    4.7584   451.6    6.429      40.412
2015    5        1     1  31    4.7578   451.7    6.426      40.419
2015    5        1     1  37    4.7572   451.8    6.423      40.425
2015    5        1     1  43    4.7565   451.9    6.420      40.432
2015    5        1     1  49    4.7559   452.0    6.417      40.438
2015    5        1     1  55    4.7553   452.0    6.414      40.445
2015    5        1     2   1    4.7547   452.1    6.412      40.452
2015    5        1     2   7    4.7541   452.2    6.409      40.459
2015    5        1     2  14    4.7534   452.3    6.407      40.466
2015    5        1     2  20    4.7528   452.4    6.404      40.473
2015    5        1     2  26    4.7522   452.5    6.402      40.480
2015    5        1     2  32    4.7516   452.5    6.399      40.488
2015    5        1     2  38    4.7509   452.6    6.397      40.495
2015    5        1     2  44    4.7503   452.7    6.395      40.503
2015    5        1     2  50    4.7497   452.8    6.393      40.511
2015    5        1     2  56    4.7491   452.9    6.391      40.519
2015    5        1     3   2    4.7485   453.0    6.389      40.527
2015    5        1     3   9    4.7478   453.0    6.386      40.536
2015    5        1     3  15    4.7472   453.1    6.384      40.545
2015    5        1     3  21    4.7466   453.2    6.383      40.554
2015    5        1     3  27    4.7460   453.3    6.381      40.564
2015    5        1     3  33    4.7453   453.4    6.379      40.574
2015    5        1     3  39    4.7447   453.4    6.377      40.584
2015    5        1     3  45    4.7441   453.5    6.375      40.594
2015    5        1     3  51    4.7434   453.6    6.373      40.605
2015    5        1     3  57    4.7428   453.7    6.371      40.617
2015    5        1     4   4    4.7421   453.8    6.369      40.629
2015    5        1     4  10    4.7415   453.9    6.367      40.641
2015    5        1     4  16    4.7408   453.9    6.365      40.654
2015    5        1     4  22    4.7401   454.0    6.363      40.667
2015    5        1     4  28    4.7394   454.1    6.360      40.680
2015    5        1     4  34    4.7387   454.2    6.358      40.693
2015    5        1     4  40    4.7380   454.3    6.355      40.706
2015    5        1     4  46    4.7373   454.4    6.353      40.718
2015    5        1     4  52    4.7366   454.5    6.350      40.731
2015    5        1     4  59    4.7359   454.5    6.348      40.743
2015    5        1     5   5    4.7352   454.6    6.345      40.755
2015    5        1     5  11    4.7344   454.7    6.342      40.767
2015    5        1     5  17    4.7337   454.8    6.339      40.778
2015    5        1     5  23    4.7330   454.9    6.337      40.789
2015    5        1     5  29    4.7323   455.0    6.334      40.800
2015    5        1     5  35    4.7315   455.0    6.331      40.811
2015    5        1     5  41    4.7308   455.1    6.328      40.821
2015    5        1     5  47    4.7300   455.2    6.325      40.831
2015    5        1     5  54    4.7293   455.3    6.322      40.840
2015    5        1     6   0    4.7286   455.4    6.319      40.849
2015    5        1     6   6    4.7278   455.5    6.315      40.858
2015    5        1     6  12    4.7271   455.5    6.312      40.867
2015    5        1     6  18    4.7263   455.6    6.309      40.876
2015    5        1     6  24    4.7256   455.7    6.306      40.884
2015    5        1     6  30    4.7249   455.8    6.303      40.892
2015    5        1     6  36    4.7241   455.9    6.300      40.900
2015    5        1     6  42    4.7234   456.0    6.296      40.908
2015    5        1     6  49    4.7227   456.0    6.293      40.915
2015    5        1     6  55    4.7219   456.1    6.290      40.922
2015    5        1     7   1    4.7212   456.2    6.287      40.929
2015    5        1     7   7    4.7205   456.3    6.283      40.936
2015    5        1     7  13    4.7198   456.4    6.280      40.943
2015    5        1     7  19    4.7190   456.5    6.277      40.950
2015    5        1     7  25    4.7183   456.5    6.274      40.956
2015    5        1     7  31    4.7176   456.6    6.271      40.963
2015    5        1     7  37    4.7168   456.7    6.267      40.969
2015    5        1     7  44    4.7161   456.8    6.264      40.976
2015    5        1     7  50    4.7153   456.9    6.261      40.982
2015    5        1     7  56    4.7146   457.0    6.258      40.988
2015    5        1     8   2    4.7138   457.0    6.255      40.994
2015    5        1     8   8    4.7131   457.1    6.252      41.000
2015    5        1     8  14    4.7123   457.2    6.249      41.006
2015    5        1     8  20    4.7115   457.3    6.246      41.013
2015    5        1     8  26    4.7108   457.4    6.243      41.019
2015    5        1     8  32    4.7100   457.5    6.240      41.025
2015    5        1     8  39    4.7092   457.5    6.238      41.031
2015    5        1     8  45    4.7084   457.6    6.235      41.037
2015    5        1     8  51    4.7076   457.7    6.232      41.043
2015    5        1     8  57    4.7068   457.8    6.229      41.050
2015    5        1     9   3    4.7060   457.9    6.227      41.056
2015    5        1     9   9    4.7051   458.0    6.224      41.063
2015    5        1     9  15    4.7043   458.1    6.221      41.070
2015    5        1     9  21    4.7034   458.1    6.218      41.078
2015    5        1     9  27    4.7025   458.2    6.216      41.085
2015    5        1     9  34    4.7017   458.3    6.213      41.093
2015    5        1     9  40    4.7008   458.4    6.210      41.100
2015    5        1     9  46    4.6999   458.5    6.207      41.108
2015    5        1     9  52    4.6989   458.6    6.205      41.115
2015    5        1     9  58    4.6980   458.6    6.202      41.122
2015    5        1    10   4    4.6971   458.7    6.199      41.129
2015    5        1    10  10    4.6961   458.8    6.197      41.137
2015    5        1    10  16    4.6952   458.9    6.194      41.144
2015    5        1    10  22    4.6942   459.0    6.191      41.151
2015    5        1    10  29    4.6932   459.1    6.188      41.159
2015    5        1    10  35    4.6922   459.1    6.185      41.166
2015    5        1    10  41    4.6913   459.2    6.183      41.174
2015    5        1    10  47    4.6902   459.3    6.180      41.182
2015    5        1    10  53    4.6893   459.4    6.177      41.190
2015    5        1    10  59    4.6882   459.5    6.174      41.197
2015    5        1    11   5    4.6872   459.6    6.171      41.205
2015    5        1    11  11    4.6862   459.6    6.168      41.213
2015    5        1    11  17    4.6852   459.7    6.165      41.221
2015    5        1    11  24    4.6842   459.8    6.162      41.229
2015    5        1    11  30    4.6831   459.9    6.159      41.237
2015    5        1    11  36    4.6821   460.0    6.156      41.245
2015    5        1    11  42    4.6811   460.0    6.153      41.253
2015    5        1    11  48    4.6800   460.1    6.150      41.261
2015    5        1    11  54    4.6790   460.2    6.147      41.269
2015    5        1    12   0    4.6780   460.3    6.144      41.277
2015    5        1    12   6    4.6769   460.4    6.141      41.285
2015    5        1    12  13    4.6759   460.4    6.137      41.293
2015    5        1    12  19    4.6749   460.5    6.134      41.301
2015    5        1    12  25    4.6738   460.6    6.131      41.309
2015    5        1    12  31    4.6728   460.7    6.128      41.316
2015    5        1    12  37    4.6718   460.8    6.124      41.324
2015    5        1    12  43    4.6707   460.8    6.121      41.331
2015    5        1    12  49    4.6697   460.9    6.118      41.338
2015    5        1    12  55    4.6687   461.0    6.115      41.346
2015    5        1    13   1    4.6676   461.1    6.111      41.353
2015    5        1    13   8    4.6666   461.2    6.108      41.359
2015    5        1    13  14    4.6656   461.2    6.105      41.366
2015    5        1    13  20    4.6646   461.3    6.101      41.373
2015    5        1    13  26    4.6635   461.4    6.098      41.380
2015    5        1    13  32    4.6625   461.5    6.094      41.386
2015    5        1    13  38    4.6615   461.6    6.091      41.392
2015    5        1    13  44    4.6604   461.6    6.088      41.398
2015    5        1    13  50    4.6594   461.7    6.084      41.404
2015    5        1    13  56    4.6584   461.8    6.081      41.410
2015    5        1    14   3    4.6574   461.9    6.077      41.416
2015    5        1    14   9    4.6563   462.0    6.074      41.422
2015    5        1    14  15    4.6553   462.0    6.071      41.428
2015    5        1    14  21    4.6542   462.1    6.067      41.433
2015    5        1    14  27    4.6532   462.2    6.064      41.439
2015    5        1    14  33    4.6521   462.3    6.060      41.444
2015    5        1    14  39    4.6511   462.3    6.057      41.449
2015    5        1    14  45    4.6500   462.4    6.054      41.454
2015    5        1    14  51    4.6489   462.5    6.050      41.459
2015    5        1    14  58    4.6479   462.6    6.047      41.465
2015    5        1    15   4    4.6468   462.7    6.044      41.469
2015    5        1    15  10    4.6457   462.7    6.040      41.474
2015    5        1    15  16    4.6445   462.8    6.037      41.479
2015    5        1    15  22    4.6434   462.9    6.034      41.483
2015    5        1    15  28    4.6423   463.0    6.030      41.488
2015    5        1    15  34    4.6412   463.0    6.027      41.492
2015    5        1    15  40    4.6400   463.1    6.024      41.497
2015    5        1    15  46    4.6389   463.2    6.021      41.501
2015    5        1    15  53    4.6377   463.3    6.018      41.505
2015    5        1    15  59    4.6366   463.4    6.014      41.510
2015    5        1    16   5    4.6354   463.4    6.011      41.514
2015    5        1    16  11    4.6342   463.5    6.008      41.517
2015    5        1    16  17    4.6330   463.6    6.005      41.521
2015    5        1    16  23    4.6318   463.7    6.002      41.525
2015    5        1    16  29    4.6306   463.7    5.999      41.529
2015    5        1    16  35    4.6293   463.8    5.996      41.534
2015    5        1    16  41    4.6281   463.9    5.993      41.538
2015    5        1    16  48    4.6268   464.0    5.989      41.542
2015    5        1    16  54    4.6256   464.1    5.986      41.547
2015    5        1    17   0    4.6243   464.1    5.983      41.551
2015    5        1    17   6    4.6230   464.2    5.980      41.556
2015    5        1    17  12    4.6217   464.3    5.976      41.560
2015    5        1    17  18    4.6204   464.4    5.973      41.564
2015    5        1    17  24    4.6190   464.4    5.970      41.568
2015    5        1    17  30    4.6177   464.5    5.967      41.571
2015    5        1    17  36    4.6163   464.6    5.963      41.575
2015    5        1    17  43    4.6150   464.7    5.960      41.579
2015    5        1    17  49    4.6136   464.7    5.956      41.582
2015    5        1    17  55    4.6123   464.8    5.953      41.585
2015    5        1    18   1    4.6109   464.9    5.950      41.589
2015    5        1    18   7    4.6095   465.0    5.946      41.592
2015    5        1    18  13    4.6081   465.0    5.943      41.595
2015    5        1    18  19    4.6067   465.1    5.939      41.598
2015    5        1    18  25    4.6053   465.2    5.936      41.601
2015    5        1    18  31    4.6039   465.3    5.932      41.604
2015    5        1    18  38    4.6025   465.3    5.929      41.606
2015    5        1    18  44    4.6011   465.4    5.925      41.609
2015    5        1    18  50    4.5996   465.5    5.922      41.612
2015    5        1    18  56    4.5982   465.6    5.918      41.615
2015    5        1    19   2    4.5968   465.6    5.915      41.618
2015    5        1    19   8    4.5954   465.7    5.911      41.620
2015    5        1    19  14    4.5940   465.8    5.908      41.623
2015    5        1    19  20    4.5926   465.8    5.904      41.626
2015    5        1    19  26    4.5911   465.9    5.901      41.629
2015    5        1    19  33    4.5897   466.0    5.897      41.632
2015    5        1    19  39    4.5883   466.0    5.894      41.635
2015    5        1    19  45    4.5869   466.1    5.890      41.638
2015    5        1    19  51    4.5855   466.2    5.887      41.640
2015    5        1    19  57    4.5841   466.2    5.883      41.643
2015    5        1    20   3    4.5827   466.3    5.880      41.646
2015    5        1    20   9    4.5813   466.4    5.876      41.649
2015    5        1    20  15    4.5799   466.4    5.873      41.652
2015    5        1    20  21    4.5785   466.5    5.869      41.655
2015    5        1    20  28    4.5770   466.6    5.866      41.658
2015    5        1    20  34    4.5756   466.7    5.862      41.660
2015    5        1    20  40    4.5742   466.7    5.859      41.663
2015    5        1    20  46    4.5728   466.8    5.855      41.666
2015    5        1    20  52    4.5714   466.9    5.851      41.669
2015    5        1    20  58    4.5700   466.9    5.848      41.671
2015    5        1    21   4    4.5686   467.0    5.844      41.673
2015    5        1    21  10    4.5671   467.1    5.841      41.676
2015    5        1    21  16    4.5657   467.1    5.837      41.678
2015    5        1    21  23    4.5643   467.2    5.834      41.680
2015    5        1    21  29    4.5628   467.2    5.830      41.682
2015    5        1    21  35    4.5614   467.3    5.827      41.684
2015    5        1    21  41    4.5599   467.4    5.823      41.686
2015    5        1    21  47    4.5585   467.4    5.820      41.687
2015    5        1    21  53    4.5571   467.5    5.816      41.689
2015    5        1    21  59    4.5556   467.6    5.813      41.690
2015    5        1    22   5    4.5541   467.6    5.809      41.691
2015    5        1    22  11    4.5527   467.7    5.806      41.692
2015    5        1    22  18    4.5512   467.8    5.802      41.693
2015    5        1    22  24    4.5497   467.8    5.799      41.694
2015    5        1    22  30    4.5483   467.9    5.796      41.694
2015    5        1    22  36    4.5468   467.9    5.792      41.695
2015    5        1    22  42    4.5453   468.0    5.789      41.695
2015    5        1    22  48    4.5438   468.1    5.785      41.696
2015    5        1    22  54    4.5424   468.1    5.782      41.696
2015    5        1    23   0    4.5409   468.2    5.779      41.696
2015    5        1    23   6    4.5394   468.3    5.775      41.696
2015    5        1    23  13    4.5379   468.3    5.772      41.695
2015    5        1    23  19    4.5364   468.4    5.769      41.695
2015    5        1    23  25    4.5349   468.4    5.766      41.695
2015    5        1    23  31    4.5334   468.5    5.762      41.694
2015    5        1    23  37    4.5319   468.6    5.759      41.694
2015    5        1    23  43    4.5304   468.6    5.756      41.693
2015    5        1    23  49    4.5288   468.7    5.753      41.692
2015    5        1    23  55    4.5273   468.7    5.749      41.691
2015    5        2     0   2    4.5257   468.8    5.746      41.691
2015    5        2     0   8    4.5242   468.9    5.743      41.690
2015    5        2     0  14    4.5226   468.9    5.740      41.689
2015    5        2     0  20    4.5210   469.0    5.737      41.688
2015    5        2     0  26    4.5194   469.0    5.733      41.687
2015    5        2     0  32    4.5178   469.1    5.730      41.686
2015    5        2     0  38    4.5162   469.1    5.727      41.684
2015    5        2     0  44    4.5146   469.2    5.724      41.683
2015    5        2     0  50    4.5130   469.3    5.721      41.682
2015    5        2     0  57    4.5113   469.3    5.717      41.681
2015    5        2     1   3    4.5097   469.4    5.714      41.680
2015    5        2     1   9    4.5080   469.4    5.711      41.679
2015    5        2     1  15    4.5064   469.5    5.708      41.677
2015    5        2     1  21    4.5047   469.5    5.704      41.676
2015    5        2     1  27    4.5031   469.6    5.701      41.675
2015    5        2     1  33    4.5014   469.6    5.697      41.673
2015    5        2     1  39    4.4997   469.7    5.694      41.672
2015    5        2     1  45    4.4980   469.8    5.691      41.670
2015    5        2     1  52    4.4963   469.8    5.687      41.669
2015    5        2     1  58    4.4947   469.9    5.684      41.667
2015    5        2     2   4    4.4930   469.9    5.680      41.665
2015    5        2     2  10    4.4912   470.0    5.677      41.663
2015    5        2     2  16    4.4895   470.0    5.673      41.662
2015    5        2     2  22    4.4878   470.1    5.670      41.660
2015    5        2     2  28    4.4861   470.1    5.666      41.658
2015    5        2     2  34    4.4844   470.2    5.663      41.656
2015    5        2     2  40    4.4827   470.2    5.659      41.654
2015    5        2     2  47    4.4810   470.3    5.656      41.651
2015    5        2     2  53    4.4792   470.3    5.652      41.649
2015    5        2     2  59    4.4775   470.4    5.649      41.647
2015    5        2     3   5    4.4758   470.4    5.645      41.644
2015    5        2     3  11    4.4741   470.5    5.642      41.642
2015    5        2     3  17    4.4723   470.5    5.638      41.639
2015    5        2     3  23    4.4706   470.6    5.635      41.636
2015    5        2     3  29    4.4689   470.6    5.631      41.633
2015    5        2     3  35    4.4671   470.7    5.628      41.630
2015    5        2     3  42    4.4654   470.7    5.624      41.627
2015    5        2     3  48    4.4637   470.7    5.621      41.624
2015    5        2     3  54    4.4619   470.8    5.617      41.620
2015    5        2     4   0    4.4602   470.8    5.614      41.617
2015    5        2     4   6    4.4585   470.9    5.610      41.614
2015    5        2     4  12    4.4568   470.9    5.607      41.610
2015    5        2     4  18    4.4550   471.0    5.604      41.606
2015    5        2     4  24    4.4533   471.0    5.600      41.602
2015    5        2     4  30    4.4516   471.1    5.597      41.599
2015    5        2     4  37    4.4499   471.1    5.594      41.595
2015    5        2     4  43    4.4482   471.1    5.590      41.591
2015    5        2     4  49    4.4464   471.2    5.587      41.587
2015    5        2     4  55    4.4447   471.2    5.584      41.583
2015    5        2     5   1    4.4430   471.3    5.581      41.578
2015    5        2     5   7    4.4413   471.3    5.578      41.574
2015    5        2     5  13    4.4396   471.3    5.575      41.570
2015    5        2     5  19    4.4379   471.4    5.572      41.566
2015    5        2     5  25    4.4362   471.4    5.569      41.562
2015    5        2     5  32    4.4345   471.5    5.566      41.557
2015    5        2     5  38    4.4328   471.5    5.563      41.553
2015    5        2     5  44    4.4311   471.5    5.560      41.548
2015    5        2     5  50    4.4294   471.6    5.557      41.544
2015    5        2     5  56    4.4277   471.6    5.554      41.540
2015    5        2     6   2    4.4260   471.7    5.551      41.535
2015    5        2     6   8    4.4243   471.7    5.549      41.531
2015    5        2     6  14    4.4226   471.7    5.546      41.526
2015    5        2     6  20    4.4210   471.8    5.543      41.522
2015    5        2     6  27    4.4192   471.8    5.540      41.517
2015    5        2     6  33    4.4176   471.8    5.538      41.513
2015    5        2     6  39    4.4158   471.9    5.535      41.508
2015    5        2     6  45    4.4141   471.9    5.532      41.504
2015    5        2     6  51    4.4124   471.9    5.530      41.499
2015    5        2     6  57    4.4107   472.0    5.527      41.495
2015    5        2     7   3    4.4090   472.0    5.524      41.490
2015    5        2     7   9    4.4073   472.1    5.522      41.486
2015    5        2     7  15    4.4055   472.1    5.519      41.481
2015    5        2     7  22    4.4038   472.1    5.516      41.476
2015    5        2     7  28    4.4021   472.2    5.514      41.472
2015    5        2     7  34    4.4003   472.2    5.511      41.467
2015    5        2     7  40    4.3986   472.2    5.508      41.463
2015    5        2     7  46    4.3968   472.3    5.506      41.458
2015    5        2     7  52    4.3951   472.3    5.503      41.453
2015    5        2     7  58    4.3933   472.3    5.500      41.449
2015    5        2     8   4    4.3916   472.3    5.498      41.444
2015    5        2     8  10    4.3899   472.4    5.495      41.439
2015    5        2     8  17    4.3881   472.4    5.492      41.434
2015    5        2     8  23    4.3863   472.4    5.489      41.430
2015    5        2     8  29    4.3846   472.5    5.487      41.425
2015    5        2     8  35    4.3828   472.5    5.484      41.420
2015    5        2     8  41    4.3811   472.5    5.481      41.415
2015    5        2     8  47    4.3793   472.6    5.478      41.410
2015    5        2     8  53    4.3776   472.6    5.476      41.405
2015    5        2     8  59    4.3758   472.6    5.473      41.400
2015    5        2     9   5    4.3741   472.6    5.470      41.395
2015    5        2     9  12    4.3723   472.7    5.467      41.390
2015    5        2     9  18    4.3706   472.7    5.464      41.385
2015    5        2     9  24    4.3688   472.7    5.462      41.379
2015    5        2     9  30    4.3671   472.8    5.459      41.374
2015    5        2     9  36    4.3653   472.8    5.456      41.368
2015    5        2     9  42    4.3635   472.8    5.453      41.363
2015    5        2     9  48    4.3618   472.8    5.450      41.357
2015    5        2     9  54    4.3600   472.9    5.447      41.351
2015    5        2    10   0    4.3582   472.9    5.444      41.345
2015    5        2    10   7    4.3565   472.9    5.441      41.338
2015    5        2    10  13    4.3547   472.9    5.439      41.332
2015    5        2    10  19    4.3529   473.0    5.436      41.326
2015    5        2    10  25    4.3512   473.0    5.433      41.319
2015    5        2    10  31    4.3494   473.0    5.430      41.312
2015    5        2    10  37    4.3476   473.0    5.427      41.305
2015    5        2    10  43    4.3458   473.1    5.424      41.298
2015    5        2    10  49    4.3441   473.1    5.421      41.291
2015    5        2    10  55    4.3423   473.1    5.418      41.284
2015    5        2    11   2    4.3405   473.1    5.415      41.276
2015    5        2    11   8    4.3387   473.2    5.412      41.269
2015    5        2    11  14    4.3369   473.2    5.410      41.261
2015    5        2    11  20    4.3351   473.2    5.407      41.253
2015    5        2    11  26    4.3333   473.2    5.404      41.246
2015    5        2    11  32    4.3315   473.2    5.401      41.238
2015    5        2    11  38    4.3297   473.3    5.398      41.230
2015    5        2    11  44    4.3280   473.3    5.395      41.221
2015    5        2    11  50    4.3262   473.3    5.393      41.213
2015    5        2    11  57    4.3244   473.3    5.390      41.205
2015    5        2    12   3    4.3226   473.3    5.387      41.197
2015    5        2    12   9    4.3208   473.4    5.385      41.188
2015    5        2    12  15    4.3190   473.4    5.382      41.180
2015    5        2    12  21    4.3172   473.4    5.379      41.171
2015    5        2    12  27    4.3154   473.4    5.377      41.163
2015    5        2    12  33    4.3136   473.4    5.374      41.154
2015    5        2    12  39    4.3118   473.5    5.371      41.146
2015    5        2    12  45    4.3100   473.5    5.369      41.138
2015    5        2    12  52    4.3083   473.5    5.366      41.129
2015    5        2    12  58    4.3065   473.5    5.364      41.121
2015    5        2    13   4    4.3047   473.5    5.361      41.112
2015    5        2    13  10    4.3029   473.5    5.359      41.104
2015    5        2    13  16    4.3011   473.5    5.357      41.096
2015    5        2    13  22    4.2993   473.6    5.354      41.087
2015    5        2    13  28    4.2975   473.6    5.352      41.079
2015    5        2    13  34    4.2957   473.6    5.349      41.071
2015    5        2    13  41    4.2939   473.6    5.347      41.063
2015    5        2    13  47    4.2922   473.6    5.345      41.055
2015    5        2    13  53    4.2904   473.6    5.343      41.047
2015    5        2    13  59    4.2886   473.6    5.340      41.039
2015    5        2    14   5    4.2868   473.7    5.338      41.031
2015    5        2    14  11    4.2851   473.7    5.336      41.024
2015    5        2    14  17    4.2833   473.7    5.334      41.016
2015    5        2    14  23    4.2815   473.7    5.332      41.008
2015    5        2    14  29    4.2797   473.7    5.329      41.001
2015    5        2    14  36    4.2780   473.7    5.327      40.993
2015    5        2    14  42    4.2762   473.7    5.325      40.986
2015    5        2    14  48    4.2744   473.7    5.323      40.979
2015    5        2    14  54    4.2727   473.7    5.321      40.971
2015    5        2    15   0    4.2709   473.8    5.319      40.964
2015    5        2    15   6    4.2692   473.8    5.317      40.957
2015    5        2    15  12    4.2674   473.8    5.315      40.950
2015    5        2    15  18    4.2657   473.8    5.313      40.943
2015    5        2    15  24    4.2640   473.8    5.310      40.936
2015    5        2    15  31    4.2622   473.8    5.308      40.929
2015    5        2    15  37    4.2605   473.8    5.306      40.922
2015    5        2    15  43    4.2588   473.8    5.304      40.915
2015    5        2    15  49    4.2571   473.8    5.302      40.908
2015    5        2    15  55    4.2554   473.8    5.300      40.901
2015    5        2    16   1    4.2537   473.9    5.298      40.894
2015    5        2    16   7    4.2520   473.9    5.296      40.887
2015    5        2    16  13    4.2503   473.9    5.294      40.880
2015    5        2    16  19    4.2486   473.9    5.292      40.873
2015    5        2    16  26    4.2469   473.9    5.290      40.866
2015    5        2    16  32    4.2452   473.9    5.288      40.859
2015    5        2    16  38    4.2435   473.9    5.286      40.852
2015    5        2    16  44    4.2418   473.9    5.284      40.844
2015    5        2    16  50    4.2401   473.9    5.282      40.837
2015    5        2    16  56    4.2384   473.9    5.280      40.829
2015    5        2    17   2    4.2367   473.9    5.278      40.822
2015    5        2    17   8    4.2350   473.9    5.276      40.814
2015    5        2    17  14    4.2333   473.9    5.274      40.806
2015    5        2    17  21    4.2316   474.0    5.272      40.798
2015    5        2    17  27    4.2299   474.0    5.270      40.790
2015    5        2    17  33    4.2282   474.0    5.268      40.782
2015    5        2    17  39    4.2265   474.0    5.266      40.774
2015    5        2    17  45    4.2248   474.0    5.264      40.765
2015    5        2    17  51    4.2231   474.0    5.262      40.757
2015    5        2    17  57    4.2214   474.0    5.259      40.748
2015    5        2    18   3    4.2196   474.0    5.257      40.740
2015    5        2    18   9    4.2179   474.0    5.255      40.731
2015    5        2    18  16    4.2162   474.0    5.253      40.722
2015    5        2    18  22    4.2145   474.0    5.251      40.713
2015    5        2    18  28    4.2127   474.0    5.249      40.704
2015    5        2    18  34    4.2110   474.0    5.247      40.695
2015    5        2    18  40    4.2093   474.0    5.245      40.685
2015    5        2    18  46    4.2075   474.0    5.242      40.676
2015    5        2    18  52    4.2058   474.0    5.240      40.667
2015    5        2    18  58    4.2040   474.0    5.238      40.657
2015    5        2    19   4    4.2023   474.0    5.236      40.647
2015    5        2    19  11    4.2005   474.0    5.234      40.638
2015    5        2    19  17    4.1987   474.0    5.232      40.628
2015    5        2    19  23    4.1970   474.0    5.230      40.618
2015    5        2    19  29    4.1952   474.0    5.228      40.608
2015    5        2    19  35    4.1934   474.0    5.225      40.598
2015    5        2    19  41    4.1916   474.0    5.223      40.588
2015    5        2    19  47    4.1898   474.0    5.221      40.578
2015    5        2    19  53    4.1880   474.0    5.219      40.568
2015    5        2    19  59    4.1862   474.0    5.217      40.558
2015    5        2    20   6    4.1844   474.0    5.215      40.547
2015    5        2    20  12    4.1826   474.0    5.213      40.537
2015    5        2    20  18    4.1808   474.0    5.211      40.527
2015    5        2    20  24    4.1790   474.0    5.209      40.517
2015    5        2    20  30    4.1771   474.0    5.207      40.507
2015    5        2    20  36    4.1753   474.0    5.205      40.496
2015    5        2    20  42    4.1735   474.0    5.203      40.486
2015    5        2    20  48    4.1717   474.0    5.200      40.476
2015    5        2    20  54    4.1698   474.0    5.198      40.466
2015    5        2    21   1    4.1680   474.0    5.196      40.456
2015    5        2    21   7    4.1662   474.0    5.194      40.445
2015    5        2    21  13    4.1643   474.0    5.192      40.435
2015    5        2    21  19    4.1625   474.0    5.190      40.425
2015    5        2    21  25    4.1607   474.0    5.188      40.415
2015    5        2    21  31    4.1589   474.0    5.186      40.404
2015    5        2    21  37    4.1571   474.0    5.184      40.394
2015    5        2    21  43    4.1552   474.0    5.182      40.384
2015    5        2    21  49    4.1534   474.0    5.180      40.374
2015    5        2    21  56    4.1516   474.0    5.178      40.364
2015    5        2    22   2    4.1498   473.9    5.176      40.353
2015    5        2    22   8    4.1480   473.9    5.174      40.343
2015    5        2    22  14    4.1462   473.9    5.172      40.333
2015    5        2    22  20    4.1444   473.9    5.170      40.322
2015    5        2    22  26    4.1426   473.9    5.168      40.312
2015    5        2    22  32    4.1408   473.9    5.166      40.302
2015    5        2    22  38    4.1391   473.9    5.164      40.292
2015    5        2    22  44    4.1373   473.9    5.162      40.281
2015    5        2    22  51    4.1355   473.9    5.160      40.271
2015    5        2    22  57    4.1337   473.9    5.158      40.261
2015    5        2    23   3    4.1320   473.9    5.156      40.250
2015    5        2    23   9    4.1302   473.9    5.155      40.240
2015    5        2    23  15    4.1285   473.9    5.153      40.229
2015    5        2    23  21    4.1267   473.8    5.151      40.218
2015    5        2    23  27    4.1250   473.8    5.149      40.208
2015    5        2    23  33    4.1232   473.8    5.147      40.197
2015    5        2    23  39    4.1215   473.8    5.145      40.186
2015    5        2    23  46    4.1197   473.8    5.143      40.175
2015    5        2    23  52    4.1180   473.8    5.141      40.165
2015    5        2    23  58    4.1163   473.8    5.139      40.154
2015    5        3     0   4    4.1146   473.8    5.138      40.143
2015    5        3     0  10    4.1128   473.8    5.136      40.131
2015    5        3     0  16    4.1111   473.7    5.134      40.120
2015    5        3     0  22    4.1094   473.7    5.132      40.109
2015    5        3     0  28    4.1076   473.7    5.130      40.098
2015    5        3     0  34    4.1059   473.7    5.128      40.086
2015    5        3     0  41    4.1042   473.7    5.126      40.075
2015    5        3     0  47    4.1024   473.7    5.125      40.063
2015    5        3     0  53    4.1007   473.7    5.123      40.052
2015    5        3     0  59    4.0990   473.7    5.121      40.040
2015    5        3     1   5    4.0973   473.6    5.119      40.028
2015    5        3     1  11    4.0955   473.6    5.117      40.017
2015    5        3     1  17    4.0938   473.6    5.116      40.005
2015    5        3     1  23    4.0921   473.6    5.114      39.993
2015    5        3     1  30    4.0903   473.6    5.112      39.981
2015    5        3     1  36    4.0886   473.6    5.110      39.970
2015    5        3     1  42    4.0869   473.6    5.109      39.958
2015    5        3     1  48    4.0851   473.5    5.107      39.946
2015    5        3     1  54    4.0833   473.5    5.105      39.934
2015    5        3     2   0    4.0816   473.5    5.104      39.923
2015    5        3     2   6    4.0798   473.5    5.102      39.911
2015    5        3     2  12    4.0780   473.5    5.100      39.899
2015    5        3     2  18    4.0762   473.5    5.099      39.888
2015    5        3     2  25    4.0744   473.4    5.097      39.876
2015    5        3     2  31    4.0726   473.4    5.095      39.865
2015    5        3     2  37    4.0708   473.4    5.094      39.854
2015    5        3     2  43    4.0689   473.4    5.092      39.843
2015    5        3     2  49    4.0671   473.4    5.090      39.832
2015    5        3     2  55    4.0653   473.4    5.089      39.822
2015    5        3     3   1    4.0634   473.3    5.087      39.811
2015    5        3     3   7    4.0616   473.3    5.085      39.800
2015    5        3     3  13    4.0597   473.3    5.084      39.789
2015    5        3     3  20    4.0579   473.3    5.082      39.778
2015    5        3     3  26    4.0560   473.3    5.080      39.767
2015    5        3     3  32    4.0541   473.3    5.079      39.756
2015    5        3     3  38    4.0523   473.2    5.077      39.745
2015    5        3     3  44    4.0504   473.2    5.076      39.734
2015    5        3     3  50    4.0485   473.2    5.074      39.722
2015    5        3     3  56    4.0467   473.2    5.072      39.711
2015    5        3     4   2    4.0448   473.2    5.071      39.700
2015    5        3     4   8    4.0429   473.1    5.069      39.689
2015    5        3     4  15    4.0410   473.1    5.068      39.677
2015    5        3     4  21    4.0392   473.1    5.066      39.666
2015    5        3     4  27    4.0373   473.1    5.064      39.654
2015    5        3     4  33    4.0354   473.0    5.063      39.643
2015    5        3     4  39    4.0335   473.0    5.061      39.632
2015    5        3     4  45    4.0317   473.0    5.060      39.620
2015    5        3     4  51    4.0298   473.0    5.058      39.609
2015    5        3     4  57    4.0279   472.9    5.057      39.597
2015    5        3     5   3    4.0261   472.9    5.055      39.585
2015    5        3     5  10    4.0242   472.9    5.054      39.574
2015    5        3     5  16    4.0223   472.9    5.052      39.562
2015    5        3     5  22    4.0205   472.8    5.050      39.550
2015    5        3     5  28    4.0186   472.8    5.049      39.539
2015    5        3     5  34    4.0168   472.8    5.047      39.527
2015    5        3     5  40    4.0149   472.8    5.045      39.515
2015    5        3     5  46    4.0131   472.7    5.044      39.503
2015    5        3     5  52    4.0113   472.7    5.042      39.491
2015    5        3     5  58    4.0094   472.7    5.040      39.478
2015    5        3     6   5    4.0076   472.7    5.039      39.465
2015    5        3     6  11    4.0057   472.6    5.037      39.452
2015    5        3     6  17    4.0039   472.6    5.035      39.439
2015    5        3     6  23    4.0021   472.6    5.033      39.425
2015    5        3     6  29    4.0003   472.5    5.031      39.411
2015    5        3     6  35    3.9985   472.5    5.029      39.397
2015    5        3     6  41    3.9966   472.5    5.028      39.383
2015    5        3     6  47    3.9948   472.4    5.026      39.368
2015    5        3     6  53    3.9930   472.4    5.024      39.354
2015    5        3     7   0    3.9912   472.4    5.022      39.339
2015    5        3     7   6    3.9894   472.3    5.020      39.324
2015    5        3     7  12    3.9876   472.3    5.018      39.308
2015    5        3     7  18    3.9858   472.3    5.016      39.293
2015    5        3     7  24    3.9840   472.2    5.015      39.278
2015    5        3     7  30    3.9823   472.2    5.013      39.262
2015    5        3     7  36    3.9805   472.2    5.011      39.247
2015    5        3     7  42    3.9787   472.1    5.009      39.231
2015    5        3     7  48    3.9769   472.1    5.008      39.216
2015    5        3     7  55    3.9752   472.1    5.006      39.200
2015    5        3     8   1    3.9734   472.0    5.004      39.185
2015    5        3     8   7    3.9716   472.0    5.003      39.169
2015    5        3     8  13    3.9698   472.0    5.001      39.153
2015    5        3     8  19    3.9680   471.9    5.000      39.138
2015    5        3     8  25    3.9663   471.9    4.998      39.122
2015    5        3     8  31    3.9644   471.9    4.996      39.107
2015    5        3     8  37    3.9626   471.8    4.995      39.092
2015    5        3     8  43    3.9608   471.8    4.993      39.077
2015    5        3     8  50    3.9590   471.8    4.992      39.062
2015    5        3     8  56    3.9571   471.7    4.990      39.047
2015    5        3     9   2    3.9553   471.7    4.989      39.032
2015    5        3     9   8    3.9534   471.7    4.987      39.017
2015    5        3     9  14    3.9515   471.6    4.985      39.002
2015    5        3     9  20    3.9497   471.6    4.984      38.986
2015    5        3     9  26    3.9478   471.6    4.982      38.971
2015    5        3     9  32    3.9459   471.5    4.981      38.956
2015    5        3     9  38    3.9439   471.5    4.979      38.940
2015    5        3     9  45    3.9420   471.5    4.977      38.925
2015    5        3     9  51    3.9401   471.4    4.976      38.909
2015    5        3     9  57    3.9382   471.4    4.974      38.894
2015    5        3    10   3    3.9362   471.4    4.972      38.879
2015    5        3    10   9    3.9343   471.3    4.970      38.863
2015    5        3    10  15    3.9324   471.3    4.969      38.848
2015    5        3    10  21    3.9304   471.2    4.967      38.833
2015    5        3    10  27    3.9285   471.2    4.965      38.817
2015    5        3    10  33    3.9265   471.2    4.963      38.802
2015    5        3    10  40    3.9246   471.1    4.961      38.786
2015    5        3    10  46    3.9226   471.1    4.960      38.771
2015    5        3    10  52    3.9207   471.0    4.958      38.755
2015    5        3    10  58    3.9188   471.0    4.956      38.740
2015    5        3    11   4    3.9168   470.9    4.955      38.724
2015    5        3    11  10    3.9149   470.9    4.953      38.708
2015    5        3    11  16    3.9130   470.9    4.951      38.693
2015    5        3    11  22    3.9110   470.8    4.950      38.677
2015    5        3    11  28    3.9091   470.8    4.948      38.661
2015    5        3    11  35    3.9072   470.7    4.946      38.646
2015    5        3    11  41    3.9053   470.7    4.945      38.630
2015    5        3    11  47    3.9034   470.6    4.943      38.615
2015    5        3    11  53    3.9016   470.6    4.942      38.599
2015    5        3    11  59    3.8997   470.5    4.941      38.584
2015    5        3    12   5    3.8978   470.5    4.939      38.569
2015    5        3    12  11    3.8960   470.4    4.938      38.554
2015    5        3    12  17    3.8941   470.4    4.936      38.539
2015    5        3    12  23    3.8923   470.4    4.935      38.524
2015    5        3    12  30    3.8904   470.3    4.934      38.510
2015    5        3    12  36    3.8886   470.3    4.933      38.495
2015    5        3    12  42    3.8868   470.2    4.931      38.481
2015    5        3    12  48    3.8850   470.2    4.930      38.466
2015    5        3    12  54    3.8832   470.1    4.929      38.452
2015    5        3    13   0    3.8813   470.1    4.927      38.438
2015    5        3    13   6    3.8795   470.0    4.926      38.423
2015    5        3    13  12    3.8777   470.0    4.924      38.408
2015    5        3    13  18    3.8759   469.9    4.923      38.392
2015    5        3    13  25    3.8741   469.8    4.921      38.377
2015    5        3    13  31    3.8722   469.8    4.920      38.361
2015    5        3    13  37    3.8704   469.7    4.918      38.344
2015    5        3    13  43    3.8686   469.7    4.917      38.328
2015    5        3    13  49    3.8668   469.6    4.915      38.311
2015    5        3    13  55    3.8650   469.6    4.914      38.294
2015    5        3    14   1    3.8632   469.5    4.912      38.277
2015    5        3    14   7    3.8615   469.5    4.911      38.259
2015    5        3    14  13    3.8597   469.4    4.909      38.242
2015    5        3    14  20    3.8580   469.3    4.908      38.224
2015    5        3    14  26    3.8562   469.3    4.907      38.207
2015    5        3    14  32    3.8545   469.2    4.905      38.189
2015    5        3    14  38    3.8528   469.2    4.904      38.172
2015    5        3    14  44    3.8510   469.1    4.903      38.154
2015    5        3    14  50    3.8493   469.1    4.901      38.137
2015    5        3    14  56    3.8476   469.0    4.900      38.119
2015    5        3    15   2    3.8459   469.0    4.899      38.102
2015    5        3    15   8    3.8441   468.9    4.898      38.084
2015    5        3    15  15    3.8424   468.8    4.897      38.066
2015    5        3    15  21    3.8406   468.8    4.896      38.049
2015    5        3    15  27    3.8388   468.7    4.895      38.031
2015    5        3    15  33    3.8371   468.7    4.894      38.013
2015    5        3    15  39    3.8352   468.6    4.892      37.995
2015    5        3    15  45    3.8334   468.6    4.891      37.978
2015    5        3    15  51    3.8316   468.5    4.890      37.960
2015    5        3    15  57    3.8298   468.5    4.889      37.942
2015    5        3    16   4    3.8279   468.4    4.888      37.924
2015    5        3    16  10    3.8261   468.3    4.887      37.907
2015    5        3    16  16    3.8242   468.3    4.886      37.889
2015    5        3    16  22    3.8224   468.2    4.884      37.870
2015    5        3    16  28    3.8205   468.2    4.883      37.852
2015    5        3    16  34    3.8186   468.1    4.882      37.834
2015    5        3    16  40    3.8167   468.0    4.880      37.815
2015    5        3    16  46    3.8148   468.0    4.879      37.796
2015    5        3    16  52    3.8130   467.9    4.877      37.776
2015    5        3    16  59    3.8111   467.9    4.876      37.757
2015    5        3    17   5    3.8092   467.8    4.874      37.737
2015    5        3    17  11    3.8073   467.7    4.873      37.717
2015    5        3    17  17    3.8054   467.7    4.871      37.697
2015    5        3    17  23    3.8035   467.6    4.869      37.676
2015    5        3    17  29    3.8017   467.5    4.868      37.656
2015    5        3    17  35    3.7998   467.5    4.866      37.635
2015    5        3    17  41    3.7979   467.4    4.865      37.614
2015    5        3    17  47    3.7960   467.3    4.863      37.592
2015    5        3    17  54    3.7942   467.3    4.861      37.571
2015    5        3    18   0    3.7923   467.2    4.860      37.549
2015    5        3    18   6    3.7904   467.1    4.858      37.528
2015    5        3    18  12    3.7885   467.1    4.856      37.506
2015    5        3    18  18    3.7867   467.0    4.855      37.484
2015    5        3    18  24    3.7848   466.9    4.853      37.463
2015    5        3    18  30    3.7830   466.9    4.852      37.441
2015    5        3    18  36    3.7811   466.8    4.850      37.419
2015    5        3    18  42    3.7793   466.7    4.849      37.398
2015    5        3    18  49    3.7774   466.7    4.847      37.376
2015    5        3    18  55    3.7756   466.6    4.846      37.354
2015    5        3    19   1    3.7738   466.5    4.844      37.333
2015    5        3    19   7    3.7719   466.4    4.843      37.312
2015    5        3    19  13    3.7701   466.4    4.842      37.291
2015    5        3    19  19    3.7683   466.3    4.840      37.269
2015    5        3    19  25    3.7666   466.2    4.839      37.248
2015    5        3    19  31    3.7648   466.2    4.838      37.227
2015    5        3    19  37    3.7630   466.1    4.837      37.207
2015    5        3    19  44    3.7612   466.0    4.835      37.186
2015    5        3    19  50    3.7595   465.9    4.834      37.165
2015    5        3    19  56    3.7577   465.9    4.833      37.145
2015    5        3    20   2    3.7559   465.8    4.832      37.124
2015    5        3    20   8    3.7542   465.7    4.831      37.104
2015    5        3    20  14    3.7524   465.6    4.829      37.084
2015    5        3    20  20    3.7507   465.6    4.828      37.063
2015    5        3    20  26    3.7490   465.5    4.827      37.043
2015    5        3    20  32    3.7472   465.4    4.826      37.023
2015    5        3    20  39    3.7455   465.3    4.825      37.002
2015    5        3    20  45    3.7438   465.2    4.824      36.981
2015    5        3    20  51    3.7420   465.2    4.823      36.961
2015    5        3    20  57    3.7403   465.1    4.821      36.940
2015    5        3    21   3    3.7386   465.0    4.820      36.920
2015    5        3    21   9    3.7370   464.9    4.819      36.899
2015    5        3    21  15    3.7353   464.8    4.818      36.879
2015    5        3    21  21    3.7336   464.7    4.817      36.858
2015    5        3    21  27    3.7320   464.7    4.816      36.838
2015    5        3    21  34    3.7303   464.6    4.815      36.818
2015    5        3    21  40    3.7287   464.5    4.814      36.798
2015    5        3    21  46    3.7271   464.4    4.814      36.778
2015    5        3    21  52    3.7255   464.3    4.813      36.758
2015    5        3    21  58    3.7239   464.2    4.812      36.739
2015    5        3    22   4    3.7224   464.2    4.811      36.719
2015    5        3    22  10    3.7208   464.1    4.811      36.700
2015    5        3    22  16    3.7192   464.0    4.810      36.680
2015    5        3    22  22    3.7177   463.9    4.809      36.661
2015    5        3    22  29    3.7161   463.8    4.809      36.642
2015    5        3    22  35    3.7145   463.7    4.808      36.622
2015    5        3    22  41    3.7129   463.7    4.807      36.603
2015    5        3    22  47    3.7113   463.6    4.807      36.584
2015    5        3    22  53    3.7097   463.5    4.806      36.565
2015    5        3    22  59    3.7081   463.4    4.806      36.545
2015    5        3    23   5    3.7065   463.3    4.805      36.526
2015    5        3    23  11    3.7049   463.2    4.804      36.506
2015    5        3    23  17    3.7033   463.1    4.804      36.486
2015    5        3    23  24    3.7016   463.1    4.803      36.466
2015    5        3    23  30    3.7000   463.0    4.802      36.446
2015    5        3    23  36    3.6983   462.9    4.802      36.425
2015    5        3    23  42    3.6967   462.8    4.801      36.405
2015    5        3    23  48    3.6950   462.7    4.800      36.384
2015    5        3    23  54    3.6934   462.6    4.799      36.363
2015    5        4     0   0    3.6917   462.5    4.798      36.342
