year    month   day   hour  minute  B_enl V_enl   n_enl       T_enl
[year] [month] [day] [hour][minute] [nT]  [km/s]  [cm-3]      [kK]
2015    4       25     0   4    4.0184   363.4    8.112      28.662
2015    4       25     0  10    4.0232   363.4    8.126      28.686
2015    4       25     0  16    4.0280   363.3    8.139      28.710
2015    4       25     0  23    4.0328   363.3    8.153      28.733
2015    4       25     0  29    4.0377   363.2    8.167      28.757
2015    4       25     0  35    4.0426   363.2    8.181      28.781
2015    4       25     0  41    4.0474   363.2    8.195      28.805
2015    4       25     0  47    4.0523   363.1    8.209      28.829
2015    4       25     0  53    4.0573   363.1    8.223      28.853
2015    4       25     0  59    4.0622   363.1    8.237      28.877
2015    4       25     1   5    4.0671   363.0    8.251      28.900
2015    4       25     1  11    4.0721   363.0    8.265      28.924
2015    4       25     1  17    4.0770   363.0    8.279      28.948
2015    4       25     1  23    4.0819   362.9    8.293      28.973
2015    4       25     1  30    4.0869   362.9    8.307      28.998
2015    4       25     1  36    4.0918   362.9    8.321      29.024
2015    4       25     1  42    4.0967   362.9    8.335      29.050
2015    4       25     1  48    4.1016   362.9    8.349      29.077
2015    4       25     1  54    4.1065   362.8    8.363      29.104
2015    4       25     2   0    4.1113   362.8    8.377      29.131
2015    4       25     2   6    4.1162   362.8    8.390      29.158
2015    4       25     2  12    4.1210   362.8    8.404      29.184
2015    4       25     2  18    4.1258   362.8    8.417      29.211
2015    4       25     2  24    4.1306   362.7    8.430      29.238
2015    4       25     2  30    4.1354   362.7    8.443      29.264
2015    4       25     2  37    4.1401   362.7    8.456      29.290
2015    4       25     2  43    4.1449   362.7    8.469      29.316
2015    4       25     2  49    4.1496   362.7    8.482      29.342
2015    4       25     2  55    4.1543   362.7    8.495      29.368
2015    4       25     3   1    4.1589   362.7    8.507      29.393
2015    4       25     3   7    4.1636   362.6    8.520      29.419
2015    4       25     3  13    4.1683   362.6    8.532      29.444
2015    4       25     3  19    4.1730   362.6    8.545      29.469
2015    4       25     3  25    4.1776   362.6    8.557      29.495
2015    4       25     3  31    4.1822   362.6    8.569      29.520
2015    4       25     3  38    4.1869   362.6    8.582      29.545
2015    4       25     3  44    4.1916   362.6    8.594      29.570
2015    4       25     3  50    4.1963   362.5    8.607      29.596
2015    4       25     3  56    4.2009   362.5    8.619      29.621
2015    4       25     4   2    4.2056   362.5    8.632      29.647
2015    4       25     4   8    4.2103   362.5    8.644      29.673
2015    4       25     4  14    4.2150   362.5    8.657      29.699
2015    4       25     4  20    4.2196   362.5    8.669      29.725
2015    4       25     4  26    4.2243   362.5    8.682      29.752
2015    4       25     4  32    4.2290   362.5    8.694      29.780
2015    4       25     4  38    4.2336   362.5    8.706      29.808
2015    4       25     4  45    4.2382   362.5    8.718      29.836
2015    4       25     4  51    4.2428   362.5    8.730      29.864
2015    4       25     4  57    4.2474   362.5    8.743      29.892
2015    4       25     5   3    4.2520   362.5    8.754      29.921
2015    4       25     5   9    4.2566   362.5    8.766      29.950
2015    4       25     5  15    4.2612   362.5    8.778      29.979
2015    4       25     5  21    4.2658   362.5    8.790      30.007
2015    4       25     5  27    4.2704   362.5    8.802      30.036
2015    4       25     5  33    4.2750   362.5    8.814      30.064
2015    4       25     5  39    4.2796   362.5    8.826      30.093
2015    4       25     5  45    4.2842   362.5    8.838      30.121
2015    4       25     5  52    4.2888   362.5    8.850      30.150
2015    4       25     5  58    4.2934   362.6    8.862      30.178
2015    4       25     6   4    4.2981   362.6    8.873      30.207
2015    4       25     6  10    4.3027   362.6    8.885      30.235
2015    4       25     6  16    4.3073   362.6    8.897      30.264
2015    4       25     6  22    4.3120   362.6    8.909      30.293
2015    4       25     6  28    4.3166   362.6    8.921      30.322
2015    4       25     6  34    4.3212   362.6    8.933      30.352
2015    4       25     6  40    4.3259   362.6    8.944      30.381
2015    4       25     6  46    4.3305   362.6    8.956      30.410
2015    4       25     6  52    4.3351   362.6    8.968      30.439
2015    4       25     6  59    4.3398   362.7    8.979      30.468
2015    4       25     7   5    4.3444   362.7    8.991      30.497
2015    4       25     7  11    4.3490   362.7    9.003      30.526
2015    4       25     7  17    4.3537   362.7    9.015      30.555
2015    4       25     7  23    4.3583   362.7    9.027      30.584
2015    4       25     7  29    4.3629   362.7    9.039      30.612
2015    4       25     7  35    4.3676   362.7    9.050      30.641
2015    4       25     7  41    4.3723   362.8    9.063      30.670
2015    4       25     7  47    4.3770   362.8    9.075      30.699
2015    4       25     7  53    4.3817   362.8    9.087      30.728
2015    4       25     7  59    4.3864   362.8    9.099      30.757
2015    4       25     8   6    4.3912   362.8    9.112      30.785
2015    4       25     8  12    4.3960   362.9    9.125      30.815
2015    4       25     8  18    4.4008   362.9    9.138      30.844
2015    4       25     8  24    4.4057   362.9    9.152      30.873
2015    4       25     8  30    4.4105   362.9    9.165      30.904
2015    4       25     8  36    4.4154   363.0    9.179      30.935
2015    4       25     8  42    4.4203   363.0    9.193      30.967
2015    4       25     8  48    4.4252   363.0    9.207      30.999
2015    4       25     8  54    4.4301   363.0    9.221      31.032
2015    4       25     9   0    4.4351   363.1    9.236      31.067
2015    4       25     9   7    4.4400   363.1    9.250      31.103
2015    4       25     9  13    4.4449   363.2    9.265      31.140
2015    4       25     9  19    4.4497   363.2    9.279      31.179
2015    4       25     9  25    4.4545   363.3    9.293      31.218
2015    4       25     9  31    4.4593   363.3    9.307      31.257
2015    4       25     9  37    4.4639   363.4    9.321      31.298
2015    4       25     9  43    4.4685   363.4    9.334      31.339
2015    4       25     9  49    4.4731   363.5    9.346      31.379
2015    4       25     9  55    4.4775   363.5    9.359      31.419
2015    4       25    10   1    4.4819   363.6    9.371      31.458
2015    4       25    10   7    4.4862   363.6    9.382      31.497
2015    4       25    10  14    4.4905   363.7    9.393      31.535
2015    4       25    10  20    4.4946   363.7    9.404      31.572
2015    4       25    10  26    4.4987   363.8    9.414      31.608
2015    4       25    10  32    4.5027   363.8    9.424      31.645
2015    4       25    10  38    4.5066   363.9    9.434      31.680
2015    4       25    10  44    4.5104   363.9    9.443      31.714
2015    4       25    10  50    4.5142   364.0    9.452      31.748
2015    4       25    10  56    4.5180   364.0    9.460      31.781
2015    4       25    11   2    4.5217   364.1    9.468      31.814
2015    4       25    11   8    4.5253   364.1    9.476      31.845
2015    4       25    11  14    4.5289   364.2    9.483      31.877
2015    4       25    11  21    4.5324   364.2    9.490      31.907
2015    4       25    11  27    4.5359   364.3    9.497      31.937
2015    4       25    11  33    4.5393   364.3    9.504      31.966
2015    4       25    11  39    4.5427   364.4    9.510      31.995
2015    4       25    11  45    4.5461   364.4    9.517      32.024
2015    4       25    11  51    4.5494   364.5    9.523      32.052
2015    4       25    11  57    4.5526   364.5    9.529      32.079
2015    4       25    12   3    4.5559   364.6    9.534      32.106
2015    4       25    12   9    4.5591   364.6    9.540      32.132
2015    4       25    12  15    4.5623   364.7    9.545      32.158
2015    4       25    12  21    4.5655   364.7    9.550      32.184
2015    4       25    12  28    4.5686   364.8    9.555      32.210
2015    4       25    12  34    4.5718   364.8    9.560      32.235
2015    4       25    12  40    4.5749   364.9    9.565      32.260
2015    4       25    12  46    4.5780   364.9    9.570      32.284
2015    4       25    12  52    4.5811   364.9    9.575      32.308
2015    4       25    12  58    4.5842   365.0    9.580      32.333
2015    4       25    13   4    4.5873   365.0    9.584      32.356
2015    4       25    13  10    4.5903   365.1    9.589      32.380
2015    4       25    13  16    4.5934   365.1    9.593      32.404
2015    4       25    13  22    4.5964   365.2    9.598      32.428
2015    4       25    13  29    4.5995   365.2    9.602      32.453
2015    4       25    13  35    4.6025   365.3    9.607      32.477
2015    4       25    13  41    4.6055   365.3    9.611      32.501
2015    4       25    13  47    4.6086   365.4    9.615      32.526
2015    4       25    13  53    4.6116   365.4    9.620      32.550
2015    4       25    13  59    4.6145   365.5    9.624      32.574
2015    4       25    14   5    4.6175   365.5    9.628      32.599
2015    4       25    14  11    4.6205   365.5    9.632      32.623
2015    4       25    14  17    4.6234   365.6    9.636      32.647
2015    4       25    14  23    4.6264   365.6    9.640      32.671
2015    4       25    14  29    4.6293   365.7    9.644      32.695
2015    4       25    14  36    4.6322   365.7    9.648      32.719
2015    4       25    14  42    4.6352   365.8    9.653      32.743
2015    4       25    14  48    4.6381   365.8    9.657      32.767
2015    4       25    14  54    4.6410   365.9    9.661      32.790
2015    4       25    15   0    4.6438   365.9    9.665      32.814
2015    4       25    15   6    4.6467   366.0    9.670      32.839
2015    4       25    15  12    4.6496   366.0    9.674      32.863
2015    4       25    15  18    4.6525   366.1    9.678      32.887
2015    4       25    15  24    4.6554   366.1    9.683      32.912
2015    4       25    15  30    4.6583   366.2    9.688      32.936
2015    4       25    15  36    4.6612   366.2    9.693      32.961
2015    4       25    15  43    4.6641   366.3    9.698      32.986
2015    4       25    15  49    4.6671   366.3    9.703      33.012
2015    4       25    15  55    4.6700   366.4    9.708      33.038
2015    4       25    16   1    4.6730   366.4    9.714      33.064
2015    4       25    16   7    4.6761   366.5    9.720      33.090
2015    4       25    16  13    4.6791   366.5    9.726      33.116
2015    4       25    16  19    4.6822   366.6    9.733      33.143
2015    4       25    16  25    4.6853   366.6    9.740      33.171
2015    4       25    16  31    4.6884   366.7    9.747      33.200
2015    4       25    16  37    4.6915   366.7    9.754      33.231
2015    4       25    16  43    4.6946   366.8    9.761      33.262
2015    4       25    16  50    4.6977   366.8    9.768      33.295
2015    4       25    16  56    4.7007   366.9    9.775      33.328
2015    4       25    17   2    4.7038   367.0    9.782      33.363
2015    4       25    17   8    4.7068   367.0    9.789      33.398
2015    4       25    17  14    4.7098   367.1    9.796      33.432
2015    4       25    17  20    4.7127   367.2    9.803      33.467
2015    4       25    17  26    4.7157   367.2    9.810      33.502
2015    4       25    17  32    4.7187   367.3    9.817      33.538
2015    4       25    17  38    4.7216   367.4    9.824      33.573
2015    4       25    17  44    4.7245   367.4    9.831      33.608
2015    4       25    17  50    4.7273   367.5    9.837      33.643
2015    4       25    17  57    4.7301   367.6    9.844      33.680
2015    4       25    18   3    4.7329   367.6    9.851      33.717
2015    4       25    18   9    4.7355   367.7    9.857      33.754
2015    4       25    18  15    4.7381   367.8    9.863      33.792
2015    4       25    18  21    4.7406   367.9    9.869      33.830
2015    4       25    18  27    4.7431   367.9    9.874      33.868
2015    4       25    18  33    4.7454   368.0    9.879      33.906
2015    4       25    18  39    4.7477   368.1    9.884      33.944
2015    4       25    18  45    4.7499   368.2    9.888      33.981
2015    4       25    18  51    4.7520   368.3    9.892      34.017
2015    4       25    18  58    4.7541   368.3    9.895      34.052
2015    4       25    19   4    4.7560   368.4    9.898      34.086
2015    4       25    19  10    4.7579   368.5    9.901      34.119
2015    4       25    19  16    4.7597   368.6    9.903      34.151
2015    4       25    19  22    4.7615   368.6    9.904      34.183
2015    4       25    19  28    4.7631   368.7    9.906      34.213
2015    4       25    19  34    4.7648   368.8    9.907      34.242
2015    4       25    19  40    4.7663   368.8    9.907      34.270
2015    4       25    19  46    4.7679   368.9    9.908      34.298
2015    4       25    19  52    4.7693   369.0    9.908      34.324
2015    4       25    19  58    4.7708   369.0    9.907      34.349
2015    4       25    20   5    4.7722   369.1    9.907      34.374
2015    4       25    20  11    4.7735   369.2    9.906      34.398
2015    4       25    20  17    4.7749   369.2    9.905      34.421
2015    4       25    20  23    4.7762   369.3    9.904      34.444
2015    4       25    20  29    4.7774   369.4    9.902      34.465
2015    4       25    20  35    4.7787   369.4    9.901      34.486
2015    4       25    20  41    4.7799   369.5    9.899      34.507
2015    4       25    20  47    4.7811   369.6    9.897      34.527
2015    4       25    20  53    4.7823   369.6    9.895      34.546
2015    4       25    20  59    4.7835   369.7    9.893      34.565
2015    4       25    21   5    4.7846   369.7    9.891      34.584
2015    4       25    21  12    4.7857   369.8    9.888      34.602
2015    4       25    21  18    4.7869   369.9    9.886      34.619
2015    4       25    21  24    4.7880   369.9    9.884      34.636
2015    4       25    21  30    4.7891   370.0    9.881      34.653
2015    4       25    21  36    4.7902   370.0    9.878      34.669
2015    4       25    21  42    4.7912   370.1    9.876      34.686
2015    4       25    21  48    4.7923   370.1    9.873      34.702
2015    4       25    21  54    4.7933   370.2    9.870      34.717
2015    4       25    22   0    4.7944   370.2    9.868      34.732
2015    4       25    22   6    4.7954   370.3    9.865      34.747
2015    4       25    22  12    4.7964   370.3    9.862      34.762
2015    4       25    22  19    4.7974   370.4    9.859      34.777
2015    4       25    22  25    4.7984   370.4    9.856      34.791
2015    4       25    22  31    4.7994   370.5    9.853      34.806
2015    4       25    22  37    4.8003   370.5    9.850      34.820
2015    4       25    22  43    4.8013   370.6    9.847      34.834
2015    4       25    22  49    4.8023   370.6    9.844      34.849
2015    4       25    22  55    4.8032   370.7    9.842      34.863
2015    4       25    23   1    4.8042   370.7    9.839      34.877
2015    4       25    23   7    4.8051   370.8    9.836      34.891
2015    4       25    23  13    4.8061   370.8    9.833      34.904
2015    4       25    23  20    4.8070   370.9    9.830      34.918
2015    4       25    23  26    4.8080   370.9    9.827      34.932
2015    4       25    23  32    4.8090   371.0    9.825      34.945
2015    4       25    23  38    4.8099   371.0    9.822      34.959
2015    4       25    23  44    4.8109   371.1    9.820      34.972
2015    4       25    23  50    4.8119   371.1    9.817      34.986
2015    4       25    23  56    4.8130   371.2    9.815      34.999
2015    4       26     0   2    4.8140   371.2    9.813      35.013
2015    4       26     0   8    4.8151   371.3    9.811      35.027
2015    4       26     0  14    4.8162   371.3    9.810      35.041
2015    4       26     0  20    4.8174   371.3    9.809      35.056
2015    4       26     0  27    4.8186   371.4    9.808      35.071
2015    4       26     0  33    4.8198   371.4    9.807      35.086
2015    4       26     0  39    4.8211   371.5    9.807      35.102
2015    4       26     0  45    4.8224   371.5    9.807      35.118
2015    4       26     0  51    4.8238   371.6    9.807      35.135
2015    4       26     0  57    4.8253   371.6    9.808      35.153
2015    4       26     1   3    4.8267   371.7    9.809      35.170
2015    4       26     1   9    4.8283   371.7    9.811      35.189
2015    4       26     1  15    4.8298   371.8    9.813      35.209
2015    4       26     1  21    4.8314   371.8    9.816      35.231
2015    4       26     1  27    4.8330   371.9    9.818      35.254
2015    4       26     1  34    4.8346   371.9    9.821      35.279
2015    4       26     1  40    4.8361   372.0    9.825      35.303
2015    4       26     1  46    4.8377   372.1    9.828      35.329
2015    4       26     1  52    4.8392   372.1    9.831      35.356
2015    4       26     1  58    4.8408   372.2    9.835      35.384
2015    4       26     2   4    4.8422   372.3    9.838      35.413
2015    4       26     2  10    4.8436   372.3    9.842      35.441
2015    4       26     2  16    4.8449   372.4    9.845      35.470
2015    4       26     2  22    4.8461   372.5    9.848      35.499
2015    4       26     2  28    4.8473   372.6    9.850      35.529
2015    4       26     2  34    4.8483   372.6    9.852      35.559
2015    4       26     2  41    4.8493   372.7    9.854      35.588
2015    4       26     2  47    4.8502   372.8    9.855      35.616
2015    4       26     2  53    4.8510   372.9    9.856      35.644
2015    4       26     2  59    4.8518   372.9    9.856      35.670
2015    4       26     3   5    4.8525   373.0    9.856      35.696
2015    4       26     3  11    4.8531   373.1    9.856      35.720
2015    4       26     3  17    4.8536   373.2    9.855      35.744
2015    4       26     3  23    4.8541   373.2    9.854      35.767
2015    4       26     3  29    4.8545   373.3    9.852      35.789
2015    4       26     3  35    4.8548   373.4    9.851      35.810
2015    4       26     3  41    4.8552   373.5    9.848      35.831
2015    4       26     3  48    4.8554   373.5    9.846      35.850
2015    4       26     3  54    4.8557   373.6    9.843      35.869
2015    4       26     4   0    4.8559   373.7    9.841      35.887
2015    4       26     4   6    4.8561   373.7    9.838      35.904
2015    4       26     4  12    4.8562   373.8    9.834      35.921
2015    4       26     4  18    4.8564   373.9    9.831      35.937
2015    4       26     4  24    4.8565   373.9    9.827      35.953
2015    4       26     4  30    4.8566   374.0    9.824      35.968
2015    4       26     4  36    4.8567   374.1    9.820      35.983
2015    4       26     4  42    4.8568   374.1    9.816      35.997
2015    4       26     4  49    4.8569   374.2    9.812      36.011
2015    4       26     4  55    4.8570   374.3    9.808      36.024
2015    4       26     5   1    4.8570   374.3    9.804      36.037
2015    4       26     5   7    4.8571   374.4    9.800      36.050
2015    4       26     5  13    4.8571   374.5    9.796      36.062
2015    4       26     5  19    4.8572   374.5    9.792      36.074
2015    4       26     5  25    4.8572   374.6    9.788      36.086
2015    4       26     5  30    4.8573   374.6    9.784      36.098
2015    4       26     5  34    4.8573   374.7    9.781      36.110
2015    4       26     5  39    4.8574   374.7    9.778      36.122
2015    4       26     5  43    4.8575   374.8    9.776      36.134
2015    4       26     5  47    4.8575   374.8    9.773      36.146
2015    4       26     5  51    4.8576   374.8    9.770      36.158
2015    4       26     5  55    4.8577   374.9    9.767      36.170
2015    4       26     5  59    4.8577   374.9    9.764      36.182
2015    4       26     6   3    4.8578   375.0    9.762      36.194
2015    4       26     6   7    4.8579   375.0    9.759      36.207
2015    4       26     6  12    4.8580   375.0    9.756      36.219
2015    4       26     6  16    4.8581   375.1    9.753      36.232
2015    4       26     6  20    4.8582   375.1    9.750      36.245
2015    4       26     6  24    4.8583   375.2    9.748      36.257
2015    4       26     6  28    4.8585   375.2    9.745      36.270
2015    4       26     6  32    4.8586   375.3    9.742      36.283
2015    4       26     6  36    4.8587   375.3    9.739      36.295
2015    4       26     6  40    4.8588   375.4    9.736      36.307
2015    4       26     6  44    4.8589   375.4    9.733      36.320
2015    4       26     6  48    4.8590   375.4    9.730      36.332
2015    4       26     6  52    4.8590   375.5    9.727      36.343
2015    4       26     6  56    4.8591   375.5    9.724      36.355
2015    4       26     7   0    4.8592   375.6    9.721      36.367
2015    4       26     7   4    4.8592   375.6    9.718      36.378
2015    4       26     7   8    4.8593   375.7    9.715      36.389
2015    4       26     7  12    4.8594   375.7    9.712      36.401
2015    4       26     7  16    4.8594   375.8    9.709      36.412
2015    4       26     7  20    4.8594   375.8    9.706      36.422
2015    4       26     7  24    4.8595   375.8    9.702      36.433
2015    4       26     7  28    4.8595   375.9    9.699      36.444
2015    4       26     7  32    4.8596   375.9    9.696      36.454
2015    4       26     7  36    4.8596   376.0    9.693      36.464
2015    4       26     7  40    4.8596   376.0    9.690      36.475
2015    4       26     7  44    4.8597   376.1    9.687      36.485
2015    4       26     7  48    4.8597   376.1    9.683      36.495
2015    4       26     7  52    4.8598   376.2    9.680      36.505
2015    4       26     7  56    4.8598   376.2    9.677      36.514
2015    4       26     8   1    4.8599   376.2    9.674      36.524
2015    4       26     8   5    4.8599   376.3    9.671      36.534
2015    4       26     8   9    4.8600   376.3    9.668      36.544
2015    4       26     8  13    4.8600   376.4    9.665      36.553
2015    4       26     8  17    4.8601   376.4    9.663      36.563
2015    4       26     8  21    4.8602   376.5    9.660      36.573
2015    4       26     8  25    4.8603   376.5    9.657      36.583
2015    4       26     8  29    4.8604   376.6    9.654      36.592
2015    4       26     8  33    4.8605   376.6    9.652      36.602
2015    4       26     8  37    4.8606   376.7    9.649      36.612
2015    4       26     8  41    4.8607   376.7    9.647      36.622
2015    4       26     8  45    4.8609   376.7    9.645      36.632
2015    4       26     8  49    4.8610   376.8    9.642      36.642
2015    4       26     8  53    4.8612   376.8    9.640      36.652
2015    4       26     8  58    4.8613   376.9    9.638      36.662
2015    4       26     9   2    4.8615   376.9    9.637      36.672
2015    4       26     9   6    4.8616   377.0    9.635      36.682
2015    4       26     9  10    4.8617   377.0    9.633      36.693
2015    4       26     9  14    4.8619   377.1    9.632      36.705
2015    4       26     9  18    4.8620   377.1    9.630      36.716
2015    4       26     9  22    4.8621   377.2    9.629      36.729
2015    4       26     9  26    4.8622   377.2    9.627      36.741
2015    4       26     9  30    4.8622   377.3    9.625      36.754
2015    4       26     9  35    4.8622   377.3    9.624      36.768
2015    4       26     9  39    4.8622   377.4    9.622      36.782
2015    4       26     9  43    4.8622   377.5    9.620      36.796
2015    4       26     9  47    4.8621   377.5    9.619      36.811
2015    4       26     9  51    4.8620   377.6    9.617      36.826
2015    4       26     9  56    4.8619   377.7    9.614      36.841
2015    4       26    10   0    4.8617   377.7    9.612      36.856
2015    4       26    10   4    4.8616   377.8    9.610      36.871
2015    4       26    10   8    4.8613   377.9    9.607      36.885
2015    4       26    10  12    4.8611   377.9    9.605      36.899
2015    4       26    10  17    4.8608   378.0    9.602      36.913
2015    4       26    10  21    4.8605   378.0    9.599      36.927
2015    4       26    10  25    4.8601   378.1    9.596      36.941
2015    4       26    10  29    4.8597   378.2    9.592      36.955
2015    4       26    10  33    4.8593   378.2    9.589      36.968
2015    4       26    10  38    4.8588   378.3    9.585      36.981
2015    4       26    10  42    4.8583   378.4    9.582      36.994
2015    4       26    10  46    4.8578   378.4    9.578      37.007
2015    4       26    10  50    4.8572   378.5    9.574      37.019
2015    4       26    10  55    4.8567   378.6    9.570      37.031
2015    4       26    10  59    4.8561   378.6    9.565      37.044
2015    4       26    11   3    4.8555   378.7    9.561      37.055
2015    4       26    11   7    4.8548   378.8    9.557      37.067
2015    4       26    11  12    4.8542   378.8    9.552      37.078
2015    4       26    11  16    4.8535   378.9    9.547      37.090
2015    4       26    11  20    4.8529   379.0    9.543      37.101
2015    4       26    11  25    4.8522   379.0    9.538      37.112
2015    4       26    11  29    4.8514   379.1    9.533      37.123
2015    4       26    11  33    4.8507   379.2    9.528      37.133
2015    4       26    11  37    4.8500   379.2    9.523      37.144
2015    4       26    11  42    4.8492   379.3    9.518      37.154
2015    4       26    11  46    4.8485   379.4    9.513      37.165
2015    4       26    11  50    4.8477   379.4    9.508      37.175
2015    4       26    11  55    4.8469   379.5    9.502      37.185
2015    4       26    11  59    4.8462   379.6    9.497      37.195
2015    4       26    12   3    4.8454   379.6    9.492      37.205
2015    4       26    12   8    4.8446   379.7    9.486      37.215
2015    4       26    12  12    4.8438   379.8    9.481      37.224
2015    4       26    12  16    4.8430   379.8    9.476      37.234
2015    4       26    12  21    4.8421   379.9    9.470      37.244
2015    4       26    12  25    4.8413   379.9    9.465      37.253
2015    4       26    12  29    4.8405   380.0    9.459      37.263
2015    4       26    12  34    4.8397   380.1    9.454      37.272
2015    4       26    12  38    4.8388   380.1    9.448      37.281
2015    4       26    12  42    4.8380   380.2    9.443      37.291
2015    4       26    12  47    4.8372   380.3    9.438      37.300
2015    4       26    12  51    4.8364   380.3    9.432      37.310
2015    4       26    12  55    4.8355   380.4    9.427      37.319
2015    4       26    13   0    4.8347   380.4    9.421      37.329
2015    4       26    13   4    4.8339   380.5    9.416      37.339
2015    4       26    13   9    4.8331   380.6    9.410      37.349
2015    4       26    13  13    4.8323   380.6    9.404      37.360
2015    4       26    13  17    4.8314   380.7    9.399      37.370
2015    4       26    13  22    4.8306   380.8    9.393      37.380
2015    4       26    13  26    4.8298   380.9    9.387      37.391
2015    4       26    13  31    4.8289   380.9    9.381      37.401
2015    4       26    13  35    4.8281   381.0    9.376      37.412
2015    4       26    13  39    4.8273   381.1    9.370      37.422
2015    4       26    13  44    4.8264   381.1    9.364      37.432
2015    4       26    13  48    4.8255   381.2    9.358      37.441
2015    4       26    13  53    4.8246   381.3    9.352      37.451
2015    4       26    13  57    4.8236   381.3    9.345      37.460
2015    4       26    14   1    4.8227   381.4    9.339      37.470
2015    4       26    14   6    4.8217   381.5    9.333      37.479
2015    4       26    14  10    4.8208   381.5    9.327      37.487
2015    4       26    14  15    4.8197   381.6    9.320      37.496
2015    4       26    14  19    4.8187   381.7    9.314      37.505
2015    4       26    14  23    4.8177   381.8    9.307      37.513
2015    4       26    14  28    4.8166   381.8    9.300      37.520
2015    4       26    14  32    4.8156   381.9    9.294      37.528
2015    4       26    14  37    4.8145   382.0    9.287      37.536
2015    4       26    14  41    4.8134   382.0    9.280      37.543
2015    4       26    14  46    4.8122   382.1    9.274      37.550
2015    4       26    14  50    4.8111   382.2    9.267      37.557
2015    4       26    14  55    4.8100   382.2    9.260      37.564
2015    4       26    14  59    4.8088   382.3    9.253      37.571
2015    4       26    15   3    4.8076   382.4    9.246      37.577
2015    4       26    15   8    4.8064   382.4    9.239      37.584
2015    4       26    15  12    4.8052   382.5    9.232      37.590
2015    4       26    15  17    4.8040   382.6    9.225      37.596
2015    4       26    15  21    4.8028   382.6    9.218      37.602
2015    4       26    15  26    4.8015   382.7    9.210      37.608
2015    4       26    15  30    4.8003   382.8    9.203      37.613
2015    4       26    15  35    4.7990   382.9    9.196      37.619
2015    4       26    15  39    4.7977   382.9    9.189      37.624
2015    4       26    15  44    4.7964   383.0    9.181      37.629
2015    4       26    15  48    4.7951   383.1    9.174      37.634
2015    4       26    15  52    4.7938   383.1    9.167      37.639
2015    4       26    15  57    4.7925   383.2    9.159      37.644
2015    4       26    16   1    4.7911   383.3    9.152      37.649
2015    4       26    16   6    4.7897   383.3    9.145      37.653
2015    4       26    16  10    4.7883   383.4    9.137      37.658
2015    4       26    16  15    4.7869   383.5    9.130      37.662
2015    4       26    16  19    4.7854   383.5    9.122      37.666
2015    4       26    16  24    4.7840   383.6    9.115      37.671
2015    4       26    16  28    4.7825   383.7    9.107      37.675
2015    4       26    16  33    4.7810   383.7    9.100      37.679
2015    4       26    16  37    4.7795   383.8    9.092      37.683
2015    4       26    16  42    4.7779   383.9    9.084      37.687
2015    4       26    16  46    4.7763   384.0    9.076      37.691
2015    4       26    16  51    4.7747   384.0    9.069      37.695
2015    4       26    16  55    4.7731   384.1    9.061      37.699
2015    4       26    17   0    4.7714   384.2    9.053      37.702
2015    4       26    17   4    4.7698   384.2    9.045      37.706
2015    4       26    17   9    4.7681   384.3    9.036      37.709
2015    4       26    17  13    4.7664   384.4    9.028      37.712
2015    4       26    17  18    4.7646   384.4    9.020      37.715
2015    4       26    17  22    4.7628   384.5    9.012      37.718
2015    4       26    17  27    4.7610   384.6    9.003      37.721
2015    4       26    17  31    4.7592   384.7    8.995      37.723
2015    4       26    17  36    4.7574   384.7    8.986      37.726
2015    4       26    17  40    4.7556   384.8    8.978      37.728
2015    4       26    17  45    4.7537   384.9    8.969      37.730
2015    4       26    17  49    4.7518   384.9    8.960      37.732
2015    4       26    17  54    4.7498   385.0    8.952      37.733
2015    4       26    17  58    4.7479   385.1    8.943      37.735
2015    4       26    18   3    4.7459   385.2    8.934      37.736
2015    4       26    18   7    4.7440   385.2    8.925      37.737
2015    4       26    18  12    4.7420   385.3    8.916      37.738
2015    4       26    18  17    4.7400   385.4    8.906      37.738
2015    4       26    18  21    4.7379   385.4    8.897      37.739
2015    4       26    18  26    4.7359   385.5    8.888      37.739
2015    4       26    18  30    4.7338   385.6    8.879      37.739
2015    4       26    18  35    4.7317   385.6    8.869      37.739
2015    4       26    18  39    4.7297   385.7    8.860      37.738
2015    4       26    18  44    4.7275   385.8    8.850      37.738
2015    4       26    18  49    4.7254   385.9    8.841      37.737
2015    4       26    18  53    4.7233   385.9    8.831      37.736
2015    4       26    18  58    4.7211   386.0    8.821      37.735
2015    4       26    19   2    4.7190   386.1    8.812      37.733
2015    4       26    19   7    4.7168   386.1    8.802      37.732
2015    4       26    19  12    4.7145   386.2    8.792      37.730
2015    4       26    19  16    4.7123   386.3    8.782      37.728
2015    4       26    19  21    4.7101   386.3    8.772      37.726
2015    4       26    19  26    4.7078   386.4    8.762      37.723
2015    4       26    19  30    4.7055   386.5    8.752      37.721
2015    4       26    19  35    4.7033   386.5    8.742      37.718
2015    4       26    19  40    4.7010   386.6    8.732      37.715
2015    4       26    19  44    4.6987   386.7    8.721      37.712
2015    4       26    19  49    4.6963   386.7    8.711      37.709
2015    4       26    19  54    4.6940   386.8    8.701      37.705
2015    4       26    19  59    4.6917   386.9    8.691      37.702
2015    4       26    20   3    4.6893   386.9    8.680      37.698
2015    4       26    20   8    4.6869   387.0    8.670      37.693
2015    4       26    20  13    4.6845   387.1    8.660      37.689
2015    4       26    20  18    4.6821   387.1    8.649      37.684
2015    4       26    20  22    4.6796   387.2    8.639      37.679
2015    4       26    20  27    4.6772   387.2    8.628      37.674
2015    4       26    20  32    4.6747   387.3    8.618      37.669
2015    4       26    20  37    4.6723   387.4    8.607      37.663
2015    4       26    20  41    4.6698   387.4    8.596      37.658
2015    4       26    20  46    4.6673   387.5    8.586      37.652
2015    4       26    20  51    4.6648   387.6    8.575      37.645
2015    4       26    20  56    4.6622   387.6    8.565      37.639
2015    4       26    21   1    4.6597   387.7    8.554      37.633
2015    4       26    21   6    4.6571   387.7    8.543      37.626
2015    4       26    21  11    4.6546   387.8    8.532      37.619
2015    4       26    21  15    4.6520   387.9    8.522      37.612
2015    4       26    21  20    4.6494   387.9    8.511      37.605
2015    4       26    21  25    4.6468   388.0    8.500      37.597
2015    4       26    21  30    4.6441   388.0    8.489      37.589
2015    4       26    21  35    4.6415   388.1    8.478      37.581
2015    4       26    21  40    4.6388   388.1    8.467      37.573
2015    4       26    21  45    4.6361   388.2    8.456      37.564
2015    4       26    21  50    4.6334   388.2    8.445      37.556
2015    4       26    21  55    4.6307   388.3    8.434      37.547
2015    4       26    22   0    4.6280   388.4    8.423      37.538
2015    4       26    22   5    4.6252   388.4    8.412      37.528
2015    4       26    22  10    4.6225   388.5    8.401      37.519
2015    4       26    22  15    4.6197   388.5    8.390      37.509
2015    4       26    22  20    4.6169   388.6    8.379      37.499
2015    4       26    22  25    4.6141   388.6    8.368      37.489
2015    4       26    22  30    4.6113   388.7    8.357      37.478
2015    4       26    22  35    4.6085   388.7    8.346      37.468
2015    4       26    22  40    4.6056   388.8    8.335      37.457
2015    4       26    22  45    4.6028   388.8    8.324      37.446
2015    4       26    22  50    4.5999   388.9    8.312      37.435
2015    4       26    22  55    4.5970   388.9    8.301      37.423
2015    4       26    23   0    4.5941   389.0    8.290      37.412
2015    4       26    23   5    4.5912   389.0    8.279      37.400
2015    4       26    23  10    4.5883   389.1    8.267      37.388
2015    4       26    23  15    4.5853   389.1    8.256      37.375
2015    4       26    23  20    4.5823   389.2    8.245      37.362
2015    4       26    23  25    4.5793   389.3    8.233      37.349
2015    4       26    23  30    4.5763   389.3    8.222      37.336
2015    4       26    23  35    4.5733   389.4    8.211      37.322
2015    4       26    23  40    4.5702   389.4    8.199      37.308
2015    4       26    23  46    4.5672   389.4    8.188      37.294
2015    4       26    23  51    4.5641   389.5    8.176      37.279
2015    4       26    23  56    4.5610   389.5    8.165      37.265
2015    4       27     0   1    4.5579   389.6    8.153      37.250
2015    4       27     0   6    4.5547   389.6    8.142      37.235
2015    4       27     0  11    4.5515   389.7    8.130      37.220
2015    4       27     0  16    4.5484   389.7    8.118      37.204
2015    4       27     0  22    4.5452   389.8    8.107      37.188
2015    4       27     0  27    4.5419   389.8    8.095      37.172
2015    4       27     0  32    4.5387   389.9    8.083      37.156
2015    4       27     0  37    4.5354   389.9    8.072      37.140
2015    4       27     0  42    4.5322   390.0    8.060      37.123
2015    4       27     0  47    4.5289   390.0    8.048      37.106
2015    4       27     0  53    4.5256   390.1    8.036      37.089
2015    4       27     0  58    4.5223   390.1    8.025      37.072
2015    4       27     1   3    4.5190   390.1    8.013      37.054
2015    4       27     1   8    4.5156   390.2    8.001      37.036
2015    4       27     1  14    4.5123   390.2    7.990      37.017
2015    4       27     1  19    4.5090   390.3    7.978      36.999
2015    4       27     1  24    4.5056   390.3    7.966      36.980
2015    4       27     1  29    4.5023   390.3    7.955      36.960
2015    4       27     1  35    4.4989   390.4    7.943      36.941
2015    4       27     1  40    4.4956   390.4    7.932      36.920
2015    4       27     1  45    4.4922   390.4    7.920      36.900
2015    4       27     1  50    4.4889   390.5    7.909      36.879
2015    4       27     1  56    4.4855   390.5    7.897      36.858
2015    4       27     2   1    4.4821   390.5    7.886      36.836
2015    4       27     2   6    4.4787   390.6    7.874      36.814
2015    4       27     2  12    4.4753   390.6    7.863      36.791
2015    4       27     2  17    4.4719   390.6    7.852      36.769
2015    4       27     2  22    4.4685   390.7    7.841      36.745
2015    4       27     2  28    4.4651   390.7    7.830      36.722
2015    4       27     2  33    4.4617   390.7    7.819      36.698
2015    4       27     2  38    4.4583   390.7    7.808      36.674
2015    4       27     2  44    4.4549   390.8    7.797      36.650
2015    4       27     2  49    4.4514   390.8    7.786      36.626
2015    4       27     2  55    4.4480   390.8    7.775      36.601
2015    4       27     3   0    4.4446   390.9    7.765      36.576
2015    4       27     3   5    4.4411   390.9    7.754      36.551
2015    4       27     3  11    4.4377   390.9    7.744      36.527
2015    4       27     3  16    4.4342   390.9    7.733      36.502
2015    4       27     3  22    4.4308   390.9    7.723      36.476
2015    4       27     3  27    4.4273   391.0    7.712      36.451
2015    4       27     3  32    4.4239   391.0    7.702      36.426
2015    4       27     3  38    4.4204   391.0    7.692      36.400
2015    4       27     3  43    4.4169   391.0    7.682      36.374
2015    4       27     3  49    4.4135   391.1    7.672      36.348
2015    4       27     3  54    4.4100   391.1    7.662      36.322
2015    4       27     4   0    4.4065   391.1    7.652      36.297
2015    4       27     4   5    4.4031   391.1    7.642      36.271
2015    4       27     4  11    4.3996   391.1    7.633      36.245
2015    4       27     4  16    4.3961   391.1    7.623      36.219
2015    4       27     4  22    4.3927   391.1    7.613      36.193
2015    4       27     4  27    4.3892   391.2    7.603      36.167
2015    4       27     4  33    4.3858   391.2    7.594      36.141
2015    4       27     4  38    4.3824   391.2    7.584      36.115
2015    4       27     4  44    4.3790   391.2    7.575      36.089
2015    4       27     4  49    4.3755   391.2    7.565      36.062
2015    4       27     4  55    4.3721   391.2    7.555      36.035
2015    4       27     5   0    4.3687   391.2    7.546      36.008
2015    4       27     5   6    4.3653   391.2    7.536      35.981
2015    4       27     5  11    4.3619   391.2    7.527      35.953
2015    4       27     5  17    4.3585   391.2    7.517      35.926
2015    4       27     5  22    4.3551   391.2    7.507      35.898
2015    4       27     5  28    4.3517   391.2    7.498      35.869
2015    4       27     5  33    4.3483   391.2    7.488      35.841
2015    4       27     5  39    4.3449   391.2    7.479      35.812
2015    4       27     5  45    4.3415   391.2    7.469      35.783
2015    4       27     5  50    4.3382   391.2    7.460      35.754
2015    4       27     5  56    4.3348   391.2    7.450      35.724
2015    4       27     6   1    4.3314   391.2    7.441      35.694
2015    4       27     6   7    4.3280   391.2    7.432      35.664
2015    4       27     6  12    4.3247   391.2    7.422      35.634
2015    4       27     6  18    4.3213   391.2    7.413      35.604
2015    4       27     6  24    4.3179   391.2    7.404      35.573
2015    4       27     6  29    4.3145   391.2    7.394      35.542
2015    4       27     6  35    4.3112   391.2    7.385      35.511
2015    4       27     6  41    4.3078   391.2    7.376      35.480
2015    4       27     6  46    4.3044   391.2    7.367      35.448
2015    4       27     6  52    4.3010   391.2    7.357      35.416
2015    4       27     6  58    4.2977   391.2    7.348      35.384
2015    4       27     7   3    4.2943   391.2    7.339      35.352
2015    4       27     7   9    4.2909   391.2    7.330      35.319
2015    4       27     7  15    4.2875   391.2    7.321      35.286
2015    4       27     7  20    4.2841   391.2    7.312      35.253
2015    4       27     7  26    4.2806   391.2    7.303      35.220
2015    4       27     7  32    4.2772   391.2    7.294      35.187
2015    4       27     7  38    4.2739   391.1    7.285      35.154
2015    4       27     7  43    4.2705   391.1    7.276      35.121
2015    4       27     7  49    4.2671   391.1    7.267      35.088
2015    4       27     7  55    4.2637   391.1    7.259      35.055
2015    4       27     8   0    4.2604   391.1    7.250      35.022
2015    4       27     8   6    4.2570   391.1    7.242      34.989
2015    4       27     8  12    4.2537   391.1    7.233      34.956
2015    4       27     8  17    4.2503   391.0    7.225      34.922
2015    4       27     8  23    4.2470   391.0    7.216      34.889
2015    4       27     8  29    4.2437   391.0    7.208      34.855
2015    4       27     8  34    4.2404   391.0    7.200      34.822
2015    4       27     8  40    4.2371   391.0    7.192      34.788
2015    4       27     8  46    4.2338   390.9    7.184      34.753
2015    4       27     8  52    4.2305   390.9    7.176      34.719
2015    4       27     8  57    4.2273   390.9    7.169      34.684
2015    4       27     9   3    4.2240   390.9    7.161      34.649
2015    4       27     9   9    4.2208   390.8    7.153      34.614
2015    4       27     9  15    4.2175   390.8    7.146      34.578
2015    4       27     9  20    4.2143   390.8    7.139      34.543
2015    4       27     9  26    4.2111   390.8    7.132      34.507
2015    4       27     9  32    4.2079   390.7    7.125      34.471
2015    4       27     9  38    4.2047   390.7    7.118      34.436
2015    4       27     9  43    4.2015   390.7    7.111      34.400
2015    4       27     9  49    4.1983   390.6    7.104      34.364
2015    4       27     9  55    4.1951   390.6    7.098      34.328
2015    4       27    10   1    4.1920   390.6    7.092      34.292
2015    4       27    10   7    4.1888   390.5    7.085      34.256
2015    4       27    10  13    4.1857   390.5    7.079      34.220
2015    4       27    10  18    4.1825   390.4    7.074      34.185
2015    4       27    10  24    4.1794   390.4    7.068      34.150
2015    4       27    10  30    4.1763   390.4    7.062      34.114
2015    4       27    10  36    4.1731   390.3    7.057      34.079
2015    4       27    10  42    4.1700   390.3    7.051      34.044
2015    4       27    10  48    4.1670   390.3    7.046      34.010
2015    4       27    10  54    4.1639   390.2    7.041      33.975
2015    4       27    11   0    4.1608   390.2    7.036      33.941
2015    4       27    11   5    4.1578   390.1    7.031      33.908
2015    4       27    11  11    4.1548   390.1    7.026      33.875
2015    4       27    11  17    4.1519   390.1    7.021      33.842
2015    4       27    11  23    4.1489   390.0    7.017      33.810
2015    4       27    11  29    4.1460   390.0    7.012      33.778
2015    4       27    11  35    4.1431   389.9    7.008      33.746
2015    4       27    11  40    4.1402   389.9    7.003      33.714
2015    4       27    11  46    4.1373   389.8    6.999      33.683
2015    4       27    11  52    4.1344   389.8    6.994      33.651
2015    4       27    11  58    4.1316   389.7    6.990      33.620
2015    4       27    12   4    4.1287   389.7    6.985      33.588
2015    4       27    12  10    4.1259   389.6    6.981      33.557
2015    4       27    12  15    4.1231   389.6    6.977      33.525
2015    4       27    12  21    4.1203   389.5    6.972      33.493
2015    4       27    12  27    4.1175   389.5    6.968      33.462
2015    4       27    12  33    4.1148   389.4    6.964      33.430
2015    4       27    12  39    4.1120   389.4    6.959      33.398
2015    4       27    12  45    4.1093   389.3    6.955      33.366
2015    4       27    12  51    4.1066   389.3    6.951      33.334
2015    4       27    12  57    4.1040   389.2    6.947      33.303
2015    4       27    13   3    4.1013   389.2    6.943      33.271
2015    4       27    13   9    4.0987   389.1    6.939      33.239
2015    4       27    13  15    4.0960   389.1    6.935      33.207
2015    4       27    13  21    4.0934   389.0    6.931      33.175
2015    4       27    13  27    4.0909   388.9    6.928      33.144
2015    4       27    13  32    4.0883   388.9    6.924      33.112
2015    4       27    13  38    4.0858   388.8    6.920      33.080
2015    4       27    13  44    4.0833   388.8    6.917      33.048
2015    4       27    13  50    4.0808   388.7    6.913      33.017
2015    4       27    13  56    4.0784   388.7    6.910      32.985
2015    4       27    14   2    4.0759   388.6    6.907      32.954
2015    4       27    14   8    4.0735   388.5    6.903      32.922
2015    4       27    14  15    4.0711   388.5    6.900      32.891
2015    4       27    14  21    4.0687   388.4    6.897      32.860
2015    4       27    14  27    4.0664   388.4    6.895      32.828
2015    4       27    14  33    4.0641   388.3    6.892      32.798
2015    4       27    14  39    4.0618   388.2    6.889      32.767
2015    4       27    14  45    4.0595   388.2    6.887      32.737
2015    4       27    14  51    4.0573   388.1    6.884      32.707
2015    4       27    14  57    4.0551   388.1    6.882      32.677
2015    4       27    15   3    4.0529   388.0    6.880      32.647
2015    4       27    15   9    4.0507   387.9    6.877      32.617
2015    4       27    15  14    4.0485   387.9    6.875      32.586
2015    4       27    15  20    4.0464   387.8    6.873      32.556
2015    4       27    15  26    4.0442   387.7    6.871      32.526
2015    4       27    15  32    4.0421   387.7    6.869      32.495
2015    4       27    15  38    4.0400   387.6    6.867      32.465
2015    4       27    15  44    4.0378   387.6    6.866      32.434
2015    4       27    15  50    4.0357   387.5    6.864      32.403
2015    4       27    15  56    4.0336   387.4    6.862      32.373
2015    4       27    16   2    4.0315   387.4    6.861      32.342
2015    4       27    16   8    4.0294   387.3    6.859      32.311
2015    4       27    16  14    4.0274   387.2    6.857      32.280
2015    4       27    16  21    4.0253   387.1    6.856      32.249
2015    4       27    16  27    4.0232   387.1    6.854      32.219
2015    4       27    16  33    4.0212   387.0    6.852      32.188
2015    4       27    16  39    4.0191   386.9    6.851      32.157
2015    4       27    16  45    4.0171   386.9    6.849      32.127
2015    4       27    16  51    4.0151   386.8    6.848      32.096
2015    4       27    16  57    4.0130   386.7    6.846      32.066
2015    4       27    17   3    4.0110   386.7    6.845      32.036
2015    4       27    17   9    4.0090   386.6    6.844      32.006
2015    4       27    17  15    4.0070   386.5    6.842      31.976
2015    4       27    17  21    4.0050   386.4    6.841      31.946
2015    4       27    17  27    4.0031   386.4    6.839      31.916
2015    4       27    17  33    4.0011   386.3    6.838      31.887
2015    4       27    17  40    3.9992   386.2    6.836      31.857
2015    4       27    17  46    3.9972   386.1    6.835      31.828
2015    4       27    17  52    3.9953   386.1    6.834      31.799
2015    4       27    17  58    3.9934   386.0    6.832      31.770
2015    4       27    18   4    3.9915   385.9    6.831      31.741
2015    4       27    18  10    3.9896   385.8    6.829      31.712
2015    4       27    18  16    3.9877   385.8    6.828      31.683
2015    4       27    18  22    3.9859   385.7    6.827      31.654
2015    4       27    18  28    3.9840   385.6    6.825      31.625
2015    4       27    18  34    3.9822   385.5    6.824      31.597
2015    4       27    18  40    3.9804   385.5    6.822      31.568
2015    4       27    18  47    3.9786   385.4    6.821      31.540
2015    4       27    18  53    3.9769   385.3    6.820      31.512
2015    4       27    18  59    3.9751   385.2    6.818      31.483
2015    4       27    19   5    3.9733   385.1    6.817      31.456
2015    4       27    19  11    3.9716   385.1    6.815      31.427
2015    4       27    19  17    3.9699   385.0    6.814      31.400
2015    4       27    19  23    3.9682   384.9    6.812      31.372
2015    4       27    19  29    3.9666   384.8    6.811      31.344
2015    4       27    19  35    3.9649   384.7    6.810      31.317
2015    4       27    19  41    3.9633   384.7    6.808      31.289
2015    4       27    19  47    3.9617   384.6    6.807      31.262
2015    4       27    19  54    3.9601   384.5    6.806      31.235
2015    4       27    20   0    3.9585   384.4    6.804      31.208
2015    4       27    20   6    3.9570   384.3    6.803      31.181
2015    4       27    20  12    3.9554   384.3    6.802      31.155
2015    4       27    20  18    3.9539   384.2    6.800      31.128
2015    4       27    20  24    3.9525   384.1    6.799      31.102
2015    4       27    20  30    3.9510   384.0    6.798      31.076
2015    4       27    20  36    3.9496   383.9    6.797      31.050
2015    4       27    20  42    3.9482   383.8    6.796      31.024
2015    4       27    20  48    3.9468   383.8    6.795      30.999
2015    4       27    20  54    3.9454   383.7    6.794      30.974
2015    4       27    21   1    3.9441   383.6    6.793      30.948
2015    4       27    21   7    3.9428   383.5    6.792      30.923
2015    4       27    21  13    3.9415   383.4    6.791      30.899
2015    4       27    21  19    3.9402   383.4    6.790      30.874
2015    4       27    21  25    3.9390   383.3    6.790      30.850
2015    4       27    21  31    3.9378   383.2    6.789      30.826
2015    4       27    21  37    3.9366   383.1    6.789      30.801
2015    4       27    21  43    3.9354   383.0    6.788      30.777
2015    4       27    21  49    3.9342   382.9    6.788      30.754
2015    4       27    21  55    3.9331   382.9    6.787      30.730
2015    4       27    22   1    3.9320   382.8    6.787      30.707
2015    4       27    22   8    3.9308   382.7    6.787      30.683
2015    4       27    22  14    3.9297   382.6    6.786      30.660
2015    4       27    22  20    3.9287   382.5    6.786      30.636
2015    4       27    22  26    3.9276   382.5    6.786      30.613
2015    4       27    22  32    3.9265   382.4    6.786      30.589
2015    4       27    22  38    3.9255   382.3    6.786      30.565
2015    4       27    22  44    3.9244   382.2    6.786      30.541
2015    4       27    22  50    3.9234   382.1    6.786      30.518
2015    4       27    22  56    3.9224   382.0    6.786      30.494
2015    4       27    23   2    3.9214   382.0    6.786      30.470
2015    4       27    23   8    3.9204   381.9    6.787      30.446
2015    4       27    23  15    3.9194   381.8    6.787      30.422
2015    4       27    23  21    3.9184   381.7    6.787      30.399
2015    4       27    23  27    3.9175   381.6    6.788      30.375
2015    4       27    23  33    3.9165   381.5    6.788      30.351
2015    4       27    23  39    3.9156   381.4    6.788      30.328
2015    4       27    23  45    3.9147   381.3    6.789      30.305
2015    4       27    23  51    3.9138   381.3    6.789      30.281
2015    4       27    23  57    3.9129   381.2    6.790      30.258
2015    4       28     0   3    3.9121   381.1    6.791      30.235
2015    4       28     0   9    3.9112   381.0    6.791      30.212
2015    4       28     0  15    3.9104   380.9    6.792      30.190
2015    4       28     0  22    3.9096   380.8    6.793      30.167
2015    4       28     0  28    3.9089   380.7    6.794      30.145
2015    4       28     0  34    3.9081   380.6    6.795      30.122
2015    4       28     0  40    3.9074   380.5    6.796      30.101
2015    4       28     0  46    3.9066   380.4    6.797      30.078
2015    4       28     0  52    3.9059   380.4    6.799      30.057
2015    4       28     0  58    3.9053   380.3    6.800      30.035
2015    4       28     1   4    3.9046   380.2    6.801      30.014
2015    4       28     1  10    3.9040   380.1    6.803      29.992
2015    4       28     1  16    3.9034   380.0    6.804      29.971
2015    4       28     1  22    3.9028   379.9    6.806      29.950
2015    4       28     1  29    3.9022   379.8    6.808      29.929
2015    4       28     1  35    3.9016   379.7    6.809      29.908
2015    4       28     1  41    3.9010   379.6    6.811      29.888
2015    4       28     1  47    3.9005   379.5    6.813      29.867
2015    4       28     1  53    3.8999   379.4    6.815      29.846
2015    4       28     1  59    3.8994   379.3    6.817      29.826
2015    4       28     2   5    3.8988   379.3    6.819      29.805
2015    4       28     2  11    3.8982   379.2    6.821      29.785
2015    4       28     2  17    3.8977   379.1    6.823      29.765
2015    4       28     2  23    3.8971   379.0    6.825      29.745
2015    4       28     2  29    3.8966   378.9    6.827      29.724
2015    4       28     2  36    3.8960   378.8    6.829      29.704
2015    4       28     2  42    3.8955   378.7    6.831      29.684
2015    4       28     2  48    3.8949   378.6    6.833      29.664
2015    4       28     2  54    3.8944   378.5    6.835      29.643
2015    4       28     3   0    3.8938   378.4    6.837      29.623
2015    4       28     3   6    3.8933   378.3    6.839      29.603
2015    4       28     3  12    3.8927   378.2    6.841      29.582
2015    4       28     3  18    3.8922   378.1    6.843      29.562
2015    4       28     3  24    3.8917   378.0    6.845      29.542
2015    4       28     3  30    3.8912   377.9    6.847      29.521
2015    4       28     3  36    3.8907   377.8    6.848      29.501
2015    4       28     3  43    3.8902   377.8    6.850      29.480
2015    4       28     3  49    3.8897   377.7    6.852      29.460
2015    4       28     3  55    3.8892   377.6    6.854      29.439
2015    4       28     4   1    3.8887   377.5    6.855      29.419
2015    4       28     4   7    3.8882   377.4    6.857      29.398
2015    4       28     4  13    3.8878   377.3    6.859      29.378
2015    4       28     4  19    3.8873   377.2    6.860      29.357
2015    4       28     4  25    3.8869   377.1    6.862      29.337
2015    4       28     4  31    3.8865   377.0    6.863      29.316
2015    4       28     4  37    3.8861   376.9    6.865      29.296
2015    4       28     4  43    3.8857   376.8    6.867      29.276
2015    4       28     4  50    3.8854   376.7    6.868      29.255
2015    4       28     4  56    3.8851   376.6    6.870      29.235
2015    4       28     5   2    3.8847   376.5    6.871      29.215
2015    4       28     5   8    3.8845   376.4    6.873      29.195
2015    4       28     5  14    3.8842   376.3    6.874      29.175
2015    4       28     5  20    3.8839   376.1    6.876      29.155
2015    4       28     5  26    3.8837   376.0    6.877      29.136
2015    4       28     5  32    3.8835   375.9    6.879      29.116
2015    4       28     5  38    3.8833   375.8    6.880      29.096
2015    4       28     5  44    3.8832   375.7    6.882      29.077
2015    4       28     5  50    3.8830   375.6    6.884      29.058
2015    4       28     5  57    3.8829   375.5    6.886      29.038
2015    4       28     6   3    3.8829   375.4    6.887      29.019
2015    4       28     6   9    3.8828   375.3    6.889      29.000
2015    4       28     6  15    3.8828   375.2    6.891      28.982
2015    4       28     6  21    3.8828   375.1    6.893      28.963
2015    4       28     6  27    3.8829   375.0    6.895      28.944
2015    4       28     6  33    3.8830   374.9    6.897      28.926
2015    4       28     6  39    3.8831   374.8    6.900      28.908
2015    4       28     6  45    3.8833   374.7    6.902      28.890
2015    4       28     6  51    3.8835   374.6    6.905      28.872
2015    4       28     6  58    3.8837   374.4    6.907      28.855
2015    4       28     7   4    3.8840   374.3    6.910      28.837
2015    4       28     7  10    3.8843   374.2    6.913      28.820
2015    4       28     7  16    3.8847   374.1    6.916      28.804
2015    4       28     7  22    3.8850   374.0    6.920      28.787
2015    4       28     7  28    3.8855   373.9    6.923      28.771
2015    4       28     7  34    3.8859   373.8    6.927      28.755
2015    4       28     7  40    3.8865   373.7    6.931      28.739
2015    4       28     7  46    3.8870   373.6    6.935      28.723
2015    4       28     7  52    3.8876   373.5    6.939      28.708
2015    4       28     7  58    3.8882   373.3    6.943      28.693
2015    4       28     8   5    3.8889   373.2    6.948      28.679
2015    4       28     8  11    3.8896   373.1    6.953      28.665
2015    4       28     8  17    3.8904   373.0    6.958      28.651
2015    4       28     8  23    3.8912   372.9    6.963      28.637
2015    4       28     8  29    3.8920   372.8    6.969      28.624
2015    4       28     8  35    3.8929   372.7    6.975      28.612
2015    4       28     8  41    3.8939   372.6    6.981      28.599
2015    4       28     8  47    3.8948   372.5    6.987      28.587
2015    4       28     8  53    3.8958   372.4    6.994      28.576
2015    4       28     8  59    3.8968   372.2    7.001      28.565
2015    4       28     9   5    3.8979   372.1    7.008      28.554
2015    4       28     9  12    3.8989   372.0    7.015      28.544
2015    4       28     9  18    3.9000   371.9    7.022      28.534
2015    4       28     9  24    3.9011   371.8    7.030      28.524
2015    4       28     9  30    3.9023   371.7    7.038      28.515
2015    4       28     9  36    3.9034   371.6    7.046      28.506
2015    4       28     9  42    3.9046   371.5    7.054      28.497
2015    4       28     9  48    3.9058   371.4    7.063      28.489
2015    4       28     9  54    3.9070   371.3    7.071      28.481
2015    4       28    10   0    3.9082   371.2    7.080      28.473
2015    4       28    10   6    3.9095   371.1    7.089      28.466
2015    4       28    10  12    3.9107   371.0    7.098      28.458
2015    4       28    10  19    3.9120   370.9    7.107      28.451
2015    4       28    10  25    3.9133   370.8    7.116      28.445
2015    4       28    10  31    3.9147   370.7    7.125      28.438
2015    4       28    10  37    3.9160   370.6    7.135      28.432
2015    4       28    10  43    3.9174   370.5    7.144      28.426
2015    4       28    10  49    3.9188   370.4    7.154      28.420
2015    4       28    10  55    3.9202   370.3    7.163      28.415
2015    4       28    11   1    3.9216   370.2    7.173      28.409
2015    4       28    11   7    3.9230   370.1    7.183      28.404
2015    4       28    11  13    3.9245   370.0    7.193      28.399
2015    4       28    11  19    3.9260   369.9    7.202      28.394
2015    4       28    11  26    3.9275   369.8    7.212      28.390
2015    4       28    11  32    3.9291   369.6    7.222      28.386
2015    4       28    11  38    3.9306   369.5    7.232      28.382
2015    4       28    11  44    3.9323   369.4    7.242      28.378
2015    4       28    11  50    3.9339   369.3    7.252      28.375
2015    4       28    11  56    3.9356   369.2    7.262      28.371
2015    4       28    12   2    3.9373   369.1    7.272      28.368
2015    4       28    12   8    3.9390   369.0    7.282      28.366
2015    4       28    12  14    3.9407   368.9    7.293      28.363
2015    4       28    12  20    3.9426   368.9    7.303      28.361
2015    4       28    12  26    3.9444   368.8    7.313      28.359
2015    4       28    12  33    3.9463   368.7    7.324      28.357
2015    4       28    12  39    3.9483   368.6    7.334      28.355
2015    4       28    12  45    3.9503   368.5    7.345      28.354
2015    4       28    12  51    3.9523   368.4    7.355      28.354
2015    4       28    12  57    3.9544   368.3    7.366      28.353
2015    4       28    13   3    3.9566   368.2    7.377      28.353
2015    4       28    13   9    3.9588   368.1    7.387      28.354
2015    4       28    13  15    3.9611   368.0    7.398      28.355
2015    4       28    13  21    3.9634   367.9    7.409      28.356
2015    4       28    13  27    3.9657   367.8    7.420      28.358
2015    4       28    13  33    3.9682   367.7    7.430      28.361
2015    4       28    13  40    3.9706   367.7    7.441      28.364
2015    4       28    13  46    3.9730   367.6    7.452      28.368
2015    4       28    13  52    3.9755   367.5    7.462      28.373
2015    4       28    13  58    3.9780   367.4    7.473      28.378
2015    4       28    14   4    3.9806   367.3    7.483      28.384
2015    4       28    14  10    3.9831   367.3    7.493      28.390
2015    4       28    14  16    3.9857   367.2    7.504      28.397
2015    4       28    14  22    3.9883   367.1    7.514      28.404
2015    4       28    14  28    3.9909   367.0    7.524      28.411
2015    4       28    14  34    3.9935   367.0    7.534      28.419
2015    4       28    14  40    3.9961   366.9    7.544      28.427
2015    4       28    14  47    3.9988   366.8    7.554      28.435
2015    4       28    14  53    4.0015   366.7    7.564      28.443
2015    4       28    14  59    4.0042   366.7    7.574      28.451
2015    4       28    15   5    4.0069   366.6    7.584      28.460
2015    4       28    15  11    4.0096   366.5    7.594      28.468
2015    4       28    15  17    4.0124   366.4    7.605      28.477
2015    4       28    15  23    4.0152   366.4    7.615      28.486
2015    4       28    15  29    4.0180   366.3    7.625      28.494
2015    4       28    15  35    4.0209   366.2    7.635      28.503
2015    4       28    15  41    4.0238   366.1    7.646      28.512
2015    4       28    15  47    4.0267   366.1    7.656      28.521
2015    4       28    15  54    4.0296   366.0    7.667      28.530
2015    4       28    16   0    4.0326   365.9    7.677      28.539
2015    4       28    16   6    4.0356   365.9    7.688      28.548
2015    4       28    16  12    4.0386   365.8    7.699      28.557
2015    4       28    16  18    4.0417   365.7    7.710      28.566
2015    4       28    16  24    4.0448   365.7    7.721      28.576
2015    4       28    16  30    4.0479   365.6    7.732      28.585
2015    4       28    16  36    4.0510   365.5    7.744      28.595
2015    4       28    16  42    4.0542   365.5    7.755      28.605
2015    4       28    16  48    4.0574   365.4    7.767      28.615
2015    4       28    16  54    4.0606   365.3    7.778      28.625
2015    4       28    17   1    4.0639   365.3    7.790      28.635
2015    4       28    17   7    4.0672   365.2    7.802      28.646
2015    4       28    17  13    4.0705   365.1    7.814      28.657
2015    4       28    17  19    4.0739   365.1    7.826      28.668
2015    4       28    17  25    4.0773   365.0    7.838      28.679
2015    4       28    17  31    4.0807   365.0    7.851      28.691
2015    4       28    17  37    4.0841   364.9    7.863      28.703
2015    4       28    17  43    4.0876   364.8    7.876      28.715
2015    4       28    17  49    4.0911   364.8    7.889      28.727
2015    4       28    17  55    4.0946   364.7    7.902      28.740
2015    4       28    18   2    4.0982   364.7    7.915      28.753
2015    4       28    18   8    4.1018   364.6    7.928      28.766
2015    4       28    18  14    4.1054   364.6    7.941      28.779
2015    4       28    18  20    4.1091   364.5    7.955      28.793
2015    4       28    18  26    4.1128   364.4    7.968      28.807
2015    4       28    18  32    4.1165   364.4    7.982      28.822
2015    4       28    18  38    4.1202   364.3    7.996      28.836
2015    4       28    18  44    4.1240   364.3    8.010      28.852
2015    4       28    18  50    4.1279   364.2    8.024      28.867
2015    4       28    18  56    4.1317   364.2    8.038      28.882
2015    4       28    19   2    4.1357   364.1    8.053      28.898
2015    4       28    19   9    4.1396   364.1    8.068      28.915
2015    4       28    19  15    4.1436   364.0    8.082      28.932
2015    4       28    19  21    4.1477   364.0    8.097      28.949
2015    4       28    19  27    4.1518   363.9    8.113      28.966
2015    4       28    19  33    4.1560   363.9    8.129      28.984
2015    4       28    19  39    4.1603   363.8    8.145      29.002
2015    4       28    19  45    4.1647   363.8    8.161      29.021
2015    4       28    19  51    4.1691   363.8    8.177      29.040
2015    4       28    19  57    4.1736   363.7    8.194      29.060
2015    4       28    20   3    4.1782   363.7    8.210      29.082
2015    4       28    20   9    4.1828   363.7    8.227      29.105
2015    4       28    20  16    4.1875   363.6    8.244      29.129
2015    4       28    20  22    4.1922   363.6    8.260      29.156
2015    4       28    20  28    4.1970   363.6    8.277      29.183
2015    4       28    20  34    4.2018   363.6    8.293      29.212
2015    4       28    20  40    4.2066   363.6    8.309      29.243
2015    4       28    20  46    4.2114   363.5    8.325      29.274
2015    4       28    20  52    4.2161   363.5    8.341      29.305
2015    4       28    20  58    4.2209   363.5    8.356      29.337
2015    4       28    21   4    4.2256   363.5    8.371      29.370
2015    4       28    21  10    4.2303   363.5    8.386      29.402
2015    4       28    21  16    4.2350   363.5    8.400      29.435
2015    4       28    21  23    4.2397   363.5    8.414      29.468
2015    4       28    21  29    4.2443   363.5    8.428      29.501
2015    4       28    21  35    4.2489   363.5    8.441      29.534
2015    4       28    21  41    4.2534   363.5    8.454      29.567
2015    4       28    21  47    4.2580   363.5    8.467      29.600
2015    4       28    21  53    4.2625   363.5    8.480      29.632
2015    4       28    21  59    4.2669   363.5    8.492      29.665
2015    4       28    22   5    4.2714   363.5    8.504      29.697
2015    4       28    22  11    4.2758   363.5    8.516      29.728
2015    4       28    22  17    4.2802   363.5    8.528      29.759
2015    4       28    22  23    4.2846   363.5    8.539      29.791
2015    4       28    22  30    4.2890   363.5    8.550      29.821
2015    4       28    22  36    4.2934   363.5    8.561      29.852
2015    4       28    22  42    4.2977   363.5    8.572      29.881
2015    4       28    22  48    4.3020   363.5    8.582      29.911
2015    4       28    22  54    4.3064   363.5    8.593      29.940
2015    4       28    23   0    4.3107   363.5    8.603      29.969
2015    4       28    23   6    4.3150   363.5    8.613      29.997
2015    4       28    23  12    4.3193   363.5    8.623      30.025
2015    4       28    23  18    4.3236   363.5    8.633      30.053
2015    4       28    23  24    4.3278   363.5    8.643      30.080
2015    4       28    23  30    4.3321   363.5    8.652      30.108
2015    4       28    23  37    4.3364   363.5    8.662      30.134
2015    4       28    23  43    4.3407   363.5    8.671      30.161
2015    4       28    23  49    4.3449   363.5    8.681      30.187
2015    4       28    23  55    4.3492   363.5    8.690      30.213
2015    4       29     0   1    4.3535   363.5    8.699      30.238
2015    4       29     0   7    4.3578   363.5    8.708      30.264
2015    4       29     0  13    4.3620   363.5    8.717      30.289
2015    4       29     0  19    4.3663   363.5    8.726      30.314
2015    4       29     0  25    4.3706   363.5    8.735      30.339
2015    4       29     0  31    4.3749   363.5    8.744      30.364
2015    4       29     0  38    4.3792   363.5    8.753      30.388
2015    4       29     0  44    4.3835   363.5    8.761      30.413
2015    4       29     0  50    4.3879   363.5    8.770      30.437
2015    4       29     0  56    4.3922   363.5    8.779      30.461
2015    4       29     1   2    4.3966   363.5    8.788      30.485
2015    4       29     1   8    4.4010   363.5    8.796      30.509
2015    4       29     1  14    4.4054   363.5    8.805      30.533
2015    4       29     1  20    4.4098   363.5    8.814      30.557
2015    4       29     1  26    4.4142   363.5    8.823      30.581
2015    4       29     1  32    4.4187   363.5    8.831      30.605
2015    4       29     1  38    4.4231   363.5    8.840      30.630
2015    4       29     1  45    4.4276   363.5    8.849      30.654
2015    4       29     1  51    4.4322   363.6    8.858      30.678
2015    4       29     1  57    4.4367   363.6    8.867      30.702
2015    4       29     2   3    4.4413   363.6    8.877      30.727
2015    4       29     2   9    4.4459   363.6    8.886      30.752
2015    4       29     2  15    4.4505   363.6    8.895      30.776
2015    4       29     2  21    4.4552   363.6    8.905      30.801
2015    4       29     2  27    4.4600   363.6    8.915      30.827
2015    4       29     2  33    4.4647   363.6    8.925      30.852
2015    4       29     2  39    4.4696   363.6    8.935      30.878
2015    4       29     2  45    4.4745   363.6    8.946      30.904
2015    4       29     2  52    4.4794   363.6    8.956      30.930
2015    4       29     2  58    4.4844   363.7    8.967      30.957
2015    4       29     3   4    4.4894   363.7    8.979      30.984
2015    4       29     3  10    4.4945   363.7    8.990      31.012
2015    4       29     3  16    4.4997   363.7    9.002      31.041
2015    4       29     3  22    4.5049   363.7    9.013      31.070
2015    4       29     3  28    4.5101   363.8    9.025      31.102
2015    4       29     3  34    4.5154   363.8    9.037      31.134
2015    4       29     3  40    4.5207   363.8    9.048      31.168
2015    4       29     3  46    4.5259   363.9    9.060      31.203
2015    4       29     3  52    4.5312   363.9    9.071      31.240
2015    4       29     3  59    4.5365   363.9    9.083      31.277
2015    4       29     4   5    4.5418   364.0    9.094      31.314
2015    4       29     4  11    4.5470   364.0    9.106      31.352
2015    4       29     4  17    4.5523   364.0    9.117      31.390
2015    4       29     4  23    4.5575   364.1    9.128      31.427
2015    4       29     4  29    4.5627   364.1    9.139      31.465
2015    4       29     4  35    4.5679   364.1    9.150      31.504
2015    4       29     4  41    4.5731   364.2    9.161      31.542
2015    4       29     4  47    4.5782   364.2    9.172      31.581
2015    4       29     4  53    4.5833   364.3    9.182      31.620
2015    4       29     4  59    4.5883   364.3    9.193      31.659
2015    4       29     5   6    4.5934   364.4    9.203      31.699
2015    4       29     5  12    4.5984   364.4    9.213      31.739
2015    4       29     5  18    4.6033   364.5    9.223      31.779
2015    4       29     5  24    4.6083   364.5    9.233      31.820
2015    4       29     5  30    4.6132   364.6    9.243      31.862
2015    4       29     5  36    4.6180   364.6    9.252      31.904
2015    4       29     5  42    4.6228   364.7    9.261      31.945
2015    4       29     5  48    4.6276   364.7    9.270      31.987
2015    4       29     5  54    4.6323   364.8    9.278      32.029
2015    4       29     6   0    4.6371   364.8    9.286      32.071
2015    4       29     6   6    4.6417   364.9    9.295      32.112
2015    4       29     6  13    4.6464   364.9    9.302      32.153
2015    4       29     6  19    4.6510   365.0    9.310      32.194
2015    4       29     6  25    4.6556   365.0    9.318      32.234
2015    4       29     6  31    4.6602   365.1    9.325      32.274
2015    4       29     6  37    4.6647   365.2    9.332      32.313
2015    4       29     6  43    4.6693   365.2    9.339      32.352
2015    4       29     6  49    4.6738   365.3    9.346      32.391
2015    4       29     6  55    4.6783   365.3    9.352      32.429
2015    4       29     7   1    4.6828   365.4    9.359      32.467
2015    4       29     7   7    4.6873   365.4    9.365      32.504
2015    4       29     7  14    4.6918   365.5    9.371      32.541
2015    4       29     7  20    4.6963   365.5    9.378      32.578
2015    4       29     7  26    4.7008   365.6    9.384      32.614
2015    4       29     7  32    4.7053   365.6    9.390      32.650
2015    4       29     7  38    4.7098   365.7    9.396      32.686
2015    4       29     7  44    4.7143   365.7    9.402      32.721
2015    4       29     7  50    4.7188   365.8    9.408      32.756
2015    4       29     7  56    4.7234   365.8    9.414      32.791
2015    4       29     8   2    4.7279   365.9    9.419      32.826
2015    4       29     8   8    4.7324   365.9    9.425      32.861
2015    4       29     8  14    4.7370   366.0    9.431      32.896
2015    4       29     8  21    4.7415   366.1    9.436      32.931
2015    4       29     8  27    4.7460   366.1    9.442      32.966
2015    4       29     8  33    4.7506   366.2    9.447      33.002
2015    4       29     8  39    4.7551   366.2    9.452      33.037
2015    4       29     8  45    4.7596   366.3    9.458      33.073
2015    4       29     8  51    4.7641   366.4    9.463      33.108
2015    4       29     8  57    4.7687   366.4    9.468      33.144
2015    4       29     9   3    4.7732   366.5    9.473      33.180
2015    4       29     9   9    4.7777   366.5    9.478      33.215
2015    4       29     9  15    4.7822   366.6    9.482      33.251
2015    4       29     9  21    4.7867   366.7    9.487      33.286
2015    4       29     9  28    4.7912   366.7    9.492      33.321
2015    4       29     9  34    4.7957   366.8    9.496      33.356
2015    4       29     9  40    4.8002   366.9    9.501      33.392
2015    4       29     9  46    4.8047   366.9    9.505      33.426
2015    4       29     9  52    4.8093   367.0    9.510      33.461
2015    4       29     9  58    4.8138   367.1    9.514      33.496
2015    4       29    10   4    4.8183   367.1    9.519      33.531
2015    4       29    10  10    4.8228   367.2    9.523      33.566
2015    4       29    10  16    4.8274   367.3    9.528      33.601
2015    4       29    10  22    4.8319   367.3    9.532      33.635
2015    4       29    10  28    4.8365   367.4    9.537      33.670
2015    4       29    10  35    4.8411   367.5    9.541      33.705
2015    4       29    10  41    4.8457   367.5    9.546      33.740
2015    4       29    10  47    4.8502   367.6    9.551      33.775
2015    4       29    10  53    4.8548   367.7    9.555      33.809
2015    4       29    10  59    4.8595   367.7    9.560      33.844
2015    4       29    11   5    4.8641   367.8    9.565      33.879
2015    4       29    11  11    4.8688   367.9    9.570      33.914
2015    4       29    11  17    4.8734   368.0    9.575      33.949
2015    4       29    11  23    4.8781   368.0    9.581      33.984
2015    4       29    11  29    4.8828   368.1    9.586      34.020
2015    4       29    11  35    4.8875   368.2    9.591      34.055
2015    4       29    11  42    4.8922   368.3    9.597      34.090
2015    4       29    11  48    4.8970   368.3    9.603      34.126
2015    4       29    11  54    4.9017   368.4    9.608      34.162
2015    4       29    12   0    4.9065   368.5    9.614      34.199
2015    4       29    12   6    4.9113   368.6    9.620      34.236
2015    4       29    12  12    4.9161   368.6    9.626      34.273
2015    4       29    12  18    4.9210   368.7    9.632      34.312
2015    4       29    12  24    4.9258   368.8    9.638      34.350
2015    4       29    12  30    4.9307   368.9    9.645      34.390
2015    4       29    12  36    4.9356   369.0    9.651      34.430
2015    4       29    12  42    4.9406   369.1    9.657      34.471
2015    4       29    12  49    4.9455   369.2    9.663      34.513
2015    4       29    12  55    4.9505   369.2    9.670      34.555
2015    4       29    13   1    4.9555   369.3    9.676      34.598
2015    4       29    13   7    4.9605   369.4    9.682      34.642
2015    4       29    13  13    4.9656   369.5    9.688      34.685
2015    4       29    13  19    4.9707   369.6    9.695      34.730
2015    4       29    13  25    4.9758   369.7    9.701      34.774
2015    4       29    13  31    4.9809   369.8    9.707      34.819
2015    4       29    13  37    4.9861   369.9    9.714      34.864
2015    4       29    13  43    4.9913   370.0    9.720      34.909
2015    4       29    13  50    4.9964   370.1    9.727      34.954
2015    4       29    13  56    5.0016   370.2    9.734      34.999
2015    4       29    14   2    5.0068   370.3    9.740      35.044
2015    4       29    14   8    5.0119   370.4    9.747      35.089
2015    4       29    14  14    5.0170   370.5    9.754      35.135
2015    4       29    14  20    5.0220   370.6    9.761      35.181
2015    4       29    14  26    5.0271   370.7    9.768      35.229
2015    4       29    14  32    5.0320   370.8    9.774      35.277
2015    4       29    14  38    5.0370   370.9    9.781      35.326
2015    4       29    14  44    5.0419   371.0    9.787      35.376
2015    4       29    14  50    5.0467   371.1    9.793      35.427
2015    4       29    14  57    5.0515   371.2    9.799      35.478
2015    4       29    15   3    5.0562   371.4    9.805      35.529
2015    4       29    15   9    5.0609   371.5    9.811      35.581
2015    4       29    15  15    5.0655   371.6    9.816      35.632
2015    4       29    15  21    5.0701   371.7    9.821      35.683
2015    4       29    15  27    5.0747   371.8    9.826      35.734
2015    4       29    15  33    5.0792   371.9    9.831      35.786
2015    4       29    15  39    5.0837   372.0    9.836      35.837
2015    4       29    15  45    5.0881   372.1    9.840      35.888
2015    4       29    15  51    5.0925   372.2    9.844      35.940
2015    4       29    15  57    5.0968   372.3    9.848      35.992
2015    4       29    16   4    5.1011   372.5    9.852      36.043
2015    4       29    16  10    5.1053   372.6    9.856      36.095
2015    4       29    16  16    5.1095   372.7    9.859      36.147
2015    4       29    16  22    5.1137   372.8    9.862      36.199
2015    4       29    16  28    5.1178   372.9    9.865      36.250
2015    4       29    16  34    5.1218   373.0    9.868      36.301
2015    4       29    16  40    5.1259   373.1    9.870      36.352
2015    4       29    16  46    5.1298   373.2    9.873      36.402
2015    4       29    16  52    5.1338   373.4    9.875      36.452
2015    4       29    16  58    5.1377   373.5    9.877      36.501
2015    4       29    17   4    5.1416   373.6    9.878      36.550
2015    4       29    17  11    5.1454   373.7    9.880      36.598
2015    4       29    17  17    5.1493   373.8    9.882      36.646
2015    4       29    17  23    5.1531   373.9    9.883      36.694
2015    4       29    17  29    5.1569   374.0    9.884      36.741
2015    4       29    17  35    5.1606   374.2    9.885      36.788
2015    4       29    17  41    5.1643   374.3    9.886      36.834
2015    4       29    17  47    5.1681   374.4    9.887      36.880
2015    4       29    17  53    5.1718   374.5    9.888      36.926
2015    4       29    17  59    5.1754   374.6    9.889      36.971
2015    4       29    18   5    5.1791   374.7    9.890      37.016
2015    4       29    18  11    5.1827   374.8    9.890      37.061
2015    4       29    18  18    5.1863   375.0    9.891      37.105
2015    4       29    18  24    5.1899   375.1    9.892      37.149
2015    4       29    18  30    5.1935   375.2    9.892      37.192
2015    4       29    18  36    5.1970   375.3    9.893      37.236
2015    4       29    18  42    5.2006   375.4    9.893      37.279
2015    4       29    18  48    5.2041   375.5    9.894      37.321
2015    4       29    18  54    5.2076   375.6    9.894      37.363
2015    4       29    19   0    5.2111   375.7    9.894      37.405
2015    4       29    19   6    5.2146   375.9    9.895      37.447
2015    4       29    19  12    5.2180   376.0    9.895      37.488
2015    4       29    19  18    5.2214   376.1    9.896      37.530
2015    4       29    19  25    5.2248   376.2    9.897      37.571
2015    4       29    19  31    5.2281   376.3    9.897      37.611
2015    4       29    19  37    5.2314   376.4    9.898      37.652
2015    4       29    19  43    5.2347   376.5    9.899      37.692
2015    4       29    19  49    5.2379   376.6    9.900      37.733
2015    4       29    19  55    5.2411   376.7    9.901      37.773
2015    4       29    20   1    5.2442   376.8    9.903      37.813
2015    4       29    20   7    5.2473   377.0    9.905      37.853
2015    4       29    20  13    5.2503   377.1    9.907      37.894
2015    4       29    20  19    5.2532   377.2    9.909      37.935
2015    4       29    20  26    5.2561   377.3    9.911      37.977
2015    4       29    20  32    5.2588   377.4    9.913      38.020
2015    4       29    20  38    5.2615   377.5    9.916      38.065
2015    4       29    20  44    5.2641   377.7    9.918      38.110
2015    4       29    20  50    5.2666   377.8    9.921      38.157
2015    4       29    20  56    5.2690   377.9    9.923      38.205
2015    4       29    21   2    5.2713   378.0    9.925      38.253
2015    4       29    21   8    5.2735   378.2    9.927      38.302
2015    4       29    21  14    5.2756   378.3    9.929      38.353
2015    4       29    21  20    5.2776   378.4    9.931      38.404
2015    4       29    21  26    5.2795   378.6    9.932      38.455
2015    4       29    21  33    5.2813   378.7    9.934      38.508
2015    4       29    21  39    5.2830   378.8    9.934      38.561
2015    4       29    21  45    5.2846   378.9    9.935      38.615
2015    4       29    21  51    5.2861   379.1    9.935      38.669
2015    4       29    21  57    5.2876   379.2    9.935      38.723
2015    4       29    22   3    5.2889   379.3    9.935      38.777
2015    4       29    22   9    5.2902   379.5    9.934      38.831
2015    4       29    22  15    5.2915   379.6    9.933      38.885
2015    4       29    22  21    5.2927   379.7    9.932      38.938
2015    4       29    22  27    5.2938   379.9    9.930      38.991
2015    4       29    22  33    5.2949   380.0    9.929      39.044
2015    4       29    22  40    5.2959   380.1    9.927      39.096
2015    4       29    22  46    5.2969   380.2    9.925      39.149
2015    4       29    22  52    5.2979   380.4    9.922      39.201
2015    4       29    22  58    5.2988   380.5    9.919      39.253
2015    4       29    23   4    5.2998   380.6    9.917      39.304
2015    4       29    23  10    5.3007   380.7    9.914      39.356
2015    4       29    23  16    5.3015   380.9    9.910      39.407
2015    4       29    23  22    5.3024   381.0    9.907      39.458
2015    4       29    23  28    5.3033   381.1    9.903      39.509
2015    4       29    23  34    5.3041   381.2    9.900      39.559
2015    4       29    23  40    5.3050   381.3    9.896      39.610
2015    4       29    23  47    5.3058   381.5    9.892      39.661
2015    4       29    23  53    5.3066   381.6    9.887      39.712
2015    4       29    23  59    5.3075   381.7    9.883      39.762
2015    4       30     0   5    5.3083   381.8    9.878      39.812
2015    4       30     0  11    5.3091   382.0    9.874      39.862
2015    4       30     0  17    5.3099   382.1    9.869      39.912
2015    4       30     0  23    5.3108   382.2    9.864      39.962
2015    4       30     0  29    5.3116   382.3    9.859      40.011
2015    4       30     0  35    5.3124   382.4    9.853      40.060
2015    4       30     0  41    5.3133   382.6    9.848      40.108
2015    4       30     0  47    5.3141   382.7    9.842      40.156
2015    4       30     0  54    5.3150   382.8    9.836      40.203
2015    4       30     1   0    5.3159   382.9    9.830      40.251
2015    4       30     1   6    5.3168   383.0    9.824      40.297
2015    4       30     1  12    5.3177   383.2    9.818      40.344
2015    4       30     1  18    5.3186   383.3    9.812      40.389
2015    4       30     1  24    5.3195   383.4    9.805      40.435
2015    4       30     1  30    5.3205   383.5    9.799      40.480
2015    4       30     1  36    5.3214   383.6    9.792      40.524
2015    4       30     1  42    5.3224   383.8    9.785      40.568
2015    4       30     1  48    5.3234   383.9    9.778      40.611
2015    4       30     1  54    5.3244   384.0    9.771      40.654
2015    4       30     2   1    5.3254   384.1    9.764      40.697
2015    4       30     2   7    5.3265   384.2    9.757      40.739
2015    4       30     2  13    5.3275   384.4    9.750      40.780
2015    4       30     2  19    5.3286   384.5    9.742      40.821
2015    4       30     2  25    5.3297   384.6    9.735      40.862
2015    4       30     2  31    5.3308   384.7    9.727      40.902
2015    4       30     2  37    5.3319   384.9    9.720      40.941
2015    4       30     2  43    5.3331   385.0    9.712      40.981
2015    4       30     2  49    5.3343   385.1    9.704      41.020
2015    4       30     2  55    5.3355   385.2    9.696      41.059
2015    4       30     3   2    5.3367   385.3    9.688      41.097
2015    4       30     3   8    5.3380   385.5    9.680      41.135
2015    4       30     3  14    5.3392   385.6    9.672      41.172
2015    4       30     3  20    5.3405   385.7    9.664      41.210
2015    4       30     3  26    5.3419   385.9    9.655      41.246
2015    4       30     3  32    5.3432   386.0    9.647      41.283
2015    4       30     3  38    5.3446   386.1    9.638      41.318
2015    4       30     3  44    5.3460   386.3    9.629      41.353
2015    4       30     3  50    5.3475   386.4    9.620      41.387
2015    4       30     3  56    5.3490   386.5    9.611      41.420
2015    4       30     4   2    5.3504   386.6    9.602      41.452
2015    4       30     4   9    5.3519   386.8    9.592      41.484
2015    4       30     4  15    5.3534   386.9    9.583      41.514
2015    4       30     4  21    5.3550   387.0    9.573      41.544
2015    4       30     4  27    5.3565   387.2    9.564      41.573
2015    4       30     4  33    5.3580   387.3    9.554      41.601
2015    4       30     4  39    5.3595   387.5    9.544      41.629
2015    4       30     4  45    5.3611   387.6    9.534      41.655
2015    4       30     4  51    5.3626   387.7    9.524      41.681
2015    4       30     4  57    5.3642   387.9    9.514      41.705
2015    4       30     5   3    5.3657   388.0    9.504      41.729
2015    4       30     5   9    5.3672   388.1    9.493      41.752
2015    4       30     5  16    5.3687   388.3    9.483      41.775
2015    4       30     5  22    5.3702   388.4    9.472      41.796
2015    4       30     5  28    5.3717   388.5    9.462      41.817
2015    4       30     5  34    5.3731   388.7    9.451      41.836
2015    4       30     5  40    5.3746   388.8    9.441      41.855
2015    4       30     5  46    5.3760   389.0    9.430      41.874
2015    4       30     5  52    5.3774   389.1    9.419      41.891
2015    4       30     5  58    5.3788   389.2    9.409      41.908
2015    4       30     6   4    5.3801   389.4    9.398      41.924
2015    4       30     6  10    5.3814   389.5    9.387      41.939
2015    4       30     6  16    5.3827   389.7    9.376      41.954
2015    4       30     6  23    5.3840   389.8    9.365      41.968
2015    4       30     6  29    5.3853   390.0    9.354      41.981
2015    4       30     6  35    5.3865   390.1    9.343      41.993
2015    4       30     6  41    5.3878   390.2    9.332      42.005
2015    4       30     6  47    5.3890   390.4    9.321      42.017
2015    4       30     6  53    5.3902   390.5    9.310      42.027
2015    4       30     6  59    5.3914   390.7    9.299      42.037
2015    4       30     7   5    5.3925   390.8    9.288      42.046
2015    4       30     7  11    5.3937   391.0    9.277      42.055
2015    4       30     7  17    5.3948   391.1    9.266      42.064
2015    4       30     7  23    5.3959   391.2    9.255      42.072
2015    4       30     7  30    5.3970   391.4    9.244      42.079
2015    4       30     7  36    5.3981   391.5    9.233      42.086
2015    4       30     7  42    5.3992   391.7    9.222      42.092
2015    4       30     7  48    5.4003   391.8    9.211      42.098
2015    4       30     7  54    5.4014   392.0    9.201      42.103
2015    4       30     8   0    5.4024   392.1    9.190      42.108
2015    4       30     8   6    5.4035   392.3    9.179      42.112
2015    4       30     8  12    5.4045   392.4    9.169      42.116
2015    4       30     8  18    5.4055   392.6    9.159      42.119
2015    4       30     8  24    5.4065   392.7    9.148      42.121
2015    4       30     8  31    5.4075   392.8    9.138      42.123
2015    4       30     8  37    5.4085   393.0    9.128      42.124
2015    4       30     8  43    5.4094   393.1    9.118      42.124
2015    4       30     8  49    5.4104   393.3    9.108      42.123
2015    4       30     8  55    5.4113   393.4    9.098      42.122
2015    4       30     9   1    5.4122   393.6    9.089      42.120
2015    4       30     9   7    5.4131   393.7    9.079      42.117
2015    4       30     9  13    5.4140   393.9    9.070      42.114
2015    4       30     9  19    5.4149   394.0    9.061      42.110
2015    4       30     9  25    5.4158   394.2    9.052      42.106
2015    4       30     9  31    5.4166   394.3    9.043      42.101
2015    4       30     9  38    5.4175   394.5    9.034      42.095
2015    4       30     9  44    5.4183   394.6    9.026      42.089
2015    4       30     9  50    5.4191   394.8    9.017      42.081
2015    4       30     9  56    5.4200   394.9    9.009      42.074
2015    4       30    10   2    5.4208   395.1    9.001      42.066
2015    4       30    10   8    5.4216   395.2    8.994      42.057
2015    4       30    10  14    5.4224   395.4    8.986      42.047
2015    4       30    10  20    5.4231   395.5    8.979      42.037
2015    4       30    10  26    5.4239   395.7    8.972      42.026
2015    4       30    10  32    5.4247   395.8    8.965      42.015
2015    4       30    10  38    5.4255   396.0    8.958      42.003
2015    4       30    10  45    5.4263   396.1    8.952      41.991
2015    4       30    10  51    5.4271   396.3    8.946      41.978
2015    4       30    10  57    5.4278   396.4    8.940      41.964
2015    4       30    11   3    5.4286   396.6    8.934      41.950
2015    4       30    11   9    5.4294   396.8    8.929      41.935
2015    4       30    11  15    5.4302   396.9    8.924      41.920
2015    4       30    11  21    5.4310   397.1    8.919      41.905
2015    4       30    11  27    5.4318   397.2    8.915      41.889
2015    4       30    11  33    5.4326   397.4    8.911      41.873
2015    4       30    11  39    5.4334   397.5    8.907      41.857
2015    4       30    11  45    5.4342   397.7    8.903      41.840
2015    4       30    11  52    5.4350   397.8    8.899      41.823
2015    4       30    11  58    5.4358   398.0    8.896      41.806
2015    4       30    12   4    5.4366   398.1    8.892      41.789
2015    4       30    12  10    5.4374   398.3    8.889      41.773
2015    4       30    12  16    5.4382   398.4    8.886      41.757
2015    4       30    12  22    5.4390   398.6    8.883      41.740
2015    4       30    12  28    5.4397   398.7    8.880      41.724
2015    4       30    12  34    5.4405   398.9    8.877      41.709
2015    4       30    12  40    5.4412   399.0    8.874      41.693
2015    4       30    12  46    5.4419   399.2    8.871      41.676
2015    4       30    12  52    5.4426   399.4    8.868      41.660
2015    4       30    12  59    5.4433   399.5    8.865      41.643
2015    4       30    13   5    5.4440   399.7    8.862      41.626
2015    4       30    13  11    5.4447   399.8    8.860      41.608
2015    4       30    13  17    5.4453   400.0    8.857      41.591
2015    4       30    13  23    5.4460   400.1    8.854      41.573
2015    4       30    13  29    5.4467   400.3    8.852      41.555
2015    4       30    13  35    5.4473   400.4    8.849      41.536
2015    4       30    13  41    5.4479   400.6    8.846      41.518
2015    4       30    13  47    5.4486   400.7    8.844      41.499
2015    4       30    13  53    5.4492   400.9    8.841      41.480
2015    4       30    13  59    5.4498   401.0    8.838      41.462
2015    4       30    14   6    5.4505   401.2    8.836      41.443
2015    4       30    14  12    5.4511   401.3    8.833      41.424
2015    4       30    14  18    5.4517   401.5    8.830      41.405
2015    4       30    14  24    5.4523   401.7    8.827      41.386
2015    4       30    14  30    5.4529   401.8    8.824      41.368
2015    4       30    14  36    5.4535   402.0    8.820      41.350
2015    4       30    14  42    5.4541   402.1    8.817      41.332
2015    4       30    14  48    5.4547   402.3    8.813      41.314
2015    4       30    14  54    5.4552   402.4    8.810      41.297
2015    4       30    15   0    5.4558   402.6    8.806      41.280
2015    4       30    15   7    5.4564   402.8    8.802      41.263
2015    4       30    15  13    5.4569   402.9    8.798      41.247
2015    4       30    15  19    5.4575   403.1    8.794      41.230
2015    4       30    15  25    5.4581   403.2    8.790      41.214
2015    4       30    15  31    5.4586   403.4    8.786      41.198
2015    4       30    15  37    5.4592   403.5    8.781      41.183
2015    4       30    15  43    5.4598   403.7    8.777      41.167
2015    4       30    15  49    5.4603   403.9    8.772      41.152
2015    4       30    15  55    5.4609   404.0    8.768      41.137
2015    4       30    16   1    5.4615   404.2    8.763      41.122
2015    4       30    16   7    5.4620   404.3    8.758      41.107
2015    4       30    16  14    5.4626   404.5    8.753      41.092
2015    4       30    16  20    5.4631   404.6    8.749      41.077
2015    4       30    16  26    5.4637   404.8    8.744      41.062
2015    4       30    16  32    5.4643   404.9    8.739      41.047
2015    4       30    16  38    5.4648   405.1    8.734      41.033
2015    4       30    16  44    5.4654   405.3    8.729      41.018
2015    4       30    16  50    5.4660   405.4    8.724      41.004
2015    4       30    16  56    5.4665   405.6    8.720      40.990
2015    4       30    17   2    5.4671   405.7    8.715      40.976
2015    4       30    17   8    5.4677   405.9    8.710      40.962
2015    4       30    17  14    5.4683   406.0    8.705      40.948
2015    4       30    17  21    5.4688   406.2    8.701      40.934
2015    4       30    17  27    5.4694   406.3    8.696      40.921
2015    4       30    17  33    5.4700   406.5    8.692      40.908
2015    4       30    17  39    5.4706   406.6    8.687      40.896
2015    4       30    17  45    5.4712   406.8    8.683      40.884
2015    4       30    17  51    5.4718   406.9    8.678      40.872
2015    4       30    17  57    5.4723   407.1    8.674      40.862
2015    4       30    18   3    5.4729   407.3    8.669      40.852
2015    4       30    18   9    5.4734   407.4    8.665      40.843
2015    4       30    18  15    5.4739   407.6    8.661      40.835
2015    4       30    18  21    5.4743   407.7    8.656      40.828
2015    4       30    18  28    5.4747   407.9    8.651      40.822
2015    4       30    18  34    5.4751   408.1    8.647      40.817
2015    4       30    18  40    5.4755   408.2    8.642      40.812
2015    4       30    18  46    5.4758   408.4    8.637      40.808
2015    4       30    18  52    5.4760   408.5    8.632      40.804
2015    4       30    18  58    5.4763   408.7    8.627      40.801
2015    4       30    19   4    5.4765   408.9    8.622      40.797
2015    4       30    19  10    5.4767   409.0    8.616      40.793
2015    4       30    19  16    5.4768   409.2    8.611      40.790
2015    4       30    19  22    5.4769   409.3    8.605      40.785
2015    4       30    19  29    5.4770   409.5    8.599      40.781
2015    4       30    19  35    5.4770   409.7    8.593      40.777
2015    4       30    19  41    5.4771   409.8    8.587      40.773
2015    4       30    19  47    5.4771   410.0    8.581      40.768
2015    4       30    19  53    5.4770   410.1    8.575      40.763
2015    4       30    19  59    5.4770   410.3    8.569      40.758
2015    4       30    20   5    5.4769   410.5    8.562      40.753
2015    4       30    20  11    5.4767   410.6    8.556      40.748
2015    4       30    20  17    5.4766   410.8    8.549      40.742
2015    4       30    20  23    5.4764   410.9    8.543      40.736
2015    4       30    20  29    5.4762   411.1    8.536      40.730
2015    4       30    20  36    5.4760   411.3    8.529      40.725
2015    4       30    20  42    5.4757   411.4    8.523      40.719
2015    4       30    20  48    5.4754   411.6    8.516      40.713
2015    4       30    20  54    5.4751   411.7    8.509      40.707
2015    4       30    21   0    5.4747   411.9    8.502      40.701
2015    4       30    21   6    5.4743   412.0    8.495      40.696
2015    4       30    21  12    5.4739   412.2    8.488      40.690
2015    4       30    21  18    5.4735   412.4    8.481      40.684
2015    4       30    21  24    5.4730   412.5    8.474      40.679
2015    4       30    21  30    5.4725   412.7    8.466      40.673
2015    4       30    21  36    5.4720   412.8    8.459      40.668
2015    4       30    21  43    5.4715   413.0    8.452      40.663
2015    4       30    21  49    5.4709   413.1    8.444      40.658
2015    4       30    21  55    5.4703   413.3    8.437      40.653
2015    4       30    22   1    5.4697   413.5    8.430      40.648
2015    4       30    22   7    5.4691   413.6    8.422      40.643
2015    4       30    22  13    5.4684   413.8    8.415      40.638
2015    4       30    22  19    5.4677   413.9    8.407      40.633
2015    4       30    22  25    5.4670   414.1    8.400      40.628
2015    4       30    22  31    5.4663   414.2    8.393      40.623
2015    4       30    22  37    5.4656   414.4    8.385      40.619
2015    4       30    22  43    5.4649   414.5    8.378      40.614
2015    4       30    22  50    5.4641   414.7    8.370      40.610
2015    4       30    22  56    5.4633   414.8    8.363      40.605
2015    4       30    23   2    5.4625   415.0    8.356      40.601
2015    4       30    23   8    5.4617   415.1    8.349      40.597
2015    4       30    23  14    5.4609   415.3    8.341      40.593
2015    4       30    23  20    5.4600   415.4    8.334      40.590
2015    4       30    23  26    5.4591   415.6    8.327      40.586
2015    4       30    23  32    5.4582   415.8    8.320      40.583
2015    4       30    23  38    5.4572   415.9    8.314      40.580
2015    4       30    23  44    5.4563   416.1    8.307      40.578
2015    4       30    23  50    5.4553   416.2    8.300      40.577
2015    4       30    23  57    5.4542   416.4    8.293      40.576
2015    5        1     0   3    5.4532   416.5    8.286      40.576
2015    5        1     0   9    5.4521   416.7    8.279      40.577
2015    5        1     0  15    5.4510   416.8    8.272      40.577
2015    5        1     0  21    5.4498   417.0    8.266      40.578
2015    5        1     0  27    5.4486   417.2    8.259      40.579
2015    5        1     0  33    5.4474   417.3    8.252      40.580
2015    5        1     0  39    5.4462   417.5    8.245      40.581
2015    5        1     0  45    5.4449   417.6    8.238      40.583
2015    5        1     0  51    5.4435   417.8    8.231      40.585
2015    5        1     0  58    5.4422   417.9    8.224      40.587
2015    5        1     1   4    5.4407   418.1    8.217      40.590
2015    5        1     1  10    5.4393   418.3    8.210      40.593
2015    5        1     1  16    5.4378   418.4    8.202      40.596
2015    5        1     1  22    5.4363   418.6    8.195      40.598
2015    5        1     1  28    5.4348   418.7    8.188      40.601
2015    5        1     1  34    5.4332   418.9    8.180      40.603
2015    5        1     1  40    5.4315   419.0    8.173      40.605
2015    5        1     1  46    5.4299   419.2    8.165      40.608
2015    5        1     1  52    5.4282   419.4    8.158      40.610
2015    5        1     1  58    5.4265   419.5    8.150      40.612
2015    5        1     2   5    5.4248   419.7    8.142      40.614
2015    5        1     2  11    5.4230   419.8    8.135      40.615
2015    5        1     2  17    5.4212   420.0    8.127      40.617
2015    5        1     2  23    5.4194   420.1    8.119      40.619
2015    5        1     2  29    5.4175   420.3    8.112      40.620
2015    5        1     2  35    5.4156   420.4    8.104      40.622
2015    5        1     2  41    5.4137   420.6    8.096      40.624
2015    5        1     2  47    5.4118   420.7    8.089      40.626
2015    5        1     2  53    5.4099   420.9    8.081      40.627
2015    5        1     2  59    5.4079   421.1    8.074      40.629
2015    5        1     3   5    5.4059   421.2    8.066      40.631
2015    5        1     3  12    5.4039   421.4    8.059      40.633
2015    5        1     3  18    5.4018   421.5    8.051      40.636
2015    5        1     3  24    5.3998   421.7    8.043      40.638
2015    5        1     3  30    5.3977   421.8    8.036      40.641
2015    5        1     3  36    5.3956   422.0    8.028      40.645
2015    5        1     3  42    5.3934   422.1    8.020      40.648
2015    5        1     3  48    5.3913   422.3    8.013      40.652
2015    5        1     3  54    5.3891   422.4    8.005      40.656
2015    5        1     4   0    5.3869   422.6    7.997      40.660
2015    5        1     4   6    5.3847   422.7    7.989      40.664
2015    5        1     4  12    5.3825   422.9    7.981      40.667
2015    5        1     4  19    5.3803   423.0    7.973      40.670
2015    5        1     4  25    5.3780   423.2    7.965      40.674
2015    5        1     4  31    5.3757   423.3    7.957      40.677
2015    5        1     4  37    5.3735   423.5    7.949      40.679
2015    5        1     4  43    5.3712   423.6    7.940      40.682
2015    5        1     4  49    5.3689   423.8    7.932      40.684
2015    5        1     4  55    5.3665   423.9    7.924      40.687
2015    5        1     5   1    5.3642   424.1    7.916      40.689
2015    5        1     5   7    5.3619   424.3    7.907      40.690
2015    5        1     5  13    5.3595   424.4    7.899      40.692
2015    5        1     5  19    5.3571   424.6    7.891      40.693
2015    5        1     5  26    5.3548   424.7    7.882      40.695
2015    5        1     5  32    5.3524   424.9    7.874      40.696
2015    5        1     5  38    5.3500   425.0    7.866      40.697
2015    5        1     5  44    5.3475   425.1    7.857      40.698
2015    5        1     5  50    5.3451   425.3    7.849      40.699
2015    5        1     5  56    5.3427   425.4    7.841      40.699
2015    5        1     6   2    5.3402   425.6    7.832      40.700
2015    5        1     6   8    5.3377   425.7    7.824      40.701
2015    5        1     6  14    5.3353   425.9    7.816      40.701
2015    5        1     6  20    5.3328   426.0    7.808      40.702
2015    5        1     6  26    5.3303   426.2    7.799      40.702
2015    5        1     6  33    5.3278   426.3    7.791      40.703
2015    5        1     6  39    5.3252   426.5    7.783      40.704
2015    5        1     6  45    5.3227   426.6    7.775      40.704
2015    5        1     6  51    5.3202   426.8    7.767      40.705
2015    5        1     6  57    5.3177   426.9    7.759      40.706
2015    5        1     7   3    5.3152   427.1    7.751      40.707
2015    5        1     7   9    5.3126   427.2    7.743      40.708
2015    5        1     7  15    5.3101   427.4    7.735      40.709
2015    5        1     7  21    5.3075   427.5    7.727      40.711
2015    5        1     7  27    5.3050   427.6    7.719      40.713
2015    5        1     7  34    5.3025   427.8    7.712      40.715
2015    5        1     7  40    5.2999   427.9    7.704      40.717
2015    5        1     7  46    5.2974   428.1    7.697      40.719
2015    5        1     7  52    5.2948   428.2    7.689      40.722
2015    5        1     7  58    5.2923   428.4    7.682      40.725
2015    5        1     8   4    5.2897   428.5    7.674      40.728
2015    5        1     8  10    5.2871   428.7    7.667      40.732
2015    5        1     8  16    5.2845   428.8    7.659      40.736
2015    5        1     8  22    5.2819   428.9    7.652      40.741
2015    5        1     8  28    5.2793   429.1    7.644      40.745
2015    5        1     8  34    5.2767   429.2    7.637      40.751
2015    5        1     8  41    5.2740   429.4    7.629      40.756
2015    5        1     8  47    5.2714   429.5    7.622      40.761
2015    5        1     8  53    5.2687   429.7    7.615      40.766
2015    5        1     8  59    5.2661   429.8    7.607      40.772
2015    5        1     9   5    5.2634   429.9    7.600      40.777
2015    5        1     9  11    5.2607   430.1    7.592      40.783
2015    5        1     9  17    5.2581   430.2    7.585      40.788
2015    5        1     9  23    5.2554   430.4    7.577      40.794
2015    5        1     9  29    5.2527   430.5    7.570      40.799
2015    5        1     9  35    5.2500   430.6    7.562      40.804
2015    5        1     9  41    5.2473   430.8    7.555      40.809
2015    5        1     9  48    5.2446   430.9    7.547      40.815
2015    5        1     9  54    5.2419   431.1    7.540      40.820
2015    5        1    10   0    5.2392   431.2    7.532      40.826
2015    5        1    10   6    5.2364   431.3    7.524      40.831
2015    5        1    10  12    5.2337   431.5    7.517      40.837
2015    5        1    10  18    5.2309   431.6    7.509      40.843
2015    5        1    10  24    5.2281   431.8    7.502      40.849
2015    5        1    10  30    5.2254   431.9    7.494      40.854
2015    5        1    10  36    5.2226   432.0    7.486      40.860
2015    5        1    10  42    5.2198   432.2    7.478      40.865
2015    5        1    10  48    5.2170   432.3    7.471      40.870
2015    5        1    10  55    5.2142   432.5    7.463      40.874
2015    5        1    11   1    5.2114   432.6    7.455      40.879
2015    5        1    11   7    5.2085   432.7    7.447      40.883
2015    5        1    11  13    5.2057   432.9    7.439      40.887
2015    5        1    11  19    5.2029   433.0    7.431      40.891
2015    5        1    11  25    5.2001   433.1    7.423      40.894
2015    5        1    11  31    5.1973   433.3    7.415      40.897
2015    5        1    11  37    5.1944   433.4    7.407      40.900
2015    5        1    11  43    5.1916   433.5    7.399      40.903
2015    5        1    11  49    5.1888   433.7    7.391      40.906
2015    5        1    11  56    5.1859   433.8    7.384      40.908
2015    5        1    12   2    5.1831   433.9    7.376      40.910
2015    5        1    12   8    5.1803   434.1    7.368      40.913
2015    5        1    12  14    5.1774   434.2    7.360      40.915
2015    5        1    12  20    5.1746   434.3    7.352      40.917
2015    5        1    12  26    5.1718   434.5    7.344      40.919
2015    5        1    12  32    5.1690   434.6    7.336      40.920
2015    5        1    12  38    5.1661   434.7    7.329      40.922
2015    5        1    12  44    5.1633   434.8    7.321      40.924
2015    5        1    12  50    5.1605   435.0    7.313      40.925
2015    5        1    12  56    5.1577   435.1    7.306      40.927
2015    5        1    13   3    5.1548   435.2    7.298      40.928
2015    5        1    13   9    5.1520   435.4    7.290      40.930
2015    5        1    13  15    5.1492   435.5    7.283      40.931
2015    5        1    13  21    5.1463   435.6    7.275      40.933
2015    5        1    13  27    5.1435   435.7    7.268      40.934
2015    5        1    13  33    5.1406   435.9    7.261      40.935
2015    5        1    13  39    5.1378   436.0    7.253      40.937
2015    5        1    13  45    5.1350   436.1    7.246      40.938
2015    5        1    13  51    5.1321   436.3    7.238      40.940
2015    5        1    13  57    5.1293   436.4    7.231      40.941
2015    5        1    14   3    5.1264   436.5    7.224      40.943
2015    5        1    14  10    5.1236   436.6    7.217      40.944
2015    5        1    14  16    5.1207   436.7    7.209      40.946
2015    5        1    14  22    5.1179   436.9    7.202      40.948
2015    5        1    14  28    5.1150   437.0    7.195      40.950
2015    5        1    14  34    5.1122   437.1    7.188      40.951
2015    5        1    14  40    5.1093   437.2    7.181      40.953
2015    5        1    14  46    5.1065   437.4    7.174      40.955
2015    5        1    14  52    5.1036   437.5    7.167      40.956
2015    5        1    14  58    5.1007   437.6    7.160      40.958
2015    5        1    15   4    5.0979   437.7    7.153      40.960
2015    5        1    15  10    5.0950   437.8    7.146      40.962
2015    5        1    15  17    5.0921   438.0    7.139      40.964
2015    5        1    15  23    5.0892   438.1    7.132      40.966
2015    5        1    15  29    5.0863   438.2    7.125      40.968
2015    5        1    15  35    5.0834   438.3    7.118      40.970
2015    5        1    15  41    5.0805   438.4    7.112      40.972
2015    5        1    15  47    5.0776   438.6    7.105      40.973
2015    5        1    15  53    5.0747   438.7    7.098      40.975
2015    5        1    15  59    5.0718   438.8    7.091      40.976
2015    5        1    16   5    5.0689   438.9    7.084      40.978
2015    5        1    16  11    5.0659   439.0    7.077      40.979
2015    5        1    16  17    5.0630   439.1    7.070      40.980
2015    5        1    16  24    5.0600   439.3    7.063      40.981
2015    5        1    16  30    5.0571   439.4    7.056      40.982
2015    5        1    16  36    5.0541   439.5    7.049      40.983
2015    5        1    16  42    5.0512   439.6    7.042      40.983
2015    5        1    16  48    5.0482   439.7    7.035      40.984
2015    5        1    16  54    5.0452   439.8    7.028      40.984
2015    5        1    17   0    5.0423   439.9    7.021      40.985
2015    5        1    17   6    5.0393   440.0    7.014      40.985
2015    5        1    17  12    5.0363   440.2    7.007      40.985
2015    5        1    17  18    5.0333   440.3    7.000      40.985
2015    5        1    17  25    5.0303   440.4    6.993      40.985
2015    5        1    17  31    5.0273   440.5    6.986      40.984
2015    5        1    17  37    5.0243   440.6    6.979      40.984
2015    5        1    17  43    5.0213   440.7    6.972      40.983
2015    5        1    17  49    5.0183   440.8    6.965      40.983
2015    5        1    17  55    5.0152   440.9    6.958      40.982
2015    5        1    18   1    5.0122   441.0    6.952      40.980
2015    5        1    18   7    5.0092   441.1    6.945      40.979
2015    5        1    18  13    5.0062   441.2    6.938      40.978
2015    5        1    18  19    5.0031   441.4    6.931      40.976
2015    5        1    18  25    5.0001   441.5    6.924      40.975
2015    5        1    18  32    4.9971   441.6    6.917      40.973
2015    5        1    18  38    4.9941   441.7    6.910      40.971
2015    5        1    18  44    4.9911   441.8    6.903      40.969
2015    5        1    18  50    4.9880   441.9    6.896      40.966
2015    5        1    18  56    4.9850   442.0    6.889      40.964
2015    5        1    19   2    4.9820   442.1    6.882      40.961
2015    5        1    19   8    4.9790   442.2    6.876      40.959
2015    5        1    19  14    4.9760   442.3    6.869      40.956
2015    5        1    19  20    4.9729   442.4    6.862      40.953
2015    5        1    19  26    4.9699   442.5    6.856      40.950
2015    5        1    19  32    4.9669   442.6    6.849      40.947
2015    5        1    19  39    4.9639   442.7    6.843      40.944
2015    5        1    19  45    4.9609   442.8    6.836      40.941
2015    5        1    19  51    4.9580   442.9    6.830      40.938
2015    5        1    19  57    4.9550   443.0    6.823      40.935
2015    5        1    20   3    4.9520   443.1    6.817      40.932
2015    5        1    20   9    4.9490   443.2    6.811      40.929
2015    5        1    20  15    4.9461   443.3    6.804      40.926
2015    5        1    20  21    4.9431   443.4    6.798      40.924
2015    5        1    20  27    4.9402   443.5    6.792      40.921
2015    5        1    20  33    4.9372   443.6    6.786      40.918
2015    5        1    20  39    4.9343   443.7    6.780      40.915
2015    5        1    20  46    4.9313   443.7    6.774      40.913
2015    5        1    20  52    4.9284   443.8    6.768      40.910
2015    5        1    20  58    4.9255   443.9    6.762      40.908
2015    5        1    21   4    4.9226   444.0    6.757      40.905
2015    5        1    21  10    4.9197   444.1    6.751      40.903
2015    5        1    21  16    4.9168   444.2    6.745      40.901
2015    5        1    21  22    4.9139   444.3    6.739      40.898
2015    5        1    21  28    4.9109   444.4    6.734      40.896
2015    5        1    21  34    4.9080   444.5    6.728      40.894
2015    5        1    21  40    4.9051   444.6    6.722      40.892
2015    5        1    21  47    4.9022   444.7    6.717      40.889
2015    5        1    21  53    4.8993   444.8    6.711      40.888
2015    5        1    21  59    4.8963   444.9    6.705      40.886
2015    5        1    22   5    4.8934   444.9    6.700      40.883
2015    5        1    22  11    4.8905   445.0    6.694      40.882
2015    5        1    22  17    4.8876   445.1    6.689      40.879
2015    5        1    22  23    4.8847   445.2    6.683      40.877
2015    5        1    22  29    4.8817   445.3    6.677      40.875
2015    5        1    22  35    4.8788   445.4    6.671      40.873
2015    5        1    22  41    4.8759   445.5    6.666      40.870
2015    5        1    22  47    4.8729   445.5    6.660      40.867
2015    5        1    22  54    4.8700   445.6    6.654      40.865
2015    5        1    23   0    4.8670   445.7    6.649      40.862
2015    5        1    23   6    4.8641   445.8    6.643      40.859
2015    5        1    23  12    4.8612   445.9    6.637      40.856
2015    5        1    23  18    4.8582   446.0    6.631      40.853
2015    5        1    23  24    4.8553   446.0    6.625      40.849
2015    5        1    23  30    4.8523   446.1    6.620      40.846
2015    5        1    23  36    4.8494   446.2    6.614      40.842
2015    5        1    23  42    4.8464   446.3    6.608      40.839
2015    5        1    23  48    4.8434   446.4    6.602      40.835
2015    5        1    23  54    4.8405   446.4    6.597      40.831
2015    5        2     0   1    4.8375   446.5    6.591      40.827
2015    5        2     0   7    4.8346   446.6    6.585      40.822
2015    5        2     0  13    4.8316   446.7    6.579      40.818
2015    5        2     0  19    4.8286   446.8    6.573      40.813
2015    5        2     0  25    4.8257   446.8    6.567      40.809
2015    5        2     0  31    4.8227   446.9    6.562      40.804
2015    5        2     0  37    4.8197   447.0    6.556      40.799
2015    5        2     0  43    4.8168   447.1    6.550      40.794
2015    5        2     0  49    4.8138   447.1    6.544      40.788
2015    5        2     0  55    4.8109   447.2    6.538      40.783
2015    5        2     1   1    4.8079   447.3    6.533      40.777
2015    5        2     1   8    4.8050   447.4    6.527      40.772
2015    5        2     1  14    4.8020   447.4    6.521      40.766
2015    5        2     1  20    4.7991   447.5    6.516      40.760
2015    5        2     1  26    4.7961   447.6    6.510      40.754
2015    5        2     1  32    4.7932   447.7    6.504      40.747
2015    5        2     1  38    4.7903   447.7    6.499      40.741
2015    5        2     1  44    4.7873   447.8    6.493      40.735
2015    5        2     1  50    4.7844   447.9    6.488      40.728
2015    5        2     1  56    4.7815   447.9    6.482      40.722
2015    5        2     2   2    4.7785   448.0    6.476      40.715
2015    5        2     2   8    4.7756   448.1    6.471      40.709
2015    5        2     2  15    4.7727   448.1    6.466      40.702
2015    5        2     2  21    4.7698   448.2    6.460      40.695
2015    5        2     2  27    4.7669   448.3    6.455      40.688
2015    5        2     2  33    4.7640   448.4    6.449      40.681
2015    5        2     2  39    4.7611   448.4    6.444      40.675
2015    5        2     2  45    4.7582   448.5    6.439      40.668
2015    5        2     2  51    4.7553   448.6    6.434      40.661
2015    5        2     2  57    4.7524   448.6    6.428      40.654
2015    5        2     3   3    4.7495   448.7    6.423      40.647
2015    5        2     3   9    4.7466   448.8    6.418      40.640
2015    5        2     3  16    4.7438   448.8    6.413      40.633
2015    5        2     3  22    4.7409   448.9    6.408      40.627
2015    5        2     3  28    4.7381   448.9    6.403      40.620
2015    5        2     3  34    4.7352   449.0    6.398      40.613
2015    5        2     3  40    4.7323   449.1    6.393      40.606
2015    5        2     3  46    4.7295   449.1    6.388      40.599
2015    5        2     3  52    4.7267   449.2    6.383      40.593
2015    5        2     3  58    4.7238   449.3    6.379      40.586
2015    5        2     4   4    4.7210   449.3    6.374      40.579
2015    5        2     4  10    4.7181   449.4    6.369      40.573
2015    5        2     4  16    4.7153   449.4    6.364      40.566
2015    5        2     4  23    4.7125   449.5    6.359      40.560
2015    5        2     4  29    4.7097   449.6    6.355      40.553
2015    5        2     4  35    4.7068   449.6    6.350      40.547
2015    5        2     4  41    4.7040   449.7    6.345      40.540
2015    5        2     4  47    4.7012   449.7    6.341      40.534
2015    5        2     4  53    4.6984   449.8    6.336      40.528
2015    5        2     4  59    4.6956   449.8    6.332      40.521
2015    5        2     5   5    4.6928   449.9    6.327      40.515
2015    5        2     5  11    4.6900   450.0    6.322      40.509
2015    5        2     5  17    4.6872   450.0    6.318      40.503
2015    5        2     5  23    4.6844   450.1    6.313      40.496
2015    5        2     5  30    4.6816   450.1    6.309      40.490
2015    5        2     5  36    4.6788   450.2    6.304      40.484
2015    5        2     5  42    4.6760   450.2    6.300      40.477
2015    5        2     5  48    4.6732   450.3    6.295      40.471
2015    5        2     5  54    4.6704   450.3    6.291      40.465
2015    5        2     6   0    4.6676   450.4    6.286      40.459
2015    5        2     6   6    4.6648   450.4    6.282      40.452
2015    5        2     6  12    4.6620   450.5    6.278      40.446
2015    5        2     6  18    4.6592   450.5    6.273      40.440
2015    5        2     6  24    4.6563   450.6    6.269      40.433
2015    5        2     6  30    4.6536   450.6    6.264      40.426
2015    5        2     6  37    4.6507   450.7    6.260      40.420
2015    5        2     6  43    4.6479   450.7    6.255      40.413
2015    5        2     6  49    4.6451   450.8    6.251      40.406
2015    5        2     6  55    4.6423   450.8    6.246      40.400
2015    5        2     7   1    4.6395   450.9    6.242      40.393
2015    5        2     7   7    4.6367   450.9    6.238      40.386
2015    5        2     7  13    4.6339   451.0    6.233      40.379
2015    5        2     7  19    4.6311   451.0    6.229      40.371
2015    5        2     7  25    4.6283   451.1    6.224      40.364
2015    5        2     7  31    4.6255   451.1    6.220      40.357
2015    5        2     7  37    4.6227   451.2    6.216      40.350
2015    5        2     7  44    4.6199   451.2    6.211      40.342
2015    5        2     7  50    4.6171   451.3    6.207      40.335
2015    5        2     7  56    4.6143   451.3    6.203      40.327
2015    5        2     8   2    4.6115   451.4    6.198      40.320
2015    5        2     8   8    4.6087   451.4    6.194      40.312
2015    5        2     8  14    4.6060   451.4    6.190      40.305
2015    5        2     8  20    4.6032   451.5    6.185      40.297
2015    5        2     8  26    4.6004   451.5    6.181      40.290
2015    5        2     8  32    4.5976   451.6    6.177      40.282
2015    5        2     8  38    4.5949   451.6    6.173      40.274
2015    5        2     8  45    4.5921   451.7    6.168      40.267
2015    5        2     8  51    4.5893   451.7    6.164      40.259
2015    5        2     8  57    4.5866   451.7    6.160      40.251
2015    5        2     9   3    4.5838   451.8    6.156      40.243
2015    5        2     9   9    4.5811   451.8    6.152      40.235
2015    5        2     9  15    4.5783   451.9    6.147      40.227
2015    5        2     9  21    4.5755   451.9    6.143      40.220
2015    5        2     9  27    4.5728   451.9    6.139      40.212
2015    5        2     9  33    4.5701   452.0    6.135      40.204
2015    5        2     9  39    4.5673   452.0    6.131      40.196
2015    5        2     9  45    4.5646   452.1    6.127      40.188
2015    5        2     9  52    4.5619   452.1    6.122      40.180
2015    5        2     9  58    4.5591   452.1    6.118      40.171
2015    5        2    10   4    4.5564   452.2    6.114      40.163
2015    5        2    10  10    4.5537   452.2    6.110      40.155
2015    5        2    10  16    4.5510   452.3    6.106      40.147
2015    5        2    10  22    4.5482   452.3    6.102      40.138
2015    5        2    10  28    4.5455   452.3    6.098      40.130
2015    5        2    10  34    4.5428   452.4    6.094      40.121
2015    5        2    10  40    4.5401   452.4    6.089      40.113
2015    5        2    10  46    4.5374   452.4    6.085      40.104
2015    5        2    10  52    4.5347   452.5    6.081      40.095
2015    5        2    10  59    4.5320   452.5    6.077      40.087
2015    5        2    11   5    4.5292   452.5    6.073      40.078
2015    5        2    11  11    4.5265   452.6    6.069      40.069
2015    5        2    11  17    4.5238   452.6    6.065      40.060
2015    5        2    11  23    4.5211   452.6    6.061      40.051
2015    5        2    11  29    4.5184   452.7    6.057      40.042
2015    5        2    11  35    4.5157   452.7    6.053      40.033
2015    5        2    11  41    4.5130   452.7    6.049      40.023
2015    5        2    11  47    4.5103   452.8    6.044      40.014
2015    5        2    11  53    4.5076   452.8    6.040      40.005
2015    5        2    11  59    4.5049   452.8    6.036      39.995
2015    5        2    12   6    4.5022   452.9    6.032      39.986
2015    5        2    12  12    4.4995   452.9    6.028      39.976
2015    5        2    12  18    4.4968   452.9    6.024      39.966
2015    5        2    12  24    4.4941   453.0    6.020      39.957
2015    5        2    12  30    4.4914   453.0    6.016      39.947
2015    5        2    12  36    4.4887   453.0    6.012      39.937
2015    5        2    12  42    4.4859   453.1    6.008      39.927
2015    5        2    12  48    4.4832   453.1    6.004      39.917
2015    5        2    12  54    4.4806   453.1    6.000      39.907
2015    5        2    13   0    4.4779   453.1    5.996      39.897
2015    5        2    13   7    4.4752   453.2    5.992      39.887
2015    5        2    13  13    4.4725   453.2    5.988      39.877
2015    5        2    13  19    4.4698   453.2    5.984      39.867
2015    5        2    13  25    4.4671   453.2    5.981      39.857
2015    5        2    13  31    4.4644   453.3    5.977      39.847
2015    5        2    13  37    4.4617   453.3    5.973      39.837
2015    5        2    13  43    4.4590   453.3    5.969      39.827
2015    5        2    13  49    4.4563   453.3    5.965      39.817
2015    5        2    13  55    4.4536   453.4    5.961      39.807
2015    5        2    14   1    4.4509   453.4    5.958      39.797
2015    5        2    14   7    4.4483   453.4    5.954      39.787
2015    5        2    14  14    4.4456   453.4    5.950      39.776
2015    5        2    14  20    4.4429   453.4    5.946      39.766
2015    5        2    14  26    4.4402   453.5    5.943      39.756
2015    5        2    14  32    4.4376   453.5    5.939      39.746
2015    5        2    14  38    4.4349   453.5    5.936      39.736
2015    5        2    14  44    4.4322   453.5    5.932      39.726
2015    5        2    14  50    4.4296   453.5    5.928      39.716
2015    5        2    14  56    4.4269   453.5    5.925      39.706
2015    5        2    15   2    4.4243   453.6    5.921      39.696
2015    5        2    15   8    4.4216   453.6    5.918      39.686
2015    5        2    15  14    4.4190   453.6    5.914      39.676
2015    5        2    15  21    4.4164   453.6    5.911      39.666
2015    5        2    15  27    4.4138   453.6    5.907      39.656
2015    5        2    15  33    4.4111   453.6    5.904      39.646
2015    5        2    15  39    4.4085   453.6    5.900      39.636
2015    5        2    15  45    4.4059   453.7    5.897      39.626
2015    5        2    15  51    4.4033   453.7    5.893      39.616
2015    5        2    15  57    4.4007   453.7    5.890      39.606
2015    5        2    16   3    4.3981   453.7    5.886      39.596
2015    5        2    16   9    4.3955   453.7    5.883      39.586
2015    5        2    16  15    4.3929   453.7    5.880      39.575
2015    5        2    16  21    4.3903   453.7    5.876      39.565
2015    5        2    16  28    4.3877   453.7    5.873      39.555
2015    5        2    16  34    4.3851   453.8    5.869      39.545
2015    5        2    16  40    4.3826   453.8    5.866      39.535
2015    5        2    16  46    4.3800   453.8    5.862      39.524
2015    5        2    16  52    4.3774   453.8    5.859      39.514
2015    5        2    16  58    4.3749   453.8    5.855      39.503
2015    5        2    17   4    4.3723   453.8    5.852      39.493
2015    5        2    17  10    4.3697   453.8    5.848      39.482
2015    5        2    17  16    4.3672   453.8    5.845      39.471
2015    5        2    17  22    4.3646   453.8    5.842      39.460
2015    5        2    17  28    4.3621   453.8    5.838      39.450
2015    5        2    17  35    4.3595   453.9    5.835      39.439
2015    5        2    17  41    4.3570   453.9    5.831      39.428
2015    5        2    17  47    4.3545   453.9    5.828      39.417
2015    5        2    17  53    4.3520   453.9    5.824      39.406
2015    5        2    17  59    4.3494   453.9    5.821      39.395
2015    5        2    18   5    4.3469   453.9    5.817      39.383
2015    5        2    18  11    4.3444   453.9    5.814      39.372
2015    5        2    18  17    4.3419   453.9    5.810      39.361
2015    5        2    18  23    4.3394   453.9    5.807      39.350
2015    5        2    18  29    4.3369   453.9    5.803      39.338
2015    5        2    18  36    4.3344   453.9    5.800      39.327
2015    5        2    18  42    4.3320   453.9    5.797      39.316
2015    5        2    18  48    4.3295   453.9    5.793      39.304
2015    5        2    18  54    4.3270   453.9    5.790      39.293
2015    5        2    19   0    4.3246   453.9    5.786      39.282
2015    5        2    19   6    4.3221   453.9    5.783      39.270
2015    5        2    19  12    4.3197   453.9    5.780      39.259
2015    5        2    19  18    4.3172   454.0    5.776      39.248
2015    5        2    19  24    4.3148   454.0    5.773      39.236
2015    5        2    19  30    4.3124   454.0    5.770      39.225
2015    5        2    19  36    4.3099   454.0    5.766      39.213
2015    5        2    19  43    4.3075   454.0    5.763      39.202
2015    5        2    19  49    4.3051   454.0    5.760      39.190
2015    5        2    19  55    4.3027   454.0    5.757      39.179
2015    5        2    20   1    4.3003   454.0    5.753      39.167
2015    5        2    20   7    4.2979   454.0    5.750      39.156
2015    5        2    20  13    4.2955   454.0    5.747      39.145
2015    5        2    20  19    4.2931   454.0    5.744      39.133
2015    5        2    20  25    4.2907   454.0    5.740      39.121
2015    5        2    20  31    4.2882   454.0    5.737      39.110
2015    5        2    20  37    4.2858   454.0    5.734      39.098
2015    5        2    20  43    4.2835   454.0    5.731      39.086
2015    5        2    20  50    4.2810   454.0    5.728      39.075
2015    5        2    20  56    4.2786   454.0    5.725      39.063
2015    5        2    21   2    4.2762   454.0    5.721      39.051
2015    5        2    21   8    4.2738   454.0    5.718      39.039
2015    5        2    21  14    4.2714   454.0    5.715      39.027
2015    5        2    21  20    4.2690   454.0    5.712      39.015
2015    5        2    21  26    4.2666   454.0    5.709      39.003
2015    5        2    21  32    4.2642   453.9    5.706      38.991
2015    5        2    21  38    4.2618   453.9    5.703      38.978
2015    5        2    21  44    4.2594   453.9    5.700      38.966
2015    5        2    21  50    4.2569   453.9    5.697      38.953
2015    5        2    21  57    4.2545   453.9    5.694      38.941
2015    5        2    22   3    4.2521   453.9    5.691      38.928
2015    5        2    22   9    4.2497   453.9    5.688      38.915
2015    5        2    22  15    4.2473   453.9    5.685      38.902
2015    5        2    22  21    4.2449   453.9    5.682      38.889
2015    5        2    22  27    4.2425   453.9    5.679      38.876
2015    5        2    22  33    4.2401   453.9    5.676      38.863
2015    5        2    22  39    4.2376   453.9    5.673      38.849
2015    5        2    22  45    4.2352   453.8    5.671      38.836
2015    5        2    22  51    4.2328   453.8    5.668      38.822
2015    5        2    22  57    4.2304   453.8    5.665      38.808
2015    5        2    23   4    4.2280   453.8    5.662      38.794
2015    5        2    23  10    4.2256   453.8    5.659      38.780
2015    5        2    23  16    4.2232   453.8    5.656      38.766
2015    5        2    23  22    4.2208   453.7    5.654      38.752
2015    5        2    23  28    4.2184   453.7    5.651      38.737
2015    5        2    23  34    4.2161   453.7    5.648      38.723
2015    5        2    23  40    4.2137   453.7    5.645      38.708
2015    5        2    23  46    4.2113   453.7    5.642      38.693
2015    5        2    23  52    4.2089   453.7    5.640      38.678
2015    5        2    23  58    4.2066   453.6    5.637      38.663
2015    5        3     0   5    4.2042   453.6    5.634      38.648
2015    5        3     0  11    4.2019   453.6    5.632      38.633
2015    5        3     0  17    4.1996   453.6    5.629      38.618
2015    5        3     0  23    4.1972   453.6    5.626      38.603
2015    5        3     0  29    4.1949   453.5    5.623      38.588
2015    5        3     0  35    4.1926   453.5    5.621      38.572
2015    5        3     0  41    4.1903   453.5    5.618      38.557
2015    5        3     0  47    4.1880   453.5    5.616      38.542
2015    5        3     0  53    4.1857   453.4    5.613      38.526
2015    5        3     0  59    4.1834   453.4    5.610      38.511
2015    5        3     1   5    4.1812   453.4    5.608      38.496
2015    5        3     1  12    4.1789   453.4    5.605      38.480
2015    5        3     1  18    4.1767   453.3    5.603      38.465
2015    5        3     1  24    4.1744   453.3    5.600      38.450
2015    5        3     1  30    4.1722   453.3    5.597      38.435
2015    5        3     1  36    4.1700   453.3    5.595      38.419
2015    5        3     1  42    4.1678   453.2    5.592      38.404
2015    5        3     1  48    4.1656   453.2    5.590      38.389
2015    5        3     1  54    4.1634   453.2    5.587      38.375
2015    5        3     2   0    4.1613   453.1    5.585      38.360
2015    5        3     2   6    4.1591   453.1    5.582      38.345
2015    5        3     2  12    4.1570   453.1    5.580      38.331
2015    5        3     2  19    4.1548   453.1    5.578      38.316
2015    5        3     2  25    4.1527   453.0    5.575      38.302
2015    5        3     2  31    4.1506   453.0    5.573      38.288
2015    5        3     2  37    4.1485   453.0    5.570      38.273
2015    5        3     2  43    4.1464   453.0    5.568      38.259
2015    5        3     2  49    4.1444   452.9    5.566      38.245
2015    5        3     2  55    4.1423   452.9    5.563      38.232
2015    5        3     3   1    4.1402   452.9    5.561      38.218
2015    5        3     3   7    4.1382   452.8    5.558      38.204
2015    5        3     3  13    4.1361   452.8    5.556      38.191
2015    5        3     3  19    4.1341   452.8    5.554      38.177
2015    5        3     3  26    4.1320   452.8    5.552      38.163
2015    5        3     3  32    4.1300   452.7    5.549      38.150
2015    5        3     3  38    4.1280   452.7    5.547      38.137
2015    5        3     3  44    4.1259   452.7    5.545      38.123
2015    5        3     3  50    4.1239   452.6    5.542      38.110
2015    5        3     3  56    4.1219   452.6    5.540      38.096
2015    5        3     4   2    4.1198   452.6    5.538      38.083
2015    5        3     4   8    4.1178   452.6    5.536      38.069
2015    5        3     4  14    4.1157   452.5    5.533      38.056
2015    5        3     4  20    4.1137   452.5    5.531      38.042
2015    5        3     4  27    4.1117   452.5    5.529      38.029
2015    5        3     4  33    4.1096   452.4    5.527      38.015
2015    5        3     4  39    4.1075   452.4    5.525      38.002
2015    5        3     4  45    4.1055   452.4    5.523      37.988
2015    5        3     4  51    4.1034   452.3    5.520      37.974
2015    5        3     4  57    4.1014   452.3    5.518      37.960
2015    5        3     5   3    4.0993   452.3    5.516      37.946
2015    5        3     5   9    4.0973   452.2    5.514      37.932
2015    5        3     5  15    4.0952   452.2    5.512      37.917
2015    5        3     5  21    4.0931   452.2    5.510      37.903
2015    5        3     5  27    4.0911   452.1    5.508      37.889
2015    5        3     5  34    4.0890   452.1    5.506      37.874
2015    5        3     5  40    4.0869   452.1    5.504      37.859
2015    5        3     5  46    4.0849   452.0    5.502      37.845
2015    5        3     5  52    4.0828   452.0    5.500      37.830
2015    5        3     5  58    4.0807   452.0    5.498      37.815
2015    5        3     6   4    4.0787   451.9    5.497      37.800
2015    5        3     6  10    4.0766   451.9    5.495      37.785
2015    5        3     6  16    4.0745   451.9    5.493      37.770
2015    5        3     6  22    4.0725   451.8    5.491      37.755
2015    5        3     6  28    4.0704   451.8    5.490      37.740
2015    5        3     6  34    4.0684   451.7    5.488      37.724
2015    5        3     6  41    4.0663   451.7    5.487      37.709
2015    5        3     6  47    4.0643   451.7    5.485      37.694
2015    5        3     6  53    4.0623   451.6    5.483      37.678
2015    5        3     6  59    4.0602   451.6    5.482      37.663
2015    5        3     7   5    4.0582   451.5    5.481      37.648
2015    5        3     7  11    4.0562   451.5    5.479      37.632
2015    5        3     7  17    4.0542   451.5    5.478      37.616
2015    5        3     7  23    4.0522   451.4    5.476      37.601
2015    5        3     7  29    4.0502   451.4    5.475      37.585
2015    5        3     7  35    4.0482   451.3    5.474      37.569
2015    5        3     7  41    4.0462   451.3    5.472      37.553
2015    5        3     7  48    4.0442   451.2    5.471      37.538
2015    5        3     7  54    4.0423   451.2    5.470      37.522
2015    5        3     8   0    4.0403   451.1    5.468      37.505
2015    5        3     8   6    4.0383   451.1    5.467      37.489
2015    5        3     8  12    4.0363   451.1    5.466      37.473
2015    5        3     8  18    4.0344   451.0    5.465      37.456
2015    5        3     8  24    4.0324   451.0    5.463      37.439
2015    5        3     8  30    4.0305   450.9    5.462      37.422
2015    5        3     8  36    4.0285   450.9    5.461      37.405
2015    5        3     8  42    4.0266   450.8    5.460      37.388
2015    5        3     8  48    4.0246   450.8    5.458      37.370
2015    5        3     8  55    4.0227   450.7    5.457      37.353
2015    5        3     9   1    4.0208   450.7    5.456      37.335
2015    5        3     9   7    4.0189   450.6    5.454      37.318
2015    5        3     9  13    4.0170   450.6    5.453      37.300
2015    5        3     9  19    4.0151   450.5    5.451      37.282
2015    5        3     9  25    4.0132   450.4    5.450      37.264
2015    5        3     9  31    4.0113   450.4    5.449      37.247
2015    5        3     9  37    4.0095   450.3    5.447      37.229
2015    5        3     9  43    4.0076   450.3    5.446      37.211
2015    5        3     9  49    4.0058   450.2    5.444      37.193
2015    5        3     9  56    4.0039   450.2    5.443      37.175
2015    5        3    10   2    4.0021   450.1    5.442      37.158
2015    5        3    10   8    4.0003   450.1    5.440      37.140
2015    5        3    10  14    3.9985   450.0    5.439      37.122
2015    5        3    10  20    3.9967   450.0    5.437      37.105
2015    5        3    10  26    3.9950   449.9    5.436      37.087
2015    5        3    10  32    3.9932   449.8    5.434      37.069
2015    5        3    10  38    3.9914   449.8    5.433      37.051
2015    5        3    10  44    3.9897   449.7    5.431      37.033
2015    5        3    10  50    3.9879   449.7    5.430      37.016
2015    5        3    10  56    3.9862   449.6    5.428      36.998
2015    5        3    11   3    3.9844   449.6    5.427      36.980
2015    5        3    11   9    3.9827   449.5    5.425      36.962
2015    5        3    11  15    3.9810   449.5    5.424      36.945
2015    5        3    11  21    3.9792   449.4    5.423      36.927
2015    5        3    11  27    3.9775   449.3    5.421      36.909
2015    5        3    11  33    3.9758   449.3    5.420      36.891
2015    5        3    11  39    3.9741   449.2    5.418      36.873
2015    5        3    11  45    3.9723   449.2    5.417      36.855
2015    5        3    11  51    3.9706   449.1    5.415      36.837
2015    5        3    11  57    3.9689   449.1    5.414      36.819
2015    5        3    12   3    3.9672   449.0    5.412      36.801
2015    5        3    12  10    3.9655   448.9    5.411      36.783
2015    5        3    12  16    3.9637   448.9    5.409      36.766
2015    5        3    12  22    3.9620   448.8    5.408      36.748
2015    5        3    12  28    3.9603   448.8    5.406      36.730
2015    5        3    12  34    3.9586   448.7    5.405      36.712
2015    5        3    12  40    3.9569   448.7    5.404      36.694
2015    5        3    12  46    3.9552   448.6    5.402      36.676
2015    5        3    12  52    3.9535   448.5    5.401      36.658
2015    5        3    12  58    3.9518   448.5    5.400      36.641
2015    5        3    13   4    3.9501   448.4    5.399      36.623
2015    5        3    13  10    3.9484   448.4    5.397      36.605
2015    5        3    13  17    3.9468   448.3    5.396      36.588
2015    5        3    13  23    3.9451   448.2    5.395      36.571
2015    5        3    13  29    3.9434   448.2    5.394      36.554
2015    5        3    13  35    3.9418   448.1    5.393      36.537
2015    5        3    13  41    3.9401   448.1    5.392      36.520
2015    5        3    13  47    3.9385   448.0    5.391      36.503
2015    5        3    13  53    3.9369   447.9    5.390      36.486
2015    5        3    13  59    3.9353   447.9    5.390      36.470
2015    5        3    14   5    3.9337   447.8    5.389      36.453
2015    5        3    14  11    3.9321   447.8    5.388      36.437
2015    5        3    14  17    3.9305   447.7    5.387      36.421
2015    5        3    14  24    3.9289   447.6    5.387      36.405
2015    5        3    14  30    3.9273   447.6    5.386      36.389
2015    5        3    14  36    3.9257   447.5    5.385      36.373
2015    5        3    14  42    3.9242   447.4    5.385      36.357
2015    5        3    14  48    3.9226   447.4    5.384      36.342
2015    5        3    14  54    3.9211   447.3    5.384      36.326
2015    5        3    15   0    3.9195   447.3    5.383      36.310
2015    5        3    15   6    3.9179   447.2    5.383      36.294
2015    5        3    15  12    3.9164   447.1    5.383      36.279
2015    5        3    15  18    3.9148   447.1    5.382      36.263
2015    5        3    15  25    3.9133   447.0    5.382      36.246
2015    5        3    15  31    3.9117   446.9    5.381      36.230
2015    5        3    15  37    3.9101   446.9    5.381      36.214
2015    5        3    15  43    3.9086   446.8    5.381      36.197
2015    5        3    15  49    3.9070   446.7    5.380      36.180
2015    5        3    15  55    3.9054   446.7    5.380      36.163
2015    5        3    16   1    3.9039   446.6    5.379      36.145
2015    5        3    16   7    3.9023   446.5    5.379      36.128
2015    5        3    16  13    3.9007   446.5    5.378      36.110
2015    5        3    16  19    3.8992   446.4    5.378      36.092
2015    5        3    16  25    3.8976   446.3    5.377      36.073
2015    5        3    16  32    3.8961   446.3    5.377      36.055
2015    5        3    16  38    3.8945   446.2    5.377      36.036
2015    5        3    16  44    3.8929   446.1    5.376      36.017
2015    5        3    16  50    3.8914   446.0    5.376      35.998
2015    5        3    16  56    3.8899   446.0    5.375      35.979
2015    5        3    17   2    3.8883   445.9    5.375      35.960
2015    5        3    17   8    3.8868   445.8    5.374      35.940
2015    5        3    17  14    3.8853   445.8    5.374      35.921
2015    5        3    17  20    3.8838   445.7    5.373      35.901
2015    5        3    17  26    3.8822   445.6    5.373      35.881
2015    5        3    17  32    3.8807   445.5    5.372      35.861
2015    5        3    17  39    3.8792   445.5    5.372      35.841
2015    5        3    17  45    3.8777   445.4    5.372      35.821
2015    5        3    17  51    3.8763   445.3    5.371      35.801
2015    5        3    17  57    3.8748   445.2    5.371      35.781
2015    5        3    18   3    3.8733   445.2    5.371      35.761
2015    5        3    18   9    3.8718   445.1    5.370      35.741
2015    5        3    18  15    3.8704   445.0    5.370      35.721
2015    5        3    18  21    3.8689   444.9    5.370      35.700
2015    5        3    18  27    3.8675   444.8    5.369      35.680
2015    5        3    18  33    3.8660   444.8    5.369      35.660
2015    5        3    18  39    3.8646   444.7    5.369      35.640
2015    5        3    18  46    3.8632   444.6    5.368      35.619
2015    5        3    18  52    3.8617   444.5    5.368      35.599
2015    5        3    18  58    3.8603   444.5    5.368      35.579
2015    5        3    19   4    3.8589   444.4    5.368      35.559
2015    5        3    19  10    3.8575   444.3    5.367      35.539
2015    5        3    19  16    3.8560   444.2    5.367      35.519
2015    5        3    19  22    3.8546   444.2    5.367      35.499
2015    5        3    19  28    3.8532   444.1    5.366      35.479
2015    5        3    19  34    3.8518   444.0    5.366      35.459
2015    5        3    19  40    3.8504   443.9    5.366      35.440
2015    5        3    19  47    3.8491   443.8    5.365      35.420
2015    5        3    19  53    3.8477   443.8    5.365      35.401
2015    5        3    19  59    3.8463   443.7    5.364      35.381
2015    5        3    20   5    3.8449   443.6    5.364      35.362
2015    5        3    20  11    3.8436   443.5    5.364      35.343
2015    5        3    20  17    3.8422   443.4    5.363      35.323
2015    5        3    20  23    3.8409   443.3    5.363      35.304
2015    5        3    20  29    3.8396   443.3    5.362      35.285
2015    5        3    20  35    3.8382   443.2    5.362      35.265
2015    5        3    20  41    3.8369   443.1    5.362      35.246
2015    5        3    20  47    3.8357   443.0    5.361      35.227
2015    5        3    20  54    3.8344   442.9    5.361      35.207
2015    5        3    21   0    3.8331   442.9    5.360      35.188
2015    5        3    21   6    3.8319   442.8    5.360      35.169
2015    5        3    21  12    3.8306   442.7    5.360      35.150
2015    5        3    21  18    3.8294   442.6    5.359      35.130
2015    5        3    21  24    3.8282   442.5    5.359      35.111
2015    5        3    21  30    3.8270   442.5    5.358      35.092
2015    5        3    21  36    3.8258   442.4    5.358      35.073
2015    5        3    21  42    3.8246   442.3    5.358      35.054
2015    5        3    21  48    3.8234   442.2    5.357      35.035
2015    5        3    21  54    3.8222   442.1    5.357      35.016
2015    5        3    22   1    3.8211   442.1    5.357      34.997
2015    5        3    22   7    3.8199   442.0    5.356      34.978
2015    5        3    22  13    3.8187   441.9    5.356      34.959
2015    5        3    22  19    3.8175   441.8    5.356      34.939
2015    5        3    22  25    3.8164   441.8    5.355      34.920
2015    5        3    22  31    3.8152   441.7    5.355      34.901
2015    5        3    22  37    3.8140   441.6    5.355      34.881
2015    5        3    22  43    3.8128   441.5    5.354      34.862
2015    5        3    22  49    3.8117   441.4    5.354      34.842
2015    5        3    22  55    3.8105   441.4    5.353      34.822
2015    5        3    23   1    3.8093   441.3    5.353      34.802
2015    5        3    23   8    3.8081   441.2    5.353      34.782
2015    5        3    23  14    3.8069   441.1    5.352      34.762
2015    5        3    23  20    3.8057   441.0    5.352      34.742
2015    5        3    23  26    3.8045   441.0    5.351      34.721
2015    5        3    23  32    3.8033   440.9    5.351      34.700
2015    5        3    23  38    3.8021   440.8    5.350      34.679
2015    5        3    23  44    3.8009   440.7    5.350      34.658
2015    5        3    23  50    3.7996   440.6    5.350      34.637
2015    5        3    23  56    3.7984   440.5    5.349      34.616
2015    5        4     0   2    3.7972   440.5    5.349      34.594
2015    5        4     0   8    3.7960   440.4    5.348      34.572
2015    5        4     0  15    3.7948   440.3    5.348      34.551
2015    5        4     0  21    3.7935   440.2    5.347      34.529
2015    5        4     0  27    3.7923   440.1    5.347      34.507
2015    5        4     0  33    3.7911   440.0    5.347      34.485
2015    5        4     0  39    3.7899   439.9    5.346      34.463
2015    5        4     0  45    3.7887   439.9    5.346      34.441
2015    5        4     0  51    3.7875   439.8    5.346      34.419
2015    5        4     0  57    3.7863   439.7    5.345      34.397
2015    5        4     1   3    3.7851   439.6    5.345      34.374
2015    5        4     1   9    3.7839   439.5    5.345      34.353
2015    5        4     1  16    3.7827   439.4    5.345      34.331
2015    5        4     1  22    3.7815   439.3    5.345      34.309
2015    5        4     1  28    3.7803   439.2    5.345      34.287
2015    5        4     1  34    3.7791   439.1    5.345      34.266
2015    5        4     1  40    3.7780   439.1    5.345      34.244
2015    5        4     1  46    3.7768   439.0    5.345      34.223
2015    5        4     1  52    3.7757   438.9    5.345      34.202
2015    5        4     1  58    3.7745   438.8    5.345      34.181
2015    5        4     2   4    3.7734   438.7    5.346      34.160
2015    5        4     2  10    3.7723   438.6    5.346      34.140
2015    5        4     2  16    3.7711   438.5    5.346      34.120
2015    5        4     2  23    3.7700   438.4    5.347      34.100
2015    5        4     2  29    3.7689   438.3    5.347      34.080
2015    5        4     2  35    3.7678   438.2    5.347      34.060
2015    5        4     2  41    3.7667   438.1    5.348      34.041
2015    5        4     2  47    3.7656   438.0    5.348      34.022
2015    5        4     2  53    3.7645   438.0    5.349      34.003
2015    5        4     2  59    3.7635   437.9    5.349      33.984
2015    5        4     3   5    3.7624   437.8    5.350      33.966
2015    5        4     3  11    3.7614   437.7    5.350      33.947
2015    5        4     3  17    3.7603   437.6    5.351      33.929
2015    5        4     3  23    3.7593   437.5    5.352      33.910
2015    5        4     3  30    3.7583   437.4    5.352      33.892
2015    5        4     3  36    3.7572   437.3    5.353      33.873
2015    5        4     3  42    3.7563   437.2    5.353      33.855
2015    5        4     3  48    3.7553   437.1    5.354      33.837
2015    5        4     3  54    3.7543   437.0    5.355      33.818
2015    5        4     4   0    3.7534   436.9    5.355      33.800
2015    5        4     4   6    3.7524   436.8    5.356      33.782
2015    5        4     4  12    3.7515   436.7    5.357      33.763
2015    5        4     4  18    3.7506   436.6    5.358      33.745
2015    5        4     4  24    3.7497   436.5    5.358      33.726
2015    5        4     4  30    3.7488   436.4    5.359      33.707
2015    5        4     4  37    3.7480   436.3    5.360      33.689
2015    5        4     4  43    3.7471   436.2    5.360      33.670
2015    5        4     4  49    3.7463   436.1    5.361      33.651
2015    5        4     4  55    3.7455   436.0    5.362      33.632
2015    5        4     5   1    3.7447   435.9    5.362      33.613
2015    5        4     5   7    3.7439   435.8    5.363      33.594
2015    5        4     5  13    3.7431   435.7    5.364      33.575
2015    5        4     5  19    3.7423   435.6    5.364      33.556
2015    5        4     5  25    3.7416   435.5    5.365      33.537
2015    5        4     5  31    3.7409   435.4    5.365      33.518
2015    5        4     5  37    3.7401   435.3    5.366      33.498
2015    5        4     5  44    3.7394   435.2    5.367      33.479
2015    5        4     5  50    3.7387   435.1    5.367      33.459
2015    5        4     5  56    3.7379   435.0    5.368      33.440
2015    5        4     6   2    3.7372   434.9    5.368      33.420
2015    5        4     6   8    3.7365   434.8    5.369      33.401
2015    5        4     6  14    3.7358   434.7    5.369      33.381
2015    5        4     6  20    3.7350   434.6    5.370      33.361
2015    5        4     6  26    3.7343   434.5    5.370      33.341
2015    5        4     6  32    3.7336   434.4    5.371      33.321
2015    5        4     6  38    3.7329   434.3    5.371      33.301
2015    5        4     6  45    3.7322   434.2    5.372      33.281
2015    5        4     6  51    3.7314   434.1    5.372      33.261
2015    5        4     6  57    3.7307   434.0    5.373      33.240
2015    5        4     7   3    3.7300   433.9    5.373      33.220
2015    5        4     7   9    3.7292   433.8    5.373      33.199
2015    5        4     7  15    3.7285   433.7    5.374      33.179
2015    5        4     7  21    3.7278   433.6    5.374      33.158
2015    5        4     7  27    3.7270   433.5    5.374      33.137
2015    5        4     7  33    3.7263   433.4    5.375      33.116
2015    5        4     7  39    3.7255   433.3    5.375      33.095
2015    5        4     7  45    3.7247   433.2    5.375      33.074
2015    5        4     7  52    3.7240   433.1    5.376      33.052
2015    5        4     7  58    3.7232   433.0    5.376      33.030
2015    5        4     8   4    3.7224   432.9    5.376      33.009
2015    5        4     8  10    3.7216   432.8    5.377      32.987
2015    5        4     8  16    3.7208   432.7    5.377      32.965
2015    5        4     8  22    3.7201   432.6    5.377      32.943
2015    5        4     8  28    3.7193   432.5    5.377      32.921
2015    5        4     8  34    3.7185   432.3    5.378      32.899
2015    5        4     8  40    3.7177   432.2    5.378      32.876
2015    5        4     8  46    3.7169   432.1    5.378      32.854
2015    5        4     8  52    3.7162   432.0    5.379      32.832
2015    5        4     8  59    3.7154   431.9    5.379      32.809
2015    5        4     9   5    3.7146   431.8    5.379      32.787
2015    5        4     9  11    3.7138   431.7    5.380      32.764
2015    5        4     9  17    3.7131   431.6    5.380      32.742
2015    5        4     9  23    3.7123   431.5    5.381      32.720
2015    5        4     9  29    3.7116   431.4    5.381      32.697
2015    5        4     9  35    3.7108   431.2    5.382      32.675
2015    5        4     9  41    3.7101   431.1    5.382      32.652
2015    5        4     9  47    3.7093   431.0    5.383      32.630
2015    5        4     9  53    3.7086   430.9    5.384      32.608
2015    5        4     9  59    3.7079   430.8    5.384      32.586
2015    5        4    10   6    3.7072   430.7    5.385      32.563
2015    5        4    10  12    3.7065   430.5    5.386      32.541
2015    5        4    10  18    3.7058   430.4    5.387      32.519
2015    5        4    10  24    3.7052   430.3    5.388      32.498
2015    5        4    10  30    3.7046   430.2    5.389      32.476
2015    5        4    10  36    3.7039   430.1    5.390      32.454
2015    5        4    10  42    3.7033   429.9    5.391      32.433
2015    5        4    10  48    3.7027   429.8    5.392      32.411
2015    5        4    10  54    3.7022   429.7    5.394      32.390
2015    5        4    11   0    3.7016   429.6    5.395      32.369
2015    5        4    11   6    3.7011   429.5    5.397      32.349
2015    5        4    11  13    3.7006   429.3    5.398      32.328
2015    5        4    11  19    3.7001   429.2    5.400      32.307
2015    5        4    11  25    3.6997   429.1    5.402      32.287
2015    5        4    11  31    3.6993   429.0    5.404      32.267
2015    5        4    11  37    3.6989   428.8    5.406      32.248
2015    5        4    11  43    3.6986   428.7    5.408      32.228
2015    5        4    11  49    3.6982   428.6    5.410      32.209
2015    5        4    11  55    3.6979   428.5    5.412      32.190
2015    5        4    12   1    3.6977   428.3    5.415      32.172
2015    5        4    12   7    3.6974   428.2    5.417      32.153
2015    5        4    12  14    3.6972   428.1    5.420      32.135
2015    5        4    12  20    3.6971   427.9    5.423      32.117
2015    5        4    12  26    3.6969   427.8    5.425      32.100
2015    5        4    12  32    3.6968   427.7    5.428      32.083
2015    5        4    12  38    3.6967   427.6    5.431      32.066
2015    5        4    12  44    3.6967   427.4    5.435      32.050
2015    5        4    12  50    3.6967   427.3    5.438      32.034
2015    5        4    12  56    3.6967   427.2    5.441      32.018
2015    5        4    13   2    3.6967   427.1    5.445      32.002
2015    5        4    13   8    3.6968   426.9    5.448      31.987
2015    5        4    13  14    3.6969   426.8    5.452      31.973
2015    5        4    13  21    3.6970   426.7    5.455      31.958
2015    5        4    13  27    3.6971   426.5    5.459      31.944
2015    5        4    13  33    3.6972   426.4    5.463      31.930
2015    5        4    13  39    3.6974   426.3    5.467      31.916
2015    5        4    13  45    3.6976   426.2    5.471      31.903
2015    5        4    13  51    3.6978   426.0    5.475      31.890
2015    5        4    13  57    3.6980   425.9    5.479      31.877
2015    5        4    14   3    3.6982   425.8    5.484      31.864
2015    5        4    14   9    3.6984   425.6    5.488      31.851
2015    5        4    14  15    3.6987   425.5    5.492      31.839
2015    5        4    14  21    3.6990   425.4    5.497      31.827
2015    5        4    14  28    3.6992   425.2    5.501      31.815
2015    5        4    14  34    3.6995   425.1    5.506      31.803
2015    5        4    14  40    3.6998   425.0    5.510      31.791
2015    5        4    14  46    3.7001   424.8    5.515      31.779
2015    5        4    14  52    3.7005   424.7    5.520      31.767
2015    5        4    14  58    3.7008   424.6    5.525      31.756
2015    5        4    15   4    3.7012   424.4    5.529      31.744
2015    5        4    15  10    3.7016   424.3    5.534      31.732
2015    5        4    15  16    3.7019   424.2    5.539      31.720
2015    5        4    15  22    3.7023   424.0    5.544      31.709
2015    5        4    15  28    3.7027   423.9    5.549      31.697
2015    5        4    15  35    3.7032   423.8    5.554      31.685
2015    5        4    15  41    3.7036   423.6    5.559      31.674
2015    5        4    15  47    3.7041   423.5    5.564      31.662
2015    5        4    15  53    3.7046   423.4    5.569      31.651
2015    5        4    15  59    3.7052   423.2    5.574      31.639
2015    5        4    16   5    3.7057   423.1    5.579      31.627
2015    5        4    16  11    3.7063   423.0    5.584      31.616
2015    5        4    16  17    3.7068   422.9    5.589      31.604
2015    5        4    16  23    3.7075   422.7    5.594      31.593
2015    5        4    16  29    3.7081   422.6    5.599      31.581
2015    5        4    16  36    3.7087   422.5    5.604      31.570
2015    5        4    16  42    3.7094   422.3    5.609      31.559
2015    5        4    16  48    3.7100   422.2    5.614      31.548
2015    5        4    16  54    3.7107   422.1    5.619      31.537
2015    5        4    17   0    3.7114   421.9    5.625      31.525
2015    5        4    17   6    3.7121   421.8    5.630      31.514
2015    5        4    17  12    3.7129   421.7    5.635      31.503
2015    5        4    17  18    3.7136   421.6    5.640      31.491
2015    5        4    17  24    3.7144   421.4    5.645      31.479
2015    5        4    17  30    3.7152   421.3    5.650      31.468
2015    5        4    17  36    3.7160   421.2    5.655      31.456
2015    5        4    17  43    3.7169   421.0    5.660      31.444
2015    5        4    17  49    3.7177   420.9    5.665      31.432
2015    5        4    17  55    3.7186   420.8    5.670      31.420
2015    5        4    18   1    3.7195   420.7    5.675      31.408
2015    5        4    18   7    3.7205   420.5    5.680      31.396
2015    5        4    18  13    3.7214   420.4    5.685      31.385
2015    5        4    18  19    3.7224   420.3    5.690      31.373
2015    5        4    18  25    3.7235   420.1    5.696      31.361
2015    5        4    18  31    3.7245   420.0    5.701      31.349
2015    5        4    18  37    3.7256   419.9    5.707      31.337
2015    5        4    18  43    3.7268   419.8    5.712      31.326
2015    5        4    18  50    3.7279   419.6    5.718      31.314
2015    5        4    18  56    3.7291   419.5    5.723      31.303
2015    5        4    19   2    3.7304   419.4    5.729      31.292
2015    5        4    19   8    3.7316   419.3    5.735      31.282
2015    5        4    19  14    3.7329   419.1    5.741      31.271
2015    5        4    19  20    3.7343   419.0    5.747      31.261
2015    5        4    19  26    3.7356   418.9    5.753      31.251
2015    5        4    19  32    3.7370   418.8    5.759      31.241
2015    5        4    19  38    3.7385   418.7    5.766      31.232
2015    5        4    19  44    3.7400   418.5    5.772      31.223
2015    5        4    19  50    3.7415   418.4    5.779      31.214
2015    5        4    19  57    3.7431   418.3    5.785      31.206
2015    5        4    20   3    3.7447   418.2    5.792      31.198
2015    5        4    20   9    3.7463   418.1    5.799      31.191
2015    5        4    20  15    3.7479   417.9    5.806      31.184
2015    5        4    20  21    3.7496   417.8    5.814      31.177
2015    5        4    20  27    3.7513   417.7    5.821      31.171
2015    5        4    20  33    3.7531   417.6    5.828      31.165
2015    5        4    20  39    3.7549   417.5    5.836      31.160
2015    5        4    20  45    3.7567   417.4    5.843      31.155
2015    5        4    20  51    3.7586   417.3    5.851      31.150
2015    5        4    20  57    3.7604   417.1    5.859      31.146
2015    5        4    21   4    3.7624   417.0    5.867      31.142
2015    5        4    21  10    3.7643   416.9    5.875      31.139
2015    5        4    21  16    3.7662   416.8    5.883      31.136
2015    5        4    21  22    3.7682   416.7    5.892      31.134
2015    5        4    21  28    3.7703   416.6    5.900      31.132
2015    5        4    21  34    3.7723   416.5    5.909      31.130
2015    5        4    21  40    3.7744   416.4    5.917      31.129
2015    5        4    21  46    3.7765   416.3    5.926      31.128
2015    5        4    21  52    3.7787   416.2    5.934      31.128
2015    5        4    21  58    3.7808   416.1    5.943      31.127
2015    5        4    22   5    3.7830   416.0    5.952      31.128
2015    5        4    22  11    3.7852   415.9    5.961      31.128
2015    5        4    22  17    3.7875   415.8    5.970      31.130
2015    5        4    22  23    3.7898   415.7    5.980      31.131
2015    5        4    22  29    3.7921   415.6    5.989      31.133
2015    5        4    22  35    3.7944   415.5    5.998      31.135
2015    5        4    22  41    3.7968   415.4    6.008      31.138
2015    5        4    22  47    3.7992   415.3    6.017      31.141
2015    5        4    22  53    3.8016   415.2    6.027      31.144
2015    5        4    22  59    3.8040   415.1    6.036      31.148
2015    5        4    23   5    3.8065   415.0    6.046      31.152
2015    5        4    23  12    3.8091   414.9    6.056      31.156
2015    5        4    23  18    3.8116   414.8    6.066      31.161
2015    5        4    23  24    3.8142   414.7    6.075      31.167
2015    5        4    23  30    3.8168   414.6    6.085      31.172
2015    5        4    23  36    3.8194   414.5    6.095      31.178
2015    5        4    23  42    3.8221   414.4    6.105      31.185
2015    5        4    23  48    3.8247   414.3    6.115      31.192
2015    5        4    23  54    3.8275   414.2    6.125      31.198
2015    5        5     0   0    3.8302   414.1    6.135      31.205
