year    month   day   hour  minute  B_enl V_enl   n_enl       T_enl
[year] [month] [day] [hour][minute] [nT]  [km/s]  [cm-3]      [kK]
2015    4       24     0   0    3.3582   394.4    5.845      27.412
2015    4       24     0   6    3.3603   394.3    5.853      27.409
2015    4       24     0  13    3.3623   394.1    5.862      27.406
2015    4       24     0  19    3.3643   393.9    5.870      27.403
2015    4       24     0  25    3.3663   393.8    5.878      27.401
2015    4       24     0  31    3.3684   393.6    5.886      27.398
2015    4       24     0  37    3.3704   393.4    5.895      27.395
2015    4       24     0  43    3.3725   393.3    5.903      27.392
2015    4       24     0  49    3.3745   393.1    5.911      27.390
2015    4       24     0  55    3.3766   393.0    5.919      27.387
2015    4       24     1   1    3.3787   392.8    5.927      27.384
2015    4       24     1   8    3.3808   392.7    5.935      27.382
2015    4       24     1  14    3.3829   392.5    5.943      27.379
2015    4       24     1  20    3.3850   392.3    5.951      27.377
2015    4       24     1  26    3.3871   392.2    5.959      27.374
2015    4       24     1  32    3.3892   392.0    5.966      27.372
2015    4       24     1  38    3.3913   391.9    5.974      27.369
2015    4       24     1  44    3.3935   391.7    5.982      27.367
2015    4       24     1  50    3.3956   391.6    5.990      27.365
2015    4       24     1  57    3.3978   391.4    5.998      27.363
2015    4       24     2   3    3.4000   391.3    6.006      27.360
2015    4       24     2   9    3.4022   391.1    6.014      27.358
2015    4       24     2  15    3.4044   391.0    6.022      27.356
2015    4       24     2  21    3.4066   390.8    6.029      27.355
2015    4       24     2  27    3.4088   390.7    6.037      27.353
2015    4       24     2  33    3.4110   390.5    6.045      27.352
2015    4       24     2  39    3.4133   390.4    6.053      27.350
2015    4       24     2  45    3.4156   390.2    6.061      27.349
2015    4       24     2  52    3.4179   390.1    6.069      27.348
2015    4       24     2  58    3.4202   389.9    6.077      27.348
2015    4       24     3   4    3.4225   389.8    6.085      27.347
2015    4       24     3  10    3.4248   389.6    6.093      27.347
2015    4       24     3  16    3.4272   389.5    6.102      27.347
2015    4       24     3  22    3.4296   389.4    6.110      27.347
2015    4       24     3  28    3.4320   389.2    6.118      27.348
2015    4       24     3  34    3.4344   389.1    6.127      27.349
2015    4       24     3  40    3.4368   388.9    6.135      27.350
2015    4       24     3  47    3.4393   388.8    6.144      27.352
2015    4       24     3  53    3.4418   388.7    6.152      27.354
2015    4       24     3  59    3.4443   388.5    6.161      27.356
2015    4       24     4   5    3.4468   388.4    6.170      27.359
2015    4       24     4  11    3.4494   388.3    6.179      27.362
2015    4       24     4  17    3.4520   388.1    6.188      27.366
2015    4       24     4  23    3.4546   388.0    6.197      27.370
2015    4       24     4  29    3.4573   387.9    6.206      27.374
2015    4       24     4  35    3.4599   387.7    6.216      27.379
2015    4       24     4  42    3.4626   387.6    6.225      27.384
2015    4       24     4  48    3.4653   387.5    6.235      27.390
2015    4       24     4  54    3.4681   387.3    6.244      27.396
2015    4       24     5   0    3.4709   387.2    6.254      27.402
2015    4       24     5   6    3.4737   387.1    6.264      27.409
2015    4       24     5  12    3.4765   386.9    6.274      27.416
2015    4       24     5  18    3.4794   386.8    6.284      27.423
2015    4       24     5  24    3.4822   386.7    6.295      27.431
2015    4       24     5  30    3.4851   386.6    6.305      27.439
2015    4       24     5  37    3.4880   386.5    6.315      27.448
2015    4       24     5  43    3.4909   386.3    6.326      27.456
2015    4       24     5  49    3.4938   386.2    6.336      27.465
2015    4       24     5  55    3.4968   386.1    6.347      27.475
2015    4       24     6   1    3.4996   386.0    6.358      27.484
2015    4       24     6   7    3.5025   385.9    6.369      27.494
2015    4       24     6  13    3.5054   385.7    6.379      27.504
2015    4       24     6  19    3.5083   385.6    6.390      27.514
2015    4       24     6  25    3.5112   385.5    6.401      27.524
2015    4       24     6  32    3.5140   385.4    6.412      27.534
2015    4       24     6  38    3.5169   385.3    6.423      27.544
2015    4       24     6  44    3.5197   385.2    6.434      27.554
2015    4       24     6  50    3.5225   385.1    6.445      27.564
2015    4       24     6  56    3.5253   385.0    6.456      27.575
2015    4       24     7   2    3.5281   384.9    6.467      27.585
2015    4       24     7   8    3.5309   384.7    6.478      27.596
2015    4       24     7  14    3.5337   384.6    6.488      27.606
2015    4       24     7  20    3.5365   384.5    6.499      27.616
2015    4       24     7  27    3.5393   384.4    6.510      27.627
2015    4       24     7  33    3.5421   384.3    6.520      27.637
2015    4       24     7  39    3.5449   384.2    6.531      27.647
2015    4       24     7  45    3.5476   384.1    6.541      27.657
2015    4       24     7  51    3.5504   384.0    6.552      27.667
2015    4       24     7  57    3.5532   383.9    6.562      27.677
2015    4       24     8   3    3.5560   383.8    6.572      27.687
2015    4       24     8   9    3.5588   383.7    6.582      27.697
2015    4       24     8  15    3.5615   383.6    6.593      27.706
2015    4       24     8  22    3.5643   383.5    6.603      27.715
2015    4       24     8  28    3.5671   383.4    6.613      27.725
2015    4       24     8  34    3.5699   383.3    6.623      27.734
2015    4       24     8  40    3.5727   383.1    6.633      27.743
2015    4       24     8  46    3.5755   383.0    6.643      27.752
2015    4       24     8  52    3.5783   382.9    6.653      27.760
2015    4       24     8  58    3.5811   382.8    6.662      27.769
2015    4       24     9   4    3.5839   382.7    6.672      27.777
2015    4       24     9  10    3.5867   382.6    6.682      27.786
2015    4       24     9  17    3.5896   382.5    6.692      27.794
2015    4       24     9  23    3.5924   382.4    6.701      27.802
2015    4       24     9  29    3.5952   382.3    6.711      27.811
2015    4       24     9  35    3.5981   382.2    6.720      27.819
2015    4       24     9  41    3.6009   382.1    6.730      27.827
2015    4       24     9  47    3.6038   382.1    6.739      27.835
2015    4       24     9  53    3.6066   382.0    6.749      27.843
2015    4       24     9  59    3.6095   381.9    6.758      27.851
2015    4       24    10   5    3.6124   381.8    6.768      27.859
2015    4       24    10  12    3.6153   381.7    6.777      27.867
2015    4       24    10  18    3.6182   381.6    6.786      27.875
2015    4       24    10  24    3.6211   381.5    6.796      27.884
2015    4       24    10  30    3.6240   381.4    6.805      27.892
2015    4       24    10  36    3.6270   381.3    6.814      27.900
2015    4       24    10  42    3.6299   381.2    6.823      27.909
2015    4       24    10  48    3.6329   381.1    6.833      27.917
2015    4       24    10  54    3.6359   381.0    6.842      27.926
2015    4       24    11   1    3.6389   380.9    6.851      27.935
2015    4       24    11   7    3.6419   380.8    6.861      27.944
2015    4       24    11  13    3.6449   380.8    6.870      27.953
2015    4       24    11  19    3.6480   380.7    6.879      27.962
2015    4       24    11  25    3.6510   380.6    6.888      27.972
2015    4       24    11  31    3.6541   380.5    6.898      27.982
2015    4       24    11  37    3.6572   380.4    6.907      27.992
2015    4       24    11  43    3.6604   380.3    6.916      28.002
2015    4       24    11  49    3.6635   380.2    6.926      28.013
2015    4       24    11  56    3.6667   380.2    6.935      28.023
2015    4       24    12   2    3.6699   380.1    6.945      28.034
2015    4       24    12   8    3.6732   380.0    6.954      28.046
2015    4       24    12  14    3.6764   379.9    6.964      28.057
2015    4       24    12  20    3.6797   379.8    6.973      28.069
2015    4       24    12  26    3.6830   379.7    6.983      28.080
2015    4       24    12  32    3.6863   379.7    6.992      28.093
2015    4       24    12  38    3.6896   379.6    7.002      28.105
2015    4       24    12  44    3.6930   379.5    7.012      28.117
2015    4       24    12  51    3.6963   379.4    7.021      28.130
2015    4       24    12  57    3.6997   379.3    7.031      28.143
2015    4       24    13   3    3.7031   379.3    7.041      28.156
2015    4       24    13   9    3.7065   379.2    7.051      28.169
2015    4       24    13  15    3.7099   379.1    7.061      28.182
2015    4       24    13  21    3.7133   379.0    7.070      28.196
2015    4       24    13  27    3.7167   379.0    7.080      28.209
2015    4       24    13  33    3.7201   378.9    7.090      28.223
2015    4       24    13  39    3.7235   378.8    7.100      28.237
2015    4       24    13  46    3.7268   378.7    7.110      28.250
2015    4       24    13  52    3.7302   378.7    7.120      28.264
2015    4       24    13  58    3.7336   378.6    7.129      28.278
2015    4       24    14   4    3.7369   378.5    7.139      28.292
2015    4       24    14  10    3.7403   378.5    7.149      28.306
2015    4       24    14  16    3.7436   378.4    7.159      28.320
2015    4       24    14  22    3.7470   378.3    7.168      28.334
2015    4       24    14  28    3.7503   378.2    7.178      28.348
2015    4       24    14  34    3.7537   378.2    7.188      28.362
2015    4       24    14  41    3.7570   378.1    7.197      28.376
2015    4       24    14  47    3.7604   378.0    7.207      28.389
2015    4       24    14  53    3.7637   378.0    7.217      28.403
2015    4       24    14  59    3.7670   377.9    7.226      28.417
2015    4       24    15   5    3.7704   377.8    7.236      28.430
2015    4       24    15  11    3.7737   377.7    7.245      28.443
2015    4       24    15  17    3.7770   377.7    7.255      28.457
2015    4       24    15  23    3.7804   377.6    7.264      28.470
2015    4       24    15  29    3.7837   377.5    7.274      28.483
2015    4       24    15  36    3.7871   377.5    7.283      28.496
2015    4       24    15  42    3.7904   377.4    7.292      28.509
2015    4       24    15  48    3.7938   377.3    7.302      28.521
2015    4       24    15  54    3.7972   377.2    7.311      28.534
2015    4       24    16   0    3.8005   377.2    7.321      28.547
2015    4       24    16   6    3.8039   377.1    7.330      28.559
2015    4       24    16  12    3.8074   377.0    7.340      28.572
2015    4       24    16  18    3.8108   377.0    7.349      28.584
2015    4       24    16  24    3.8142   376.9    7.359      28.597
2015    4       24    16  31    3.8176   376.8    7.369      28.609
2015    4       24    16  37    3.8211   376.8    7.378      28.622
2015    4       24    16  43    3.8246   376.7    7.388      28.634
2015    4       24    16  49    3.8281   376.6    7.398      28.647
2015    4       24    16  55    3.8316   376.6    7.407      28.660
2015    4       24    17   1    3.8352   376.5    7.417      28.672
2015    4       24    17   7    3.8387   376.4    7.427      28.685
2015    4       24    17  13    3.8423   376.4    7.437      28.698
2015    4       24    17  19    3.8459   376.3    7.447      28.710
2015    4       24    17  26    3.8495   376.2    7.457      28.724
2015    4       24    17  32    3.8531   376.2    7.467      28.736
2015    4       24    17  38    3.8568   376.1    7.477      28.750
2015    4       24    17  44    3.8605   376.1    7.487      28.763
2015    4       24    17  50    3.8642   376.0    7.497      28.776
2015    4       24    17  56    3.8679   376.0    7.507      28.790
2015    4       24    18   2    3.8717   375.9    7.517      28.803
2015    4       24    18   8    3.8755   375.8    7.528      28.817
2015    4       24    18  14    3.8793   375.8    7.538      28.830
2015    4       24    18  21    3.8831   375.7    7.549      28.844
2015    4       24    18  27    3.8870   375.7    7.559      28.858
2015    4       24    18  33    3.8908   375.6    7.570      28.872
2015    4       24    18  39    3.8948   375.6    7.580      28.886
2015    4       24    18  45    3.8987   375.5    7.591      28.900
2015    4       24    18  51    3.9026   375.5    7.602      28.915
2015    4       24    18  57    3.9066   375.4    7.613      28.929
2015    4       24    19   3    3.9106   375.4    7.624      28.944
2015    4       24    19   9    3.9147   375.3    7.635      28.958
2015    4       24    19  16    3.9187   375.3    7.646      28.973
2015    4       24    19  22    3.9228   375.2    7.657      28.988
2015    4       24    19  28    3.9270   375.2    7.668      29.003
2015    4       24    19  34    3.9311   375.1    7.680      29.019
2015    4       24    19  40    3.9353   375.1    7.692      29.035
2015    4       24    19  46    3.9396   375.0    7.704      29.051
2015    4       24    19  52    3.9438   375.0    7.716      29.067
2015    4       24    19  58    3.9481   374.9    7.728      29.083
2015    4       24    20   4    3.9524   374.9    7.740      29.100
2015    4       24    20  11    3.9567   374.8    7.752      29.117
2015    4       24    20  17    3.9610   374.8    7.765      29.135
2015    4       24    20  23    3.9653   374.8    7.777      29.153
2015    4       24    20  29    3.9696   374.7    7.790      29.173
2015    4       24    20  35    3.9740   374.7    7.802      29.193
2015    4       24    20  41    3.9783   374.7    7.814      29.215
2015    4       24    20  47    3.9826   374.6    7.827      29.237
2015    4       24    20  53    3.9869   374.6    7.839      29.260
2015    4       24    21   0    3.9913   374.6    7.851      29.283
2015    4       24    21   6    3.9956   374.5    7.863      29.307
2015    4       24    21  12    3.9999   374.5    7.875      29.332
2015    4       24    21  18    4.0042   374.5    7.887      29.356
2015    4       24    21  24    4.0086   374.4    7.899      29.380
2015    4       24    21  30    4.0129   374.4    7.911      29.405
2015    4       24    21  36    4.0172   374.4    7.922      29.429
2015    4       24    21  42    4.0214   374.4    7.934      29.453
2015    4       24    21  48    4.0257   374.3    7.945      29.477
2015    4       24    21  55    4.0300   374.3    7.957      29.501
2015    4       24    22   1    4.0343   374.3    7.968      29.525
2015    4       24    22   7    4.0386   374.3    7.979      29.549
2015    4       24    22  13    4.0428   374.2    7.991      29.573
2015    4       24    22  19    4.0471   374.2    8.002      29.596
2015    4       24    22  25    4.0514   374.2    8.013      29.619
2015    4       24    22  31    4.0556   374.2    8.024      29.642
2015    4       24    22  37    4.0599   374.1    8.035      29.666
2015    4       24    22  43    4.0641   374.1    8.046      29.689
2015    4       24    22  50    4.0684   374.1    8.056      29.711
2015    4       24    22  56    4.0726   374.1    8.067      29.734
2015    4       24    23   2    4.0769   374.0    8.078      29.757
2015    4       24    23   8    4.0812   374.0    8.089      29.779
2015    4       24    23  14    4.0854   374.0    8.100      29.802
2015    4       24    23  20    4.0897   374.0    8.111      29.824
2015    4       24    23  26    4.0940   374.0    8.121      29.846
2015    4       24    23  32    4.0982   373.9    8.132      29.869
2015    4       24    23  38    4.1025   373.9    8.143      29.891
2015    4       24    23  45    4.1068   373.9    8.154      29.913
2015    4       24    23  51    4.1111   373.9    8.165      29.935
2015    4       24    23  57    4.1155   373.9    8.176      29.957
2015    4       25     0   3    4.1198   373.8    8.187      29.979
2015    4       25     0   9    4.1241   373.8    8.197      30.000
2015    4       25     0  15    4.1285   373.8    8.208      30.022
2015    4       25     0  21    4.1328   373.8    8.219      30.044
2015    4       25     0  27    4.1372   373.8    8.231      30.066
2015    4       25     0  33    4.1416   373.8    8.242      30.087
2015    4       25     0  40    4.1460   373.8    8.253      30.109
2015    4       25     0  46    4.1504   373.7    8.264      30.131
2015    4       25     0  52    4.1548   373.7    8.275      30.153
2015    4       25     0  58    4.1592   373.7    8.287      30.174
2015    4       25     1   4    4.1637   373.7    8.298      30.196
2015    4       25     1  10    4.1681   373.7    8.309      30.218
2015    4       25     1  16    4.1726   373.7    8.321      30.240
2015    4       25     1  22    4.1771   373.7    8.332      30.263
2015    4       25     1  28    4.1815   373.7    8.344      30.285
2015    4       25     1  35    4.1860   373.7    8.356      30.307
2015    4       25     1  41    4.1905   373.7    8.367      30.330
2015    4       25     1  47    4.1951   373.7    8.379      30.353
2015    4       25     1  53    4.1996   373.7    8.391      30.376
2015    4       25     1  59    4.2041   373.7    8.403      30.399
2015    4       25     2   5    4.2087   373.7    8.415      30.422
2015    4       25     2  11    4.2133   373.7    8.428      30.446
2015    4       25     2  17    4.2179   373.7    8.440      30.470
2015    4       25     2  23    4.2225   373.7    8.453      30.494
2015    4       25     2  30    4.2271   373.7    8.466      30.518
2015    4       25     2  36    4.2318   373.7    8.479      30.543
2015    4       25     2  42    4.2366   373.7    8.492      30.567
2015    4       25     2  48    4.2413   373.7    8.506      30.593
2015    4       25     2  54    4.2461   373.7    8.520      30.618
2015    4       25     3   0    4.2509   373.7    8.534      30.644
2015    4       25     3   6    4.2558   373.7    8.549      30.671
2015    4       25     3  12    4.2607   373.7    8.564      30.698
2015    4       25     3  18    4.2656   373.7    8.579      30.725
2015    4       25     3  25    4.2705   373.7    8.594      30.754
2015    4       25     3  31    4.2755   373.7    8.610      30.783
2015    4       25     3  37    4.2805   373.8    8.626      30.813
2015    4       25     3  43    4.2855   373.8    8.643      30.844
2015    4       25     3  49    4.2906   373.8    8.659      30.877
2015    4       25     3  55    4.2957   373.8    8.676      30.912
2015    4       25     4   1    4.3009   373.9    8.693      30.949
2015    4       25     4   7    4.3060   373.9    8.709      30.988
2015    4       25     4  13    4.3112   373.9    8.726      31.029
2015    4       25     4  20    4.3164   374.0    8.742      31.071
2015    4       25     4  26    4.3215   374.0    8.758      31.115
2015    4       25     4  32    4.3266   374.0    8.774      31.159
2015    4       25     4  38    4.3317   374.1    8.789      31.204
2015    4       25     4  44    4.3368   374.1    8.804      31.249
2015    4       25     4  50    4.3417   374.1    8.819      31.294
2015    4       25     4  56    4.3467   374.2    8.834      31.337
2015    4       25     5   2    4.3516   374.2    8.848      31.380
2015    4       25     5   8    4.3565   374.3    8.862      31.423
2015    4       25     5  15    4.3613   374.3    8.875      31.465
2015    4       25     5  21    4.3662   374.3    8.888      31.507
2015    4       25     5  27    4.3709   374.4    8.901      31.548
2015    4       25     5  33    4.3756   374.4    8.913      31.588
2015    4       25     5  39    4.3803   374.5    8.926      31.628
2015    4       25     5  45    4.3850   374.5    8.938      31.667
2015    4       25     5  51    4.3897   374.5    8.950      31.705
2015    4       25     5  57    4.3943   374.6    8.961      31.743
2015    4       25     6   4    4.3989   374.6    8.973      31.780
2015    4       25     6  10    4.4034   374.7    8.984      31.817
2015    4       25     6  16    4.4079   374.7    8.995      31.854
2015    4       25     6  22    4.4124   374.8    9.006      31.890
2015    4       25     6  28    4.4168   374.8    9.016      31.926
2015    4       25     6  34    4.4212   374.8    9.026      31.962
2015    4       25     6  40    4.4256   374.9    9.036      31.997
2015    4       25     6  46    4.4299   374.9    9.046      32.033
2015    4       25     6  52    4.4342   375.0    9.056      32.067
2015    4       25     6  59    4.4385   375.0    9.065      32.101
2015    4       25     7   5    4.4428   375.1    9.075      32.135
2015    4       25     7  11    4.4470   375.1    9.084      32.167
2015    4       25     7  17    4.4512   375.1    9.093      32.200
2015    4       25     7  23    4.4553   375.2    9.101      32.232
2015    4       25     7  29    4.4595   375.2    9.110      32.264
2015    4       25     7  35    4.4636   375.3    9.119      32.295
2015    4       25     7  41    4.4676   375.3    9.127      32.325
2015    4       25     7  47    4.4717   375.4    9.135      32.356
2015    4       25     7  54    4.4757   375.4    9.143      32.386
2015    4       25     8   0    4.4797   375.5    9.151      32.416
2015    4       25     8   6    4.4837   375.5    9.159      32.445
2015    4       25     8  12    4.4876   375.6    9.167      32.475
2015    4       25     8  18    4.4916   375.6    9.174      32.504
2015    4       25     8  24    4.4955   375.7    9.182      32.532
2015    4       25     8  30    4.4994   375.7    9.189      32.561
2015    4       25     8  36    4.5033   375.8    9.196      32.590
2015    4       25     8  42    4.5071   375.8    9.204      32.618
2015    4       25     8  49    4.5110   375.9    9.211      32.646
2015    4       25     8  55    4.5148   375.9    9.218      32.674
2015    4       25     9   1    4.5186   376.0    9.225      32.702
2015    4       25     9   7    4.5225   376.0    9.232      32.730
2015    4       25     9  13    4.5263   376.1    9.239      32.758
2015    4       25     9  19    4.5301   376.1    9.247      32.785
2015    4       25     9  25    4.5338   376.1    9.254      32.813
2015    4       25     9  31    4.5376   376.2    9.261      32.840
2015    4       25     9  37    4.5414   376.2    9.268      32.868
2015    4       25     9  44    4.5452   376.3    9.276      32.895
2015    4       25     9  50    4.5490   376.3    9.283      32.923
2015    4       25     9  56    4.5528   376.4    9.291      32.950
2015    4       25    10   2    4.5567   376.4    9.298      32.978
2015    4       25    10   8    4.5605   376.5    9.306      33.006
2015    4       25    10  14    4.5643   376.5    9.314      33.034
2015    4       25    10  20    4.5682   376.6    9.323      33.062
2015    4       25    10  26    4.5721   376.6    9.331      33.090
2015    4       25    10  32    4.5761   376.7    9.340      33.118
2015    4       25    10  39    4.5800   376.7    9.349      33.147
2015    4       25    10  45    4.5840   376.8    9.358      33.176
2015    4       25    10  51    4.5881   376.8    9.368      33.205
2015    4       25    10  57    4.5922   376.9    9.378      33.235
2015    4       25    11   3    4.5964   377.0    9.388      33.265
2015    4       25    11   9    4.6006   377.0    9.399      33.296
2015    4       25    11  15    4.6049   377.1    9.410      33.330
2015    4       25    11  21    4.6092   377.1    9.421      33.364
2015    4       25    11  27    4.6136   377.2    9.433      33.400
2015    4       25    11  34    4.6180   377.3    9.444      33.437
2015    4       25    11  40    4.6224   377.3    9.455      33.476
2015    4       25    11  46    4.6268   377.4    9.466      33.517
2015    4       25    11  52    4.6313   377.5    9.478      33.558
2015    4       25    11  58    4.6357   377.6    9.489      33.599
2015    4       25    12   4    4.6402   377.6    9.501      33.641
2015    4       25    12  10    4.6447   377.7    9.512      33.682
2015    4       25    12  16    4.6491   377.8    9.524      33.724
2015    4       25    12  22    4.6535   377.9    9.535      33.768
2015    4       25    12  29    4.6578   377.9    9.546      33.813
2015    4       25    12  35    4.6621   378.0    9.557      33.859
2015    4       25    12  41    4.6663   378.1    9.567      33.906
2015    4       25    12  47    4.6705   378.2    9.577      33.953
2015    4       25    12  53    4.6746   378.3    9.587      34.002
2015    4       25    12  59    4.6786   378.4    9.596      34.051
2015    4       25    13   5    4.6826   378.4    9.605      34.099
2015    4       25    13  11    4.6864   378.5    9.614      34.146
2015    4       25    13  17    4.6902   378.6    9.622      34.193
2015    4       25    13  24    4.6940   378.7    9.630      34.239
2015    4       25    13  30    4.6976   378.8    9.637      34.285
2015    4       25    13  36    4.7011   378.9    9.644      34.330
2015    4       25    13  42    4.7046   378.9    9.650      34.374
2015    4       25    13  48    4.7080   379.0    9.656      34.418
2015    4       25    13  54    4.7113   379.1    9.662      34.461
2015    4       25    14   0    4.7145   379.2    9.667      34.503
2015    4       25    14   6    4.7177   379.3    9.672      34.544
2015    4       25    14  12    4.7208   379.4    9.677      34.585
2015    4       25    14  19    4.7239   379.5    9.681      34.624
2015    4       25    14  25    4.7269   379.5    9.685      34.663
2015    4       25    14  31    4.7298   379.6    9.689      34.700
2015    4       25    14  37    4.7327   379.7    9.692      34.737
2015    4       25    14  43    4.7355   379.8    9.695      34.774
2015    4       25    14  49    4.7383   379.9    9.698      34.809
2015    4       25    14  55    4.7411   379.9    9.701      34.844
2015    4       25    15   1    4.7438   380.0    9.703      34.878
2015    4       25    15   7    4.7465   380.1    9.705      34.911
2015    4       25    15  14    4.7491   380.2    9.707      34.944
2015    4       25    15  20    4.7517   380.3    9.709      34.976
2015    4       25    15  26    4.7543   380.4    9.711      35.008
2015    4       25    15  32    4.7569   380.4    9.713      35.038
2015    4       25    15  38    4.7595   380.5    9.714      35.069
2015    4       25    15  44    4.7620   380.6    9.715      35.099
2015    4       25    15  50    4.7645   380.7    9.716      35.129
2015    4       25    15  56    4.7670   380.8    9.717      35.158
2015    4       25    16   2    4.7694   380.9    9.718      35.187
2015    4       25    16   9    4.7719   380.9    9.719      35.215
2015    4       25    16  15    4.7743   381.0    9.720      35.243
2015    4       25    16  21    4.7768   381.1    9.720      35.270
2015    4       25    16  27    4.7792   381.2    9.721      35.298
2015    4       25    16  33    4.7816   381.3    9.721      35.325
2015    4       25    16  39    4.7840   381.3    9.722      35.351
2015    4       25    16  45    4.7864   381.4    9.722      35.377
2015    4       25    16  51    4.7888   381.5    9.723      35.403
2015    4       25    16  58    4.7912   381.6    9.723      35.429
2015    4       25    17   4    4.7936   381.7    9.723      35.454
2015    4       25    17  10    4.7960   381.7    9.723      35.479
2015    4       25    17  16    4.7984   381.8    9.724      35.504
2015    4       25    17  22    4.8008   381.9    9.724      35.529
2015    4       25    17  28    4.8032   382.0    9.724      35.553
2015    4       25    17  34    4.8056   382.1    9.724      35.577
2015    4       25    17  40    4.8081   382.1    9.725      35.601
2015    4       25    17  46    4.8105   382.2    9.725      35.625
2015    4       25    17  53    4.8129   382.3    9.726      35.649
2015    4       25    17  59    4.8154   382.4    9.726      35.673
2015    4       25    18   5    4.8179   382.5    9.727      35.697
2015    4       25    18  11    4.8204   382.6    9.727      35.720
2015    4       25    18  17    4.8229   382.6    9.728      35.744
2015    4       25    18  23    4.8254   382.7    9.729      35.767
2015    4       25    18  29    4.8280   382.8    9.730      35.791
2015    4       25    18  35    4.8305   382.9    9.732      35.815
2015    4       25    18  41    4.8332   383.0    9.733      35.839
2015    4       25    18  48    4.8358   383.0    9.735      35.862
2015    4       25    18  54    4.8385   383.1    9.737      35.887
2015    4       25    19   0    4.8412   383.2    9.739      35.911
2015    4       25    19   6    4.8440   383.3    9.742      35.936
2015    4       25    19  12    4.8468   383.4    9.745      35.961
2015    4       25    19  18    4.8496   383.5    9.748      35.986
2015    4       25    19  24    4.8524   383.5    9.752      36.011
2015    4       25    19  30    4.8553   383.6    9.756      36.037
2015    4       25    19  36    4.8582   383.7    9.761      36.065
2015    4       25    19  43    4.8610   383.8    9.765      36.094
2015    4       25    19  49    4.8639   383.9    9.770      36.125
2015    4       25    19  55    4.8667   384.0    9.775      36.157
2015    4       25    20   1    4.8695   384.1    9.780      36.191
2015    4       25    20   7    4.8722   384.2    9.785      36.226
2015    4       25    20  13    4.8749   384.3    9.790      36.263
2015    4       25    20  19    4.8776   384.4    9.794      36.302
2015    4       25    20  25    4.8801   384.5    9.799      36.341
2015    4       25    20  31    4.8826   384.6    9.803      36.381
2015    4       25    20  38    4.8850   384.7    9.807      36.421
2015    4       25    20  44    4.8873   384.9    9.811      36.462
2015    4       25    20  50    4.8895   385.0    9.814      36.504
2015    4       25    20  56    4.8916   385.1    9.817      36.545
2015    4       25    21   2    4.8936   385.2    9.819      36.587
2015    4       25    21   8    4.8956   385.3    9.821      36.627
2015    4       25    21  14    4.8974   385.4    9.822      36.666
2015    4       25    21  20    4.8992   385.6    9.823      36.704
2015    4       25    21  26    4.9009   385.7    9.824      36.742
2015    4       25    21  33    4.9025   385.8    9.824      36.779
2015    4       25    21  39    4.9041   385.9    9.824      36.815
2015    4       25    21  45    4.9056   386.0    9.823      36.851
2015    4       25    21  51    4.9071   386.1    9.823      36.885
2015    4       25    21  57    4.9085   386.2    9.822      36.919
2015    4       25    22   3    4.9099   386.4    9.820      36.953
2015    4       25    22   9    4.9112   386.5    9.819      36.986
2015    4       25    22  15    4.9125   386.6    9.817      37.018
2015    4       25    22  21    4.9138   386.7    9.815      37.049
2015    4       25    22  28    4.9150   386.8    9.813      37.081
2015    4       25    22  34    4.9163   386.9    9.811      37.111
2015    4       25    22  40    4.9175   387.0    9.809      37.141
2015    4       25    22  46    4.9187   387.1    9.807      37.171
2015    4       25    22  52    4.9199   387.2    9.804      37.200
2015    4       25    22  58    4.9211   387.4    9.801      37.229
2015    4       25    23   4    4.9222   387.5    9.799      37.257
2015    4       25    23  10    4.9234   387.6    9.796      37.285
2015    4       25    23  16    4.9245   387.7    9.793      37.313
2015    4       25    23  23    4.9257   387.8    9.790      37.341
2015    4       25    23  29    4.9269   387.9    9.788      37.368
2015    4       25    23  35    4.9281   388.0    9.785      37.395
2015    4       25    23  41    4.9293   388.1    9.782      37.422
2015    4       25    23  47    4.9305   388.2    9.779      37.448
2015    4       25    23  53    4.9318   388.3    9.777      37.476
2015    4       25    23  59    4.9331   388.5    9.774      37.503
2015    4       26     0   5    4.9344   388.6    9.771      37.531
2015    4       26     0  11    4.9358   388.7    9.769      37.559
2015    4       26     0  18    4.9372   388.8    9.766      37.588
2015    4       26     0  24    4.9386   388.9    9.763      37.617
2015    4       26     0  30    4.9401   389.1    9.760      37.647
2015    4       26     0  36    4.9416   389.2    9.758      37.676
2015    4       26     0  42    4.9431   389.3    9.755      37.706
2015    4       26     0  48    4.9446   389.4    9.752      37.734
2015    4       26     0  54    4.9460   389.6    9.749      37.763
2015    4       26     1   0    4.9475   389.7    9.746      37.791
2015    4       26     1   6    4.9489   389.8    9.743      37.819
2015    4       26     1  13    4.9503   389.9    9.740      37.847
2015    4       26     1  19    4.9517   390.1    9.736      37.874
2015    4       26     1  25    4.9530   390.2    9.733      37.901
2015    4       26     1  31    4.9543   390.3    9.729      37.928
2015    4       26     1  37    4.9555   390.5    9.725      37.954
2015    4       26     1  43    4.9567   390.6    9.721      37.980
2015    4       26     1  49    4.9579   390.7    9.716      38.005
2015    4       26     1  55    4.9589   390.9    9.712      38.029
2015    4       26     2   1    4.9599   391.0    9.707      38.053
2015    4       26     2   8    4.9609   391.1    9.702      38.076
2015    4       26     2  14    4.9618   391.3    9.697      38.098
2015    4       26     2  20    4.9626   391.4    9.691      38.119
2015    4       26     2  26    4.9634   391.6    9.686      38.139
2015    4       26     2  32    4.9641   391.7    9.680      38.159
2015    4       26     2  38    4.9647   391.8    9.675      38.178
2015    4       26     2  44    4.9653   392.0    9.669      38.196
2015    4       26     2  50    4.9658   392.1    9.663      38.213
2015    4       26     2  56    4.9663   392.2    9.657      38.230
2015    4       26     3   3    4.9668   392.4    9.651      38.246
2015    4       26     3   9    4.9672   392.5    9.646      38.262
2015    4       26     3  15    4.9677   392.6    9.640      38.277
2015    4       26     3  21    4.9680   392.7    9.635      38.293
2015    4       26     3  27    4.9684   392.9    9.630      38.308
2015    4       26     3  33    4.9687   393.0    9.624      38.325
2015    4       26     3  39    4.9690   393.1    9.619      38.342
2015    4       26     3  45    4.9692   393.3    9.614      38.360
2015    4       26     3  51    4.9694   393.4    9.608      38.379
2015    4       26     3  58    4.9696   393.5    9.603      38.399
2015    4       26     4   4    4.9697   393.7    9.597      38.420
2015    4       26     4  10    4.9697   393.8    9.591      38.442
2015    4       26     4  16    4.9697   394.0    9.585      38.463
2015    4       26     4  22    4.9696   394.1    9.578      38.484
2015    4       26     4  28    4.9695   394.2    9.572      38.505
2015    4       26     4  34    4.9693   394.4    9.565      38.526
2015    4       26     4  40    4.9691   394.5    9.558      38.546
2015    4       26     4  47    4.9688   394.7    9.550      38.566
2015    4       26     4  53    4.9685   394.8    9.543      38.586
2015    4       26     4  59    4.9682   394.9    9.535      38.605
2015    4       26     5   5    4.9678   395.1    9.527      38.625
2015    4       26     5  11    4.9675   395.2    9.519      38.644
2015    4       26     5  17    4.9671   395.3    9.511      38.662
2015    4       26     5  23    4.9666   395.5    9.502      38.681
2015    4       26     5  29    4.9662   395.6    9.494      38.699
2015    4       26     5  35    4.9658   395.8    9.485      38.718
2015    4       26     5  42    4.9653   395.9    9.476      38.736
2015    4       26     5  48    4.9649   396.0    9.468      38.754
2015    4       26     5  54    4.9644   396.2    9.459      38.773
2015    4       26     6   0    4.9639   396.3    9.450      38.791
2015    4       26     6   6    4.9634   396.5    9.441      38.808
2015    4       26     6  12    4.9628   396.6    9.431      38.825
2015    4       26     6  18    4.9623   396.7    9.422      38.842
2015    4       26     6  24    4.9617   396.9    9.413      38.859
2015    4       26     6  30    4.9612   397.0    9.404      38.876
2015    4       26     6  37    4.9606   397.1    9.394      38.892
2015    4       26     6  43    4.9600   397.3    9.385      38.907
2015    4       26     6  49    4.9595   397.4    9.375      38.923
2015    4       26     6  55    4.9589   397.5    9.366      38.938
2015    4       26     7   1    4.9584   397.7    9.357      38.954
2015    4       26     7   7    4.9578   397.8    9.347      38.969
2015    4       26     7  13    4.9573   398.0    9.338      38.985
2015    4       26     7  19    4.9568   398.1    9.329      39.001
2015    4       26     7  25    4.9563   398.2    9.319      39.017
2015    4       26     7  32    4.9559   398.4    9.310      39.034
2015    4       26     7  38    4.9554   398.5    9.301      39.051
2015    4       26     7  44    4.9549   398.7    9.292      39.068
2015    4       26     7  50    4.9544   398.8    9.282      39.085
2015    4       26     7  56    4.9539   399.0    9.273      39.102
2015    4       26     8   2    4.9534   399.1    9.264      39.119
2015    4       26     8   8    4.9528   399.3    9.254      39.136
2015    4       26     8  14    4.9521   399.4    9.244      39.151
2015    4       26     8  20    4.9514   399.6    9.234      39.167
2015    4       26     8  27    4.9507   399.8    9.224      39.183
2015    4       26     8  33    4.9498   399.9    9.214      39.199
2015    4       26     8  39    4.9490   400.1    9.204      39.215
2015    4       26     8  45    4.9480   400.2    9.193      39.230
2015    4       26     8  51    4.9469   400.4    9.182      39.245
2015    4       26     8  57    4.9458   400.6    9.170      39.259
2015    4       26     9   3    4.9445   400.8    9.158      39.273
2015    4       26     9   9    4.9431   400.9    9.145      39.286
2015    4       26     9  15    4.9416   401.1    9.132      39.297
2015    4       26     9  22    4.9398   401.3    9.118      39.306
2015    4       26     9  28    4.9380   401.4    9.103      39.314
2015    4       26     9  34    4.9360   401.6    9.089      39.319
2015    4       26     9  40    4.9338   401.8    9.073      39.323
2015    4       26     9  46    4.9316   401.9    9.058      39.325
2015    4       26     9  52    4.9293   402.1    9.043      39.325
2015    4       26     9  58    4.9269   402.2    9.027      39.324
2015    4       26    10   4    4.9245   402.4    9.011      39.322
2015    4       26    10  10    4.9221   402.5    8.996      39.320
2015    4       26    10  17    4.9196   402.7    8.980      39.317
2015    4       26    10  23    4.9171   402.8    8.964      39.314
2015    4       26    10  29    4.9146   402.9    8.949      39.310
2015    4       26    10  35    4.9120   403.1    8.933      39.306
2015    4       26    10  41    4.9095   403.2    8.918      39.302
2015    4       26    10  47    4.9069   403.4    8.902      39.297
2015    4       26    10  53    4.9043   403.5    8.887      39.292
2015    4       26    10  59    4.9018   403.6    8.871      39.287
2015    4       26    11   5    4.8992   403.8    8.856      39.282
2015    4       26    11  12    4.8966   403.9    8.841      39.276
2015    4       26    11  18    4.8940   404.0    8.825      39.271
2015    4       26    11  24    4.8914   404.2    8.810      39.266
2015    4       26    11  30    4.8887   404.3    8.795      39.261
2015    4       26    11  36    4.8861   404.4    8.780      39.255
2015    4       26    11  42    4.8834   404.5    8.764      39.249
2015    4       26    11  48    4.8808   404.7    8.749      39.244
2015    4       26    11  54    4.8781   404.8    8.733      39.238
2015    4       26    12   0    4.8754   404.9    8.718      39.231
2015    4       26    12   7    4.8726   405.1    8.703      39.225
2015    4       26    12  13    4.8699   405.2    8.687      39.219
2015    4       26    12  19    4.8671   405.3    8.671      39.212
2015    4       26    12  25    4.8643   405.5    8.656      39.205
2015    4       26    12  31    4.8615   405.6    8.640      39.198
2015    4       26    12  37    4.8586   405.7    8.624      39.190
2015    4       26    12  43    4.8557   405.9    8.608      39.181
2015    4       26    12  49    4.8528   406.0    8.592      39.172
2015    4       26    12  55    4.8498   406.1    8.576      39.162
2015    4       26    13   2    4.8468   406.2    8.560      39.151
2015    4       26    13   8    4.8438   406.3    8.544      39.139
2015    4       26    13  14    4.8408   406.5    8.528      39.126
2015    4       26    13  20    4.8377   406.6    8.512      39.113
2015    4       26    13  26    4.8346   406.7    8.496      39.099
2015    4       26    13  32    4.8315   406.8    8.480      39.084
2015    4       26    13  38    4.8284   406.9    8.464      39.069
2015    4       26    13  44    4.8253   407.0    8.448      39.054
2015    4       26    13  50    4.8221   407.2    8.432      39.038
2015    4       26    13  57    4.8190   407.3    8.416      39.022
2015    4       26    14   3    4.8158   407.4    8.400      39.006
2015    4       26    14   9    4.8126   407.5    8.384      38.989
2015    4       26    14  15    4.8095   407.6    8.368      38.972
2015    4       26    14  21    4.8063   407.7    8.352      38.955
2015    4       26    14  27    4.8031   407.8    8.337      38.937
2015    4       26    14  33    4.7998   408.0    8.321      38.919
2015    4       26    14  39    4.7966   408.1    8.305      38.901
2015    4       26    14  46    4.7933   408.2    8.289      38.883
2015    4       26    14  52    4.7900   408.3    8.274      38.864
2015    4       26    14  58    4.7866   408.4    8.258      38.845
2015    4       26    15   4    4.7833   408.5    8.242      38.825
2015    4       26    15  10    4.7799   408.6    8.227      38.806
2015    4       26    15  16    4.7765   408.7    8.211      38.786
2015    4       26    15  22    4.7730   408.8    8.196      38.766
2015    4       26    15  28    4.7695   408.9    8.180      38.746
2015    4       26    15  34    4.7660   409.0    8.165      38.725
2015    4       26    15  41    4.7624   409.1    8.150      38.705
2015    4       26    15  47    4.7588   409.3    8.134      38.685
2015    4       26    15  53    4.7553   409.4    8.119      38.666
2015    4       26    15  59    4.7516   409.5    8.103      38.646
2015    4       26    16   5    4.7480   409.6    8.087      38.626
2015    4       26    16  11    4.7443   409.7    8.072      38.606
2015    4       26    16  17    4.7405   409.8    8.056      38.586
2015    4       26    16  23    4.7367   409.9    8.040      38.566
2015    4       26    16  29    4.7329   410.0    8.023      38.545
2015    4       26    16  36    4.7289   410.1    8.007      38.523
2015    4       26    16  42    4.7249   410.2    7.990      38.499
2015    4       26    16  48    4.7208   410.3    7.973      38.474
2015    4       26    16  54    4.7166   410.4    7.956      38.448
2015    4       26    17   0    4.7125   410.5    7.939      38.422
2015    4       26    17   6    4.7083   410.6    7.922      38.394
2015    4       26    17  12    4.7041   410.7    7.905      38.365
2015    4       26    17  18    4.6999   410.7    7.888      38.336
2015    4       26    17  24    4.6957   410.8    7.872      38.307
2015    4       26    17  31    4.6916   410.9    7.856      38.279
2015    4       26    17  37    4.6875   411.0    7.840      38.250
2015    4       26    17  43    4.6834   411.0    7.824      38.221
2015    4       26    17  49    4.6794   411.1    7.809      38.192
2015    4       26    17  55    4.6753   411.2    7.793      38.163
2015    4       26    18   1    4.6714   411.2    7.778      38.133
2015    4       26    18   7    4.6674   411.3    7.763      38.103
2015    4       26    18  13    4.6634   411.4    7.749      38.073
2015    4       26    18  19    4.6595   411.4    7.734      38.043
2015    4       26    18  26    4.6556   411.5    7.720      38.013
2015    4       26    18  32    4.6517   411.6    7.706      37.982
2015    4       26    18  38    4.6479   411.6    7.692      37.951
2015    4       26    18  44    4.6440   411.7    7.678      37.920
2015    4       26    18  50    4.6401   411.8    7.665      37.888
2015    4       26    18  56    4.6363   411.8    7.651      37.857
2015    4       26    19   2    4.6325   411.9    7.638      37.825
2015    4       26    19   8    4.6286   412.0    7.625      37.793
2015    4       26    19  14    4.6247   412.0    7.612      37.761
2015    4       26    19  21    4.6209   412.1    7.599      37.728
2015    4       26    19  27    4.6170   412.2    7.586      37.696
2015    4       26    19  33    4.6132   412.2    7.573      37.664
2015    4       26    19  39    4.6093   412.3    7.560      37.631
2015    4       26    19  45    4.6054   412.4    7.547      37.598
2015    4       26    19  51    4.6014   412.4    7.535      37.565
2015    4       26    19  57    4.5975   412.5    7.522      37.531
2015    4       26    20   3    4.5935   412.6    7.509      37.497
2015    4       26    20   9    4.5895   412.6    7.497      37.461
2015    4       26    20  16    4.5855   412.6    7.485      37.425
2015    4       26    20  22    4.5815   412.7    7.473      37.388
2015    4       26    20  28    4.5774   412.7    7.461      37.350
2015    4       26    20  34    4.5734   412.8    7.449      37.313
2015    4       26    20  40    4.5693   412.8    7.437      37.274
2015    4       26    20  46    4.5653   412.9    7.426      37.236
2015    4       26    20  52    4.5612   412.9    7.415      37.197
2015    4       26    20  58    4.5572   412.9    7.403      37.159
2015    4       26    21   4    4.5532   413.0    7.392      37.121
2015    4       26    21  11    4.5492   413.0    7.382      37.083
2015    4       26    21  17    4.5452   413.0    7.371      37.045
2015    4       26    21  23    4.5412   413.1    7.360      37.008
2015    4       26    21  29    4.5373   413.1    7.350      36.971
2015    4       26    21  35    4.5333   413.1    7.339      36.934
2015    4       26    21  41    4.5294   413.1    7.329      36.897
2015    4       26    21  47    4.5255   413.2    7.319      36.861
2015    4       26    21  53    4.5216   413.2    7.309      36.824
2015    4       26    21  59    4.5178   413.2    7.299      36.788
2015    4       26    22   6    4.5139   413.2    7.289      36.751
2015    4       26    22  12    4.5101   413.3    7.279      36.715
2015    4       26    22  18    4.5063   413.3    7.270      36.678
2015    4       26    22  24    4.5025   413.3    7.260      36.641
2015    4       26    22  30    4.4987   413.3    7.251      36.604
2015    4       26    22  36    4.4950   413.3    7.241      36.567
2015    4       26    22  42    4.4913   413.3    7.232      36.530
2015    4       26    22  48    4.4876   413.3    7.223      36.493
2015    4       26    22  54    4.4839   413.3    7.213      36.456
2015    4       26    23   1    4.4802   413.4    7.204      36.419
2015    4       26    23   7    4.4766   413.4    7.195      36.382
2015    4       26    23  13    4.4729   413.4    7.186      36.345
2015    4       26    23  19    4.4693   413.4    7.178      36.308
2015    4       26    23  25    4.4657   413.4    7.169      36.271
2015    4       26    23  31    4.4621   413.4    7.160      36.234
2015    4       26    23  37    4.4585   413.4    7.152      36.198
2015    4       26    23  43    4.4549   413.4    7.143      36.161
2015    4       26    23  49    4.4514   413.4    7.135      36.125
2015    4       26    23  56    4.4479   413.4    7.127      36.088
2015    4       27     0   2    4.4443   413.4    7.118      36.052
2015    4       27     0   8    4.4409   413.4    7.110      36.016
2015    4       27     0  14    4.4374   413.4    7.102      35.980
2015    4       27     0  20    4.4339   413.4    7.094      35.944
2015    4       27     0  26    4.4305   413.4    7.086      35.909
2015    4       27     0  32    4.4271   413.4    7.078      35.874
2015    4       27     0  38    4.4237   413.4    7.070      35.839
2015    4       27     0  44    4.4204   413.4    7.062      35.804
2015    4       27     0  51    4.4171   413.3    7.055      35.769
2015    4       27     0  57    4.4138   413.3    7.047      35.734
2015    4       27     1   3    4.4105   413.3    7.040      35.698
2015    4       27     1   9    4.4073   413.3    7.033      35.663
2015    4       27     1  15    4.4041   413.3    7.025      35.627
2015    4       27     1  21    4.4009   413.3    7.018      35.592
2015    4       27     1  27    4.3977   413.3    7.012      35.555
2015    4       27     1  33    4.3946   413.3    7.005      35.519
2015    4       27     1  40    4.3915   413.3    6.998      35.482
2015    4       27     1  46    4.3884   413.3    6.992      35.446
2015    4       27     1  52    4.3853   413.2    6.985      35.409
2015    4       27     1  58    4.3823   413.2    6.979      35.372
2015    4       27     2   4    4.3792   413.2    6.973      35.335
2015    4       27     2  10    4.3762   413.2    6.967      35.297
2015    4       27     2  16    4.3732   413.2    6.961      35.260
2015    4       27     2  22    4.3703   413.2    6.955      35.223
2015    4       27     2  28    4.3673   413.1    6.949      35.186
2015    4       27     2  35    4.3644   413.1    6.944      35.149
2015    4       27     2  41    4.3615   413.1    6.939      35.111
2015    4       27     2  47    4.3586   413.1    6.933      35.075
2015    4       27     2  53    4.3557   413.1    6.928      35.038
2015    4       27     2  59    4.3529   413.1    6.923      35.001
2015    4       27     3   5    4.3501   413.0    6.918      34.965
2015    4       27     3  11    4.3472   413.0    6.914      34.929
2015    4       27     3  17    4.3445   413.0    6.909      34.893
2015    4       27     3  23    4.3417   413.0    6.905      34.858
2015    4       27     3  30    4.3389   412.9    6.901      34.822
2015    4       27     3  36    4.3362   412.9    6.896      34.788
2015    4       27     3  42    4.3335   412.9    6.892      34.754
2015    4       27     3  48    4.3308   412.9    6.889      34.720
2015    4       27     3  54    4.3281   412.8    6.885      34.687
2015    4       27     4   0    4.3255   412.8    6.881      34.654
2015    4       27     4   6    4.3228   412.8    6.878      34.622
2015    4       27     4  12    4.3202   412.8    6.875      34.590
2015    4       27     4  18    4.3177   412.7    6.871      34.559
2015    4       27     4  25    4.3151   412.7    6.868      34.528
2015    4       27     4  31    4.3126   412.7    6.865      34.498
2015    4       27     4  37    4.3101   412.6    6.863      34.468
2015    4       27     4  43    4.3076   412.6    6.860      34.439
2015    4       27     4  49    4.3052   412.6    6.857      34.410
2015    4       27     4  55    4.3028   412.5    6.855      34.381
2015    4       27     5   1    4.3005   412.5    6.852      34.353
2015    4       27     5   7    4.2981   412.5    6.850      34.325
2015    4       27     5  13    4.2958   412.4    6.848      34.297
2015    4       27     5  20    4.2936   412.4    6.846      34.269
2015    4       27     5  26    4.2913   412.3    6.844      34.241
2015    4       27     5  32    4.2891   412.3    6.842      34.213
2015    4       27     5  38    4.2869   412.3    6.840      34.185
2015    4       27     5  44    4.2848   412.2    6.838      34.157
2015    4       27     5  50    4.2827   412.2    6.836      34.130
2015    4       27     5  56    4.2806   412.1    6.834      34.102
2015    4       27     6   2    4.2786   412.1    6.833      34.074
2015    4       27     6   8    4.2765   412.1    6.831      34.046
2015    4       27     6  15    4.2745   412.0    6.829      34.018
2015    4       27     6  21    4.2726   412.0    6.828      33.990
2015    4       27     6  27    4.2706   411.9    6.826      33.962
2015    4       27     6  33    4.2687   411.9    6.825      33.934
2015    4       27     6  39    4.2668   411.8    6.824      33.906
2015    4       27     6  45    4.2649   411.8    6.823      33.878
2015    4       27     6  51    4.2630   411.8    6.821      33.850
2015    4       27     6  57    4.2611   411.7    6.820      33.823
2015    4       27     7   3    4.2593   411.7    6.819      33.795
2015    4       27     7  10    4.2574   411.6    6.818      33.768
2015    4       27     7  16    4.2556   411.6    6.817      33.741
2015    4       27     7  22    4.2538   411.5    6.816      33.714
2015    4       27     7  28    4.2521   411.5    6.815      33.687
2015    4       27     7  34    4.2503   411.4    6.814      33.660
2015    4       27     7  40    4.2485   411.4    6.814      33.633
2015    4       27     7  46    4.2468   411.3    6.813      33.606
2015    4       27     7  52    4.2451   411.3    6.812      33.579
2015    4       27     7  58    4.2434   411.2    6.811      33.552
2015    4       27     8   5    4.2417   411.2    6.810      33.525
2015    4       27     8  11    4.2400   411.2    6.809      33.499
2015    4       27     8  17    4.2383   411.1    6.808      33.472
2015    4       27     8  23    4.2367   411.1    6.807      33.446
2015    4       27     8  29    4.2351   411.0    6.806      33.419
2015    4       27     8  35    4.2335   411.0    6.806      33.393
2015    4       27     8  41    4.2319   410.9    6.805      33.367
2015    4       27     8  47    4.2303   410.9    6.804      33.341
2015    4       27     8  53    4.2288   410.8    6.803      33.315
2015    4       27     9   0    4.2273   410.8    6.803      33.290
2015    4       27     9   6    4.2258   410.7    6.802      33.264
2015    4       27     9  12    4.2243   410.7    6.801      33.239
2015    4       27     9  18    4.2229   410.6    6.800      33.214
2015    4       27     9  24    4.2214   410.6    6.800      33.189
2015    4       27     9  30    4.2200   410.5    6.799      33.164
2015    4       27     9  36    4.2186   410.5    6.798      33.139
2015    4       27     9  42    4.2172   410.4    6.797      33.115
2015    4       27     9  48    4.2159   410.4    6.797      33.090
2015    4       27     9  55    4.2146   410.3    6.796      33.066
2015    4       27    10   1    4.2133   410.3    6.795      33.042
2015    4       27    10   7    4.2120   410.2    6.795      33.017
2015    4       27    10  13    4.2107   410.2    6.794      32.993
2015    4       27    10  19    4.2095   410.1    6.793      32.969
2015    4       27    10  25    4.2083   410.1    6.792      32.946
2015    4       27    10  31    4.2071   410.0    6.792      32.922
2015    4       27    10  37    4.2059   410.0    6.791      32.899
2015    4       27    10  43    4.2047   409.9    6.790      32.876
2015    4       27    10  50    4.2036   409.8    6.789      32.852
2015    4       27    10  56    4.2025   409.8    6.789      32.830
2015    4       27    11   2    4.2013   409.7    6.788      32.807
2015    4       27    11   8    4.2003   409.7    6.787      32.784
2015    4       27    11  14    4.1992   409.6    6.786      32.761
2015    4       27    11  20    4.1981   409.6    6.785      32.738
2015    4       27    11  26    4.1971   409.5    6.785      32.716
2015    4       27    11  32    4.1961   409.5    6.784      32.693
2015    4       27    11  38    4.1951   409.4    6.783      32.670
2015    4       27    11  45    4.1941   409.3    6.782      32.648
2015    4       27    11  51    4.1931   409.3    6.782      32.625
2015    4       27    11  57    4.1921   409.2    6.781      32.603
2015    4       27    12   3    4.1912   409.2    6.780      32.581
2015    4       27    12   9    4.1903   409.1    6.780      32.558
2015    4       27    12  15    4.1893   409.1    6.779      32.536
2015    4       27    12  21    4.1884   409.0    6.779      32.514
2015    4       27    12  27    4.1875   409.0    6.778      32.492
2015    4       27    12  33    4.1867   408.9    6.778      32.470
2015    4       27    12  40    4.1858   408.8    6.777      32.448
2015    4       27    12  46    4.1849   408.8    6.777      32.426
2015    4       27    12  52    4.1841   408.7    6.776      32.404
2015    4       27    12  58    4.1833   408.7    6.776      32.383
2015    4       27    13   4    4.1825   408.6    6.776      32.361
2015    4       27    13  10    4.1817   408.6    6.776      32.340
2015    4       27    13  16    4.1809   408.5    6.775      32.319
2015    4       27    13  22    4.1801   408.4    6.775      32.297
2015    4       27    13  29    4.1794   408.4    6.775      32.276
2015    4       27    13  35    4.1786   408.3    6.775      32.255
2015    4       27    13  41    4.1779   408.3    6.775      32.234
2015    4       27    13  47    4.1772   408.2    6.775      32.214
2015    4       27    13  53    4.1765   408.1    6.776      32.193
2015    4       27    13  59    4.1758   408.1    6.776      32.173
2015    4       27    14   5    4.1752   408.0    6.776      32.152
2015    4       27    14  11    4.1745   408.0    6.777      32.132
2015    4       27    14  17    4.1739   407.9    6.777      32.113
2015    4       27    14  24    4.1734   407.8    6.778      32.093
2015    4       27    14  30    4.1728   407.8    6.779      32.074
2015    4       27    14  36    4.1723   407.7    6.779      32.055
2015    4       27    14  42    4.1718   407.6    6.780      32.037
2015    4       27    14  48    4.1713   407.6    6.781      32.018
2015    4       27    14  54    4.1708   407.5    6.782      32.000
2015    4       27    15   0    4.1704   407.5    6.783      31.982
2015    4       27    15   6    4.1699   407.4    6.784      31.964
2015    4       27    15  12    4.1695   407.3    6.785      31.946
2015    4       27    15  19    4.1691   407.3    6.787      31.928
2015    4       27    15  25    4.1687   407.2    6.788      31.910
2015    4       27    15  31    4.1684   407.2    6.789      31.893
2015    4       27    15  37    4.1680   407.1    6.790      31.876
2015    4       27    15  43    4.1677   407.1    6.792      31.858
2015    4       27    15  49    4.1674   407.0    6.793      31.841
2015    4       27    15  55    4.1671   406.9    6.795      31.825
2015    4       27    16   1    4.1669   406.9    6.796      31.808
2015    4       27    16   7    4.1666   406.8    6.798      31.791
2015    4       27    16  14    4.1664   406.8    6.800      31.775
2015    4       27    16  20    4.1662   406.7    6.802      31.759
2015    4       27    16  26    4.1660   406.6    6.803      31.743
2015    4       27    16  32    4.1659   406.6    6.805      31.727
2015    4       27    16  38    4.1657   406.5    6.807      31.711
2015    4       27    16  44    4.1656   406.5    6.809      31.695
2015    4       27    16  50    4.1654   406.4    6.811      31.680
2015    4       27    16  56    4.1654   406.3    6.813      31.664
2015    4       27    17   2    4.1653   406.3    6.815      31.649
2015    4       27    17   9    4.1652   406.2    6.817      31.634
2015    4       27    17  15    4.1651   406.2    6.820      31.619
2015    4       27    17  21    4.1651   406.1    6.822      31.604
2015    4       27    17  27    4.1650   406.0    6.824      31.588
2015    4       27    17  33    4.1650   406.0    6.826      31.574
2015    4       27    17  39    4.1650   405.9    6.828      31.559
2015    4       27    17  45    4.1650   405.9    6.830      31.544
2015    4       27    17  51    4.1650   405.8    6.833      31.530
2015    4       27    17  57    4.1651   405.7    6.835      31.516
2015    4       27    18   4    4.1651   405.7    6.837      31.502
2015    4       27    18  10    4.1652   405.6    6.839      31.488
2015    4       27    18  16    4.1653   405.5    6.841      31.474
2015    4       27    18  22    4.1654   405.5    6.843      31.461
2015    4       27    18  28    4.1655   405.4    6.845      31.447
2015    4       27    18  34    4.1656   405.4    6.847      31.434
2015    4       27    18  40    4.1658   405.3    6.849      31.420
2015    4       27    18  46    4.1659   405.2    6.851      31.407
2015    4       27    18  52    4.1661   405.2    6.853      31.393
2015    4       27    18  59    4.1663   405.1    6.855      31.380
2015    4       27    19   5    4.1665   405.0    6.857      31.366
2015    4       27    19  11    4.1668   405.0    6.859      31.353
2015    4       27    19  17    4.1670   404.9    6.861      31.340
2015    4       27    19  23    4.1673   404.8    6.863      31.326
2015    4       27    19  29    4.1676   404.8    6.865      31.313
2015    4       27    19  35    4.1679   404.7    6.867      31.300
2015    4       27    19  41    4.1682   404.7    6.869      31.288
2015    4       27    19  47    4.1686   404.6    6.871      31.275
2015    4       27    19  54    4.1689   404.5    6.873      31.262
2015    4       27    20   0    4.1693   404.5    6.875      31.250
2015    4       27    20   6    4.1697   404.4    6.877      31.237
2015    4       27    20  12    4.1701   404.3    6.879      31.225
2015    4       27    20  18    4.1706   404.3    6.881      31.213
2015    4       27    20  24    4.1711   404.2    6.884      31.201
2015    4       27    20  30    4.1716   404.1    6.886      31.189
2015    4       27    20  36    4.1721   404.1    6.888      31.178
2015    4       27    20  42    4.1726   404.0    6.890      31.166
2015    4       27    20  49    4.1731   403.9    6.892      31.156
2015    4       27    20  55    4.1737   403.9    6.895      31.145
2015    4       27    21   1    4.1743   403.8    6.897      31.135
2015    4       27    21   7    4.1749   403.7    6.899      31.125
2015    4       27    21  13    4.1755   403.7    6.902      31.115
2015    4       27    21  19    4.1761   403.6    6.904      31.105
2015    4       27    21  25    4.1768   403.6    6.907      31.096
2015    4       27    21  31    4.1775   403.5    6.909      31.087
2015    4       27    21  37    4.1781   403.4    6.912      31.078
2015    4       27    21  44    4.1789   403.4    6.915      31.069
2015    4       27    21  50    4.1796   403.3    6.917      31.060
2015    4       27    21  56    4.1804   403.2    6.920      31.052
2015    4       27    22   2    4.1812   403.2    6.923      31.044
2015    4       27    22   8    4.1820   403.1    6.926      31.036
2015    4       27    22  14    4.1829   403.1    6.930      31.028
2015    4       27    22  20    4.1838   403.0    6.933      31.021
2015    4       27    22  26    4.1847   402.9    6.936      31.013
2015    4       27    22  32    4.1856   402.9    6.940      31.006
2015    4       27    22  39    4.1866   402.8    6.944      31.000
2015    4       27    22  45    4.1876   402.8    6.947      30.993
2015    4       27    22  51    4.1886   402.7    6.951      30.987
2015    4       27    22  57    4.1897   402.6    6.955      30.980
2015    4       27    23   3    4.1908   402.6    6.959      30.974
2015    4       27    23   9    4.1919   402.5    6.963      30.969
2015    4       27    23  15    4.1930   402.5    6.967      30.963
2015    4       27    23  21    4.1941   402.4    6.972      30.958
2015    4       27    23  27    4.1953   402.3    6.976      30.953
2015    4       27    23  34    4.1965   402.3    6.981      30.948
2015    4       27    23  40    4.1978   402.2    6.985      30.943
2015    4       27    23  46    4.1990   402.2    6.990      30.938
2015    4       27    23  52    4.2003   402.1    6.994      30.934
2015    4       27    23  58    4.2016   402.1    6.999      30.929
2015    4       28     0   4    4.2029   402.0    7.004      30.925
2015    4       28     0  10    4.2042   402.0    7.009      30.921
2015    4       28     0  16    4.2056   401.9    7.014      30.917
2015    4       28     0  22    4.2069   401.8    7.019      30.913
2015    4       28     0  29    4.2083   401.8    7.024      30.909
2015    4       28     0  35    4.2098   401.7    7.029      30.905
2015    4       28     0  41    4.2112   401.7    7.034      30.901
2015    4       28     0  47    4.2127   401.6    7.040      30.898
2015    4       28     0  53    4.2142   401.6    7.045      30.894
2015    4       28     0  59    4.2157   401.5    7.050      30.891
2015    4       28     1   5    4.2172   401.5    7.056      30.887
2015    4       28     1  11    4.2188   401.4    7.061      30.884
2015    4       28     1  18    4.2203   401.3    7.067      30.881
2015    4       28     1  24    4.2220   401.3    7.072      30.879
2015    4       28     1  30    4.2236   401.2    7.078      30.876
2015    4       28     1  36    4.2253   401.2    7.084      30.874
2015    4       28     1  42    4.2270   401.1    7.090      30.872
2015    4       28     1  48    4.2288   401.1    7.096      30.870
2015    4       28     1  54    4.2306   401.0    7.102      30.868
2015    4       28     2   0    4.2324   401.0    7.108      30.866
2015    4       28     2   6    4.2343   400.9    7.114      30.865
2015    4       28     2  13    4.2362   400.9    7.121      30.865
2015    4       28     2  19    4.2382   400.8    7.127      30.865
2015    4       28     2  25    4.2402   400.8    7.133      30.865
2015    4       28     2  31    4.2423   400.7    7.140      30.866
2015    4       28     2  37    4.2443   400.7    7.147      30.867
2015    4       28     2  43    4.2465   400.6    7.153      30.869
2015    4       28     2  49    4.2486   400.6    7.160      30.872
2015    4       28     2  55    4.2507   400.6    7.167      30.876
2015    4       28     3   1    4.2529   400.5    7.173      30.880
2015    4       28     3   8    4.2551   400.5    7.180      30.885
2015    4       28     3  14    4.2572   400.4    7.186      30.891
2015    4       28     3  20    4.2594   400.4    7.193      30.897
2015    4       28     3  26    4.2616   400.4    7.199      30.904
2015    4       28     3  32    4.2637   400.3    7.205      30.911
2015    4       28     3  38    4.2660   400.3    7.211      30.918
2015    4       28     3  44    4.2681   400.3    7.217      30.925
2015    4       28     3  50    4.2703   400.2    7.223      30.932
2015    4       28     3  56    4.2725   400.2    7.229      30.940
2015    4       28     4   3    4.2747   400.2    7.235      30.947
2015    4       28     4   9    4.2769   400.1    7.241      30.955
2015    4       28     4  15    4.2792   400.1    7.247      30.962
2015    4       28     4  21    4.2814   400.1    7.253      30.970
2015    4       28     4  27    4.2836   400.0    7.258      30.978
2015    4       28     4  33    4.2859   400.0    7.264      30.985
2015    4       28     4  39    4.2882   400.0    7.269      30.993
2015    4       28     4  45    4.2904   400.0    7.275      31.001
2015    4       28     4  51    4.2927   399.9    7.280      31.009
2015    4       28     4  58    4.2950   399.9    7.286      31.017
2015    4       28     5   4    4.2973   399.9    7.292      31.025
2015    4       28     5  10    4.2997   399.8    7.297      31.033
2015    4       28     5  16    4.3020   399.8    7.303      31.041
2015    4       28     5  22    4.3044   399.8    7.308      31.049
2015    4       28     5  28    4.3067   399.8    7.314      31.056
2015    4       28     5  34    4.3091   399.7    7.319      31.064
2015    4       28     5  40    4.3115   399.7    7.325      31.072
2015    4       28     5  46    4.3139   399.7    7.330      31.080
2015    4       28     5  53    4.3163   399.7    7.336      31.088
2015    4       28     5  59    4.3188   399.7    7.341      31.096
2015    4       28     6   5    4.3212   399.6    7.347      31.105
2015    4       28     6  11    4.3237   399.6    7.352      31.113
2015    4       28     6  17    4.3262   399.6    7.358      31.121
2015    4       28     6  23    4.3287   399.6    7.363      31.129
2015    4       28     6  29    4.3312   399.5    7.369      31.137
2015    4       28     6  35    4.3337   399.5    7.374      31.146
2015    4       28     6  41    4.3363   399.5    7.380      31.154
2015    4       28     6  48    4.3388   399.5    7.386      31.163
2015    4       28     6  54    4.3414   399.5    7.391      31.172
2015    4       28     7   0    4.3440   399.4    7.397      31.181
2015    4       28     7   6    4.3466   399.4    7.403      31.190
2015    4       28     7  12    4.3493   399.4    7.408      31.199
2015    4       28     7  18    4.3519   399.4    7.414      31.209
2015    4       28     7  24    4.3546   399.4    7.420      31.218
2015    4       28     7  30    4.3573   399.4    7.426      31.228
2015    4       28     7  36    4.3600   399.3    7.432      31.238
2015    4       28     7  43    4.3627   399.3    7.438      31.248
2015    4       28     7  49    4.3655   399.3    7.444      31.259
2015    4       28     7  55    4.3682   399.3    7.450      31.270
2015    4       28     8   1    4.3710   399.3    7.456      31.280
2015    4       28     8   7    4.3739   399.3    7.462      31.292
2015    4       28     8  13    4.3767   399.3    7.469      31.303
2015    4       28     8  19    4.3796   399.2    7.475      31.315
2015    4       28     8  25    4.3825   399.2    7.482      31.328
2015    4       28     8  31    4.3854   399.2    7.488      31.340
2015    4       28     8  38    4.3884   399.2    7.495      31.353
2015    4       28     8  44    4.3914   399.2    7.502      31.367
2015    4       28     8  50    4.3944   399.2    7.509      31.381
2015    4       28     8  56    4.3974   399.2    7.516      31.396
2015    4       28     9   2    4.4004   399.2    7.522      31.412
2015    4       28     9   8    4.4035   399.2    7.529      31.428
2015    4       28     9  14    4.4066   399.2    7.536      31.445
2015    4       28     9  20    4.4096   399.2    7.543      31.462
2015    4       28     9  26    4.4127   399.2    7.550      31.480
2015    4       28     9  33    4.4158   399.2    7.556      31.498
2015    4       28     9  39    4.4190   399.2    7.563      31.517
2015    4       28     9  45    4.4221   399.2    7.570      31.535
2015    4       28     9  51    4.4252   399.2    7.577      31.554
2015    4       28     9  57    4.4283   399.2    7.583      31.573
2015    4       28    10   3    4.4315   399.2    7.590      31.592
2015    4       28    10   9    4.4346   399.3    7.597      31.611
2015    4       28    10  15    4.4377   399.3    7.603      31.632
2015    4       28    10  21    4.4408   399.3    7.609      31.652
2015    4       28    10  28    4.4438   399.3    7.616      31.674
2015    4       28    10  34    4.4469   399.3    7.622      31.695
2015    4       28    10  40    4.4499   399.3    7.628      31.717
2015    4       28    10  46    4.4529   399.3    7.634      31.739
2015    4       28    10  52    4.4559   399.4    7.639      31.762
2015    4       28    10  58    4.4589   399.4    7.645      31.784
2015    4       28    11   4    4.4618   399.4    7.650      31.806
2015    4       28    11  10    4.4648   399.4    7.655      31.828
2015    4       28    11  16    4.4677   399.4    7.660      31.851
2015    4       28    11  23    4.4707   399.4    7.665      31.872
2015    4       28    11  29    4.4736   399.5    7.670      31.894
2015    4       28    11  35    4.4765   399.5    7.675      31.916
2015    4       28    11  41    4.4794   399.5    7.680      31.938
2015    4       28    11  47    4.4823   399.5    7.685      31.959
2015    4       28    11  53    4.4852   399.5    7.689      31.981
2015    4       28    11  59    4.4882   399.5    7.694      32.002
2015    4       28    12   5    4.4911   399.6    7.698      32.024
2015    4       28    12  11    4.4940   399.6    7.703      32.045
2015    4       28    12  18    4.4969   399.6    7.707      32.066
2015    4       28    12  24    4.4998   399.6    7.712      32.088
2015    4       28    12  30    4.5028   399.6    7.716      32.109
2015    4       28    12  36    4.5057   399.7    7.720      32.130
2015    4       28    12  42    4.5086   399.7    7.724      32.151
2015    4       28    12  48    4.5115   399.7    7.728      32.172
2015    4       28    12  54    4.5144   399.7    7.732      32.192
2015    4       28    13   0    4.5174   399.7    7.736      32.213
2015    4       28    13   6    4.5203   399.8    7.740      32.233
2015    4       28    13  13    4.5232   399.8    7.744      32.252
2015    4       28    13  19    4.5261   399.8    7.747      32.272
2015    4       28    13  25    4.5290   399.8    7.751      32.291
2015    4       28    13  31    4.5319   399.8    7.755      32.311
2015    4       28    13  37    4.5348   399.9    7.758      32.330
2015    4       28    13  43    4.5377   399.9    7.762      32.349
2015    4       28    13  49    4.5406   399.9    7.765      32.369
2015    4       28    13  55    4.5435   399.9    7.769      32.388
2015    4       28    14   1    4.5464   400.0    7.772      32.407
2015    4       28    14   8    4.5493   400.0    7.776      32.427
2015    4       28    14  14    4.5522   400.0    7.779      32.447
2015    4       28    14  20    4.5550   400.0    7.782      32.466
2015    4       28    14  26    4.5579   400.1    7.785      32.486
2015    4       28    14  32    4.5608   400.1    7.788      32.506
2015    4       28    14  38    4.5636   400.1    7.792      32.526
2015    4       28    14  44    4.5665   400.2    7.795      32.545
2015    4       28    14  50    4.5694   400.2    7.798      32.566
2015    4       28    14  57    4.5722   400.2    7.801      32.586
2015    4       28    15   3    4.5751   400.3    7.804      32.606
2015    4       28    15   9    4.5779   400.3    7.807      32.626
2015    4       28    15  15    4.5808   400.3    7.810      32.646
2015    4       28    15  21    4.5836   400.4    7.814      32.667
2015    4       28    15  27    4.5865   400.4    7.817      32.687
2015    4       28    15  33    4.5894   400.4    7.820      32.708
2015    4       28    15  39    4.5922   400.5    7.823      32.728
2015    4       28    15  45    4.5951   400.5    7.827      32.750
2015    4       28    15  52    4.5980   400.5    7.830      32.771
2015    4       28    15  58    4.6008   400.6    7.833      32.792
2015    4       28    16   4    4.6037   400.6    7.836      32.815
2015    4       28    16  10    4.6066   400.7    7.840      32.837
2015    4       28    16  16    4.6094   400.7    7.843      32.861
2015    4       28    16  22    4.6122   400.7    7.846      32.884
2015    4       28    16  28    4.6151   400.8    7.849      32.908
2015    4       28    16  34    4.6179   400.8    7.852      32.933
2015    4       28    16  40    4.6207   400.9    7.854      32.958
2015    4       28    16  47    4.6234   400.9    7.857      32.983
2015    4       28    16  53    4.6262   401.0    7.860      33.007
2015    4       28    16  59    4.6289   401.0    7.862      33.032
2015    4       28    17   5    4.6316   401.0    7.865      33.057
2015    4       28    17  11    4.6343   401.1    7.867      33.081
2015    4       28    17  17    4.6370   401.1    7.870      33.106
2015    4       28    17  23    4.6397   401.2    7.872      33.131
2015    4       28    17  29    4.6424   401.2    7.875      33.155
2015    4       28    17  35    4.6451   401.3    7.877      33.180
2015    4       28    17  42    4.6477   401.3    7.880      33.205
2015    4       28    17  48    4.6504   401.4    7.882      33.229
2015    4       28    17  54    4.6531   401.4    7.885      33.254
2015    4       28    18   0    4.6558   401.5    7.887      33.279
2015    4       28    18   6    4.6585   401.5    7.890      33.304
2015    4       28    18  12    4.6612   401.5    7.893      33.329
2015    4       28    18  18    4.6639   401.6    7.895      33.354
2015    4       28    18  24    4.6666   401.6    7.898      33.380
2015    4       28    18  30    4.6694   401.7    7.901      33.406
2015    4       28    18  37    4.6721   401.7    7.904      33.433
2015    4       28    18  43    4.6749   401.8    7.907      33.460
2015    4       28    18  49    4.6777   401.8    7.910      33.487
2015    4       28    18  55    4.6805   401.9    7.914      33.515
2015    4       28    19   1    4.6832   401.9    7.917      33.543
2015    4       28    19   7    4.6860   402.0    7.920      33.572
2015    4       28    19  13    4.6887   402.1    7.923      33.602
2015    4       28    19  19    4.6915   402.1    7.926      33.632
2015    4       28    19  25    4.6942   402.2    7.929      33.662
2015    4       28    19  32    4.6969   402.2    7.932      33.693
2015    4       28    19  38    4.6996   402.3    7.935      33.724
2015    4       28    19  44    4.7022   402.3    7.938      33.755
2015    4       28    19  50    4.7049   402.4    7.940      33.786
2015    4       28    19  56    4.7075   402.5    7.942      33.816
2015    4       28    20   2    4.7100   402.5    7.945      33.846
2015    4       28    20   8    4.7126   402.6    7.947      33.877
2015    4       28    20  14    4.7151   402.6    7.948      33.906
2015    4       28    20  20    4.7176   402.7    7.950      33.935
2015    4       28    20  27    4.7201   402.8    7.951      33.964
2015    4       28    20  33    4.7225   402.8    7.953      33.992
2015    4       28    20  39    4.7249   402.9    7.954      34.020
2015    4       28    20  45    4.7273   402.9    7.955      34.047
2015    4       28    20  51    4.7297   403.0    7.956      34.074
2015    4       28    20  57    4.7320   403.1    7.957      34.100
2015    4       28    21   3    4.7344   403.1    7.958      34.126
2015    4       28    21   9    4.7367   403.2    7.958      34.152
2015    4       28    21  15    4.7390   403.2    7.959      34.178
2015    4       28    21  22    4.7413   403.3    7.959      34.203
2015    4       28    21  28    4.7435   403.4    7.959      34.228
2015    4       28    21  34    4.7458   403.4    7.960      34.253
2015    4       28    21  40    4.7480   403.5    7.960      34.277
2015    4       28    21  46    4.7502   403.6    7.960      34.302
2015    4       28    21  52    4.7524   403.6    7.959      34.326
2015    4       28    21  58    4.7546   403.7    7.959      34.350
2015    4       28    22   4    4.7568   403.8    7.959      34.374
2015    4       28    22  10    4.7589   403.8    7.958      34.398
2015    4       28    22  17    4.7610   403.9    7.958      34.422
2015    4       28    22  23    4.7631   404.0    7.957      34.445
2015    4       28    22  29    4.7652   404.0    7.957      34.468
2015    4       28    22  35    4.7673   404.1    7.956      34.491
2015    4       28    22  41    4.7694   404.2    7.955      34.514
2015    4       28    22  47    4.7714   404.3    7.954      34.536
2015    4       28    22  53    4.7734   404.3    7.953      34.558
2015    4       28    22  59    4.7754   404.4    7.952      34.580
2015    4       28    23   5    4.7774   404.5    7.951      34.601
2015    4       28    23  12    4.7794   404.5    7.950      34.623
2015    4       28    23  18    4.7814   404.6    7.949      34.644
2015    4       28    23  24    4.7833   404.7    7.948      34.665
2015    4       28    23  30    4.7853   404.7    7.947      34.685
2015    4       28    23  36    4.7872   404.8    7.946      34.706
2015    4       28    23  42    4.7892   404.9    7.944      34.726
2015    4       28    23  48    4.7911   404.9    7.943      34.746
2015    4       28    23  54    4.7930   405.0    7.942      34.767
2015    4       29     0   0    4.7949   405.1    7.941      34.787
2015    4       29     0   7    4.7968   405.2    7.940      34.807
2015    4       29     0  13    4.7987   405.2    7.938      34.827
2015    4       29     0  19    4.8006   405.3    7.937      34.846
2015    4       29     0  25    4.8025   405.4    7.936      34.866
2015    4       29     0  31    4.8044   405.4    7.935      34.886
2015    4       29     0  37    4.8064   405.5    7.934      34.906
2015    4       29     0  43    4.8083   405.6    7.933      34.926
2015    4       29     0  49    4.8102   405.7    7.933      34.947
2015    4       29     0  55    4.8122   405.7    7.932      34.967
2015    4       29     1   2    4.8141   405.8    7.931      34.987
2015    4       29     1   8    4.8161   405.9    7.931      35.008
2015    4       29     1  14    4.8181   406.0    7.931      35.029
2015    4       29     1  20    4.8202   406.0    7.931      35.050
2015    4       29     1  26    4.8222   406.1    7.931      35.071
2015    4       29     1  32    4.8243   406.2    7.931      35.093
2015    4       29     1  38    4.8265   406.3    7.932      35.115
2015    4       29     1  44    4.8286   406.3    7.932      35.137
2015    4       29     1  50    4.8308   406.4    7.933      35.161
2015    4       29     1  57    4.8330   406.5    7.934      35.184
2015    4       29     2   3    4.8352   406.6    7.936      35.209
2015    4       29     2   9    4.8374   406.7    7.937      35.233
2015    4       29     2  15    4.8395   406.8    7.939      35.259
2015    4       29     2  21    4.8417   406.8    7.940      35.286
2015    4       29     2  27    4.8438   406.9    7.942      35.313
2015    4       29     2  33    4.8459   407.0    7.943      35.342
2015    4       29     2  39    4.8479   407.1    7.945      35.371
2015    4       29     2  45    4.8499   407.2    7.946      35.401
2015    4       29     2  52    4.8518   407.3    7.947      35.432
2015    4       29     2  58    4.8537   407.4    7.948      35.463
2015    4       29     3   4    4.8555   407.5    7.949      35.493
2015    4       29     3  10    4.8573   407.6    7.949      35.523
2015    4       29     3  16    4.8590   407.7    7.949      35.553
2015    4       29     3  22    4.8607   407.8    7.949      35.582
2015    4       29     3  28    4.8623   407.9    7.949      35.611
2015    4       29     3  34    4.8639   408.0    7.948      35.639
2015    4       29     3  40    4.8654   408.1    7.947      35.668
2015    4       29     3  47    4.8668   408.2    7.946      35.696
2015    4       29     3  53    4.8682   408.3    7.945      35.723
2015    4       29     3  59    4.8696   408.4    7.944      35.750
2015    4       29     4   5    4.8710   408.5    7.942      35.776
2015    4       29     4  11    4.8723   408.6    7.940      35.802
2015    4       29     4  17    4.8736   408.7    7.938      35.827
2015    4       29     4  23    4.8749   408.8    7.936      35.852
2015    4       29     4  29    4.8761   408.9    7.934      35.876
2015    4       29     4  36    4.8773   409.0    7.931      35.900
2015    4       29     4  42    4.8785   409.1    7.929      35.923
2015    4       29     4  48    4.8796   409.2    7.926      35.946
2015    4       29     4  54    4.8807   409.3    7.923      35.968
2015    4       29     5   0    4.8819   409.4    7.920      35.991
2015    4       29     5   6    4.8829   409.5    7.917      36.012
2015    4       29     5  12    4.8840   409.6    7.914      36.034
2015    4       29     5  18    4.8850   409.7    7.911      36.054
2015    4       29     5  24    4.8861   409.8    7.907      36.075
2015    4       29     5  31    4.8871   409.9    7.904      36.095
2015    4       29     5  37    4.8880   410.0    7.900      36.115
2015    4       29     5  43    4.8890   410.1    7.897      36.135
2015    4       29     5  49    4.8900   410.2    7.893      36.154
2015    4       29     5  55    4.8909   410.3    7.889      36.173
2015    4       29     6   1    4.8918   410.4    7.885      36.191
2015    4       29     6   7    4.8927   410.5    7.881      36.210
2015    4       29     6  13    4.8936   410.6    7.878      36.228
2015    4       29     6  19    4.8945   410.7    7.874      36.245
2015    4       29     6  26    4.8953   410.8    7.870      36.263
2015    4       29     6  32    4.8962   410.9    7.866      36.280
2015    4       29     6  38    4.8970   411.0    7.862      36.297
2015    4       29     6  44    4.8978   411.1    7.857      36.314
2015    4       29     6  50    4.8986   411.2    7.853      36.331
2015    4       29     6  56    4.8994   411.3    7.849      36.347
2015    4       29     7   2    4.9002   411.4    7.845      36.363
2015    4       29     7   8    4.9010   411.5    7.841      36.379
2015    4       29     7  14    4.9018   411.6    7.837      36.395
2015    4       29     7  21    4.9025   411.7    7.832      36.411
2015    4       29     7  27    4.9033   411.8    7.828      36.426
2015    4       29     7  33    4.9041   411.9    7.824      36.441
2015    4       29     7  39    4.9048   412.0    7.820      36.457
2015    4       29     7  45    4.9056   412.1    7.816      36.472
2015    4       29     7  51    4.9063   412.2    7.811      36.487
2015    4       29     7  57    4.9071   412.3    7.807      36.502
2015    4       29     8   3    4.9078   412.4    7.803      36.517
2015    4       29     8   9    4.9086   412.5    7.799      36.531
2015    4       29     8  16    4.9093   412.7    7.795      36.546
2015    4       29     8  22    4.9101   412.8    7.791      36.561
2015    4       29     8  28    4.9108   412.9    7.787      36.576
2015    4       29     8  34    4.9116   413.0    7.784      36.590
2015    4       29     8  40    4.9124   413.1    7.780      36.605
2015    4       29     8  46    4.9132   413.2    7.776      36.620
2015    4       29     8  52    4.9140   413.3    7.773      36.635
2015    4       29     8  58    4.9148   413.4    7.770      36.650
2015    4       29     9   4    4.9156   413.5    7.766      36.665
2015    4       29     9  11    4.9165   413.6    7.763      36.680
2015    4       29     9  17    4.9173   413.7    7.760      36.695
2015    4       29     9  23    4.9181   413.8    7.758      36.710
2015    4       29     9  29    4.9190   413.9    7.755      36.725
2015    4       29     9  35    4.9198   414.0    7.752      36.742
2015    4       29     9  41    4.9206   414.1    7.750      36.759
2015    4       29     9  47    4.9214   414.2    7.748      36.776
2015    4       29     9  53    4.9222   414.3    7.745      36.794
2015    4       29     9  59    4.9229   414.5    7.743      36.812
2015    4       29    10   6    4.9236   414.6    7.740      36.831
2015    4       29    10  12    4.9243   414.7    7.738      36.849
2015    4       29    10  18    4.9250   414.8    7.735      36.867
2015    4       29    10  24    4.9256   414.9    7.733      36.886
2015    4       29    10  30    4.9262   415.0    7.730      36.904
2015    4       29    10  36    4.9268   415.1    7.728      36.922
2015    4       29    10  42    4.9274   415.3    7.725      36.939
2015    4       29    10  48    4.9279   415.4    7.722      36.957
2015    4       29    10  54    4.9284   415.5    7.720      36.975
2015    4       29    11   1    4.9288   415.6    7.717      36.993
2015    4       29    11   7    4.9292   415.7    7.714      37.011
2015    4       29    11  13    4.9296   415.9    7.711      37.030
2015    4       29    11  19    4.9300   416.0    7.708      37.049
2015    4       29    11  25    4.9303   416.1    7.705      37.068
2015    4       29    11  31    4.9307   416.2    7.701      37.087
2015    4       29    11  37    4.9309   416.3    7.698      37.105
2015    4       29    11  43    4.9312   416.5    7.694      37.124
2015    4       29    11  49    4.9314   416.6    7.690      37.142
2015    4       29    11  56    4.9316   416.7    7.687      37.160
2015    4       29    12   2    4.9318   416.8    7.683      37.177
2015    4       29    12   8    4.9319   416.9    7.678      37.195
2015    4       29    12  14    4.9321   417.0    7.674      37.211
2015    4       29    12  20    4.9322   417.2    7.670      37.228
2015    4       29    12  26    4.9322   417.3    7.665      37.244
2015    4       29    12  32    4.9323   417.4    7.661      37.260
2015    4       29    12  38    4.9323   417.5    7.656      37.275
2015    4       29    12  44    4.9323   417.6    7.651      37.291
2015    4       29    12  51    4.9323   417.8    7.647      37.305
2015    4       29    12  57    4.9323   417.9    7.642      37.320
2015    4       29    13   3    4.9323   418.0    7.637      37.334
2015    4       29    13   9    4.9322   418.1    7.632      37.348
2015    4       29    13  15    4.9322   418.2    7.627      37.362
2015    4       29    13  21    4.9321   418.3    7.622      37.375
2015    4       29    13  27    4.9320   418.4    7.616      37.389
2015    4       29    13  33    4.9319   418.6    7.611      37.402
2015    4       29    13  39    4.9318   418.7    7.606      37.414
2015    4       29    13  46    4.9317   418.8    7.600      37.427
2015    4       29    13  52    4.9315   418.9    7.595      37.439
2015    4       29    13  58    4.9314   419.0    7.590      37.451
2015    4       29    14   4    4.9312   419.1    7.584      37.463
2015    4       29    14  10    4.9310   419.2    7.579      37.475
2015    4       29    14  16    4.9308   419.3    7.573      37.487
2015    4       29    14  22    4.9307   419.5    7.568      37.498
2015    4       29    14  28    4.9305   419.6    7.562      37.509
2015    4       29    14  34    4.9303   419.7    7.556      37.520
2015    4       29    14  41    4.9300   419.8    7.551      37.531
2015    4       29    14  47    4.9298   419.9    7.545      37.542
2015    4       29    14  53    4.9296   420.0    7.540      37.553
2015    4       29    14  59    4.9294   420.1    7.534      37.563
2015    4       29    15   5    4.9291   420.2    7.528      37.573
2015    4       29    15  11    4.9289   420.3    7.523      37.584
2015    4       29    15  17    4.9286   420.4    7.517      37.593
2015    4       29    15  23    4.9284   420.6    7.511      37.603
2015    4       29    15  29    4.9281   420.7    7.505      37.613
2015    4       29    15  36    4.9279   420.8    7.500      37.623
2015    4       29    15  42    4.9276   420.9    7.494      37.632
2015    4       29    15  48    4.9273   421.0    7.488      37.642
2015    4       29    15  54    4.9270   421.1    7.483      37.651
2015    4       29    16   0    4.9267   421.2    7.477      37.660
2015    4       29    16   6    4.9264   421.3    7.472      37.669
2015    4       29    16  12    4.9261   421.4    7.466      37.678
2015    4       29    16  18    4.9258   421.5    7.460      37.686
2015    4       29    16  25    4.9255   421.6    7.455      37.695
2015    4       29    16  31    4.9252   421.7    7.449      37.703
2015    4       29    16  37    4.9249   421.9    7.444      37.711
2015    4       29    16  43    4.9245   422.0    7.438      37.719
2015    4       29    16  49    4.9242   422.1    7.433      37.727
2015    4       29    16  55    4.9238   422.2    7.428      37.735
2015    4       29    17   1    4.9235   422.3    7.422      37.743
2015    4       29    17   7    4.9231   422.4    7.417      37.750
2015    4       29    17  13    4.9228   422.5    7.412      37.758
2015    4       29    17  20    4.9224   422.6    7.407      37.765
2015    4       29    17  26    4.9220   422.7    7.402      37.772
2015    4       29    17  32    4.9216   422.8    7.397      37.779
2015    4       29    17  38    4.9213   422.9    7.393      37.786
2015    4       29    17  44    4.9209   423.0    7.388      37.793
2015    4       29    17  50    4.9205   423.1    7.383      37.800
2015    4       29    17  56    4.9201   423.2    7.379      37.807
2015    4       29    18   2    4.9197   423.3    7.375      37.813
2015    4       29    18   8    4.9194   423.4    7.370      37.820
2015    4       29    18  15    4.9190   423.5    7.366      37.827
2015    4       29    18  21    4.9186   423.6    7.362      37.834
2015    4       29    18  27    4.9182   423.7    7.358      37.841
2015    4       29    18  33    4.9178   423.9    7.355      37.848
2015    4       29    18  39    4.9174   424.0    7.351      37.856
2015    4       29    18  45    4.9170   424.1    7.347      37.865
2015    4       29    18  51    4.9165   424.2    7.344      37.873
2015    4       29    18  57    4.9161   424.3    7.340      37.882
2015    4       29    19   3    4.9156   424.4    7.336      37.891
2015    4       29    19  10    4.9151   424.5    7.333      37.900
2015    4       29    19  16    4.9146   424.6    7.329      37.910
2015    4       29    19  22    4.9141   424.7    7.325      37.919
2015    4       29    19  28    4.9136   424.8    7.322      37.928
2015    4       29    19  34    4.9131   424.9    7.318      37.938
2015    4       29    19  40    4.9125   425.0    7.314      37.947
2015    4       29    19  46    4.9119   425.1    7.311      37.956
2015    4       29    19  52    4.9113   425.2    7.307      37.965
2015    4       29    19  58    4.9107   425.3    7.303      37.974
2015    4       29    20   5    4.9101   425.4    7.299      37.983
2015    4       29    20  11    4.9095   425.5    7.295      37.992
2015    4       29    20  17    4.9089   425.6    7.291      38.001
2015    4       29    20  23    4.9082   425.7    7.287      38.010
2015    4       29    20  29    4.9076   425.8    7.283      38.019
2015    4       29    20  35    4.9070   425.9    7.279      38.027
2015    4       29    20  41    4.9063   426.1    7.275      38.035
2015    4       29    20  47    4.9057   426.2    7.271      38.044
2015    4       29    20  53    4.9050   426.3    7.267      38.052
2015    4       29    21   0    4.9044   426.4    7.263      38.061
2015    4       29    21   6    4.9037   426.5    7.259      38.069
2015    4       29    21  12    4.9031   426.6    7.255      38.078
2015    4       29    21  18    4.9024   426.6    7.250      38.086
2015    4       29    21  24    4.9018   426.7    7.246      38.094
2015    4       29    21  30    4.9011   426.8    7.242      38.103
2015    4       29    21  36    4.9004   426.9    7.237      38.111
2015    4       29    21  42    4.8998   427.0    7.233      38.119
2015    4       29    21  48    4.8991   427.1    7.228      38.127
2015    4       29    21  55    4.8985   427.2    7.224      38.134
2015    4       29    22   1    4.8978   427.3    7.219      38.142
2015    4       29    22   7    4.8972   427.4    7.215      38.149
2015    4       29    22  13    4.8965   427.5    7.210      38.156
2015    4       29    22  19    4.8959   427.6    7.205      38.163
2015    4       29    22  25    4.8952   427.7    7.201      38.170
2015    4       29    22  31    4.8946   427.8    7.196      38.177
2015    4       29    22  37    4.8939   427.9    7.192      38.183
2015    4       29    22  43    4.8933   428.0    7.187      38.190
2015    4       29    22  50    4.8927   428.1    7.182      38.196
2015    4       29    22  56    4.8921   428.2    7.178      38.202
2015    4       29    23   2    4.8914   428.3    7.173      38.208
2015    4       29    23   8    4.8908   428.4    7.169      38.214
2015    4       29    23  14    4.8902   428.4    7.164      38.220
2015    4       29    23  20    4.8896   428.5    7.160      38.225
2015    4       29    23  26    4.8890   428.6    7.155      38.231
2015    4       29    23  32    4.8885   428.7    7.151      38.237
2015    4       29    23  38    4.8879   428.8    7.147      38.242
2015    4       29    23  45    4.8873   428.9    7.143      38.248
2015    4       29    23  51    4.8868   429.0    7.139      38.254
2015    4       29    23  57    4.8863   429.1    7.134      38.260
2015    4       30     0   3    4.8857   429.2    7.131      38.266
2015    4       30     0   9    4.8852   429.3    7.127      38.271
2015    4       30     0  15    4.8847   429.4    7.123      38.278
2015    4       30     0  21    4.8842   429.4    7.119      38.284
2015    4       30     0  27    4.8838   429.5    7.116      38.290
2015    4       30     0  33    4.8833   429.6    7.113      38.297
2015    4       30     0  40    4.8829   429.7    7.110      38.303
2015    4       30     0  46    4.8825   429.8    7.107      38.310
2015    4       30     0  52    4.8822   429.9    7.104      38.318
2015    4       30     0  58    4.8818   430.0    7.101      38.325
2015    4       30     1   4    4.8815   430.1    7.099      38.333
2015    4       30     1  10    4.8812   430.1    7.097      38.341
2015    4       30     1  16    4.8809   430.2    7.095      38.350
2015    4       30     1  22    4.8807   430.3    7.093      38.359
2015    4       30     1  28    4.8804   430.4    7.091      38.370
2015    4       30     1  35    4.8801   430.5    7.089      38.380
2015    4       30     1  41    4.8799   430.6    7.088      38.392
2015    4       30     1  47    4.8796   430.7    7.086      38.404
2015    4       30     1  53    4.8794   430.8    7.085      38.417
2015    4       30     1  59    4.8791   430.9    7.084      38.431
2015    4       30     2   5    4.8788   431.0    7.083      38.444
2015    4       30     2  11    4.8785   431.1    7.082      38.458
2015    4       30     2  17    4.8783   431.2    7.080      38.472
2015    4       30     2  23    4.8780   431.3    7.079      38.487
2015    4       30     2  30    4.8776   431.4    7.078      38.502
2015    4       30     2  36    4.8773   431.5    7.077      38.518
2015    4       30     2  42    4.8769   431.6    7.075      38.534
2015    4       30     2  48    4.8765   431.7    7.074      38.551
2015    4       30     2  54    4.8761   431.8    7.072      38.567
2015    4       30     3   0    4.8757   431.9    7.070      38.584
2015    4       30     3   6    4.8753   432.0    7.068      38.599
2015    4       30     3  12    4.8749   432.1    7.066      38.615
2015    4       30     3  18    4.8744   432.2    7.064      38.631
2015    4       30     3  25    4.8740   432.3    7.062      38.646
2015    4       30     3  31    4.8735   432.4    7.059      38.661
2015    4       30     3  37    4.8730   432.5    7.057      38.675
2015    4       30     3  43    4.8725   432.6    7.054      38.689
2015    4       30     3  49    4.8720   432.7    7.051      38.703
2015    4       30     3  55    4.8714   432.8    7.048      38.715
2015    4       30     4   1    4.8709   432.9    7.045      38.728
2015    4       30     4   7    4.8703   433.0    7.042      38.740
2015    4       30     4  13    4.8698   433.1    7.039      38.751
2015    4       30     4  20    4.8692   433.2    7.035      38.762
2015    4       30     4  26    4.8686   433.3    7.032      38.773
2015    4       30     4  32    4.8681   433.4    7.029      38.783
2015    4       30     4  38    4.8675   433.4    7.025      38.792
2015    4       30     4  44    4.8669   433.5    7.021      38.802
2015    4       30     4  50    4.8663   433.6    7.018      38.811
2015    4       30     4  56    4.8657   433.7    7.014      38.820
2015    4       30     5   2    4.8651   433.8    7.011      38.828
2015    4       30     5   8    4.8646   433.9    7.007      38.836
2015    4       30     5  15    4.8640   434.0    7.003      38.844
2015    4       30     5  21    4.8634   434.1    6.999      38.852
2015    4       30     5  27    4.8628   434.2    6.995      38.859
2015    4       30     5  33    4.8622   434.3    6.992      38.866
2015    4       30     5  39    4.8616   434.4    6.988      38.873
2015    4       30     5  45    4.8610   434.5    6.984      38.880
2015    4       30     5  51    4.8604   434.6    6.980      38.886
2015    4       30     5  57    4.8598   434.7    6.976      38.893
2015    4       30     6   4    4.8592   434.8    6.972      38.899
2015    4       30     6  10    4.8586   434.9    6.968      38.905
2015    4       30     6  16    4.8580   434.9    6.964      38.910
2015    4       30     6  22    4.8574   435.0    6.960      38.916
2015    4       30     6  28    4.8569   435.1    6.956      38.922
2015    4       30     6  34    4.8563   435.2    6.952      38.927
2015    4       30     6  40    4.8557   435.3    6.949      38.932
2015    4       30     6  46    4.8552   435.4    6.945      38.937
2015    4       30     6  52    4.8546   435.5    6.941      38.942
2015    4       30     6  59    4.8540   435.6    6.937      38.947
2015    4       30     7   5    4.8535   435.7    6.933      38.952
2015    4       30     7  11    4.8529   435.8    6.929      38.957
2015    4       30     7  17    4.8524   435.9    6.926      38.962
2015    4       30     7  23    4.8519   435.9    6.922      38.967
2015    4       30     7  29    4.8514   436.0    6.918      38.972
2015    4       30     7  35    4.8508   436.1    6.915      38.977
2015    4       30     7  41    4.8503   436.2    6.911      38.982
2015    4       30     7  47    4.8498   436.3    6.908      38.987
2015    4       30     7  54    4.8493   436.4    6.904      38.992
2015    4       30     8   0    4.8488   436.5    6.901      38.997
2015    4       30     8   6    4.8483   436.6    6.898      39.002
2015    4       30     8  12    4.8478   436.7    6.894      39.007
2015    4       30     8  18    4.8473   436.8    6.891      39.012
2015    4       30     8  24    4.8468   436.9    6.888      39.018
2015    4       30     8  30    4.8463   437.0    6.885      39.023
2015    4       30     8  36    4.8458   437.1    6.882      39.029
2015    4       30     8  42    4.8453   437.1    6.879      39.034
2015    4       30     8  49    4.8448   437.2    6.876      39.039
2015    4       30     8  55    4.8443   437.3    6.873      39.045
2015    4       30     9   1    4.8438   437.4    6.870      39.051
2015    4       30     9   7    4.8432   437.5    6.868      39.056
2015    4       30     9  13    4.8427   437.6    6.865      39.062
2015    4       30     9  19    4.8422   437.7    6.862      39.068
2015    4       30     9  25    4.8417   437.8    6.860      39.074
2015    4       30     9  31    4.8412   437.9    6.857      39.080
2015    4       30     9  37    4.8407   438.0    6.855      39.086
2015    4       30     9  44    4.8402   438.1    6.852      39.093
2015    4       30     9  50    4.8396   438.2    6.850      39.099
2015    4       30     9  56    4.8391   438.3    6.847      39.106
2015    4       30    10   2    4.8386   438.3    6.845      39.113
2015    4       30    10   8    4.8381   438.4    6.843      39.120
2015    4       30    10  14    4.8376   438.5    6.840      39.127
2015    4       30    10  20    4.8371   438.6    6.838      39.135
2015    4       30    10  26    4.8366   438.7    6.836      39.142
2015    4       30    10  32    4.8361   438.8    6.833      39.150
2015    4       30    10  39    4.8356   438.9    6.831      39.157
2015    4       30    10  45    4.8351   439.0    6.829      39.165
2015    4       30    10  51    4.8346   439.1    6.827      39.174
2015    4       30    10  57    4.8341   439.2    6.824      39.183
2015    4       30    11   3    4.8336   439.3    6.822      39.192
2015    4       30    11   9    4.8331   439.4    6.820      39.201
2015    4       30    11  15    4.8326   439.5    6.817      39.211
2015    4       30    11  21    4.8321   439.5    6.815      39.221
2015    4       30    11  27    4.8316   439.6    6.813      39.231
2015    4       30    11  34    4.8311   439.7    6.810      39.241
2015    4       30    11  40    4.8306   439.8    6.808      39.251
2015    4       30    11  46    4.8301   439.9    6.805      39.261
2015    4       30    11  52    4.8296   440.0    6.803      39.271
2015    4       30    11  58    4.8291   440.1    6.800      39.281
2015    4       30    12   4    4.8286   440.2    6.797      39.292
2015    4       30    12  10    4.8281   440.3    6.795      39.302
2015    4       30    12  16    4.8276   440.4    6.792      39.313
2015    4       30    12  22    4.8270   440.5    6.789      39.324
2015    4       30    12  29    4.8265   440.6    6.786      39.334
2015    4       30    12  35    4.8260   440.7    6.784      39.344
2015    4       30    12  41    4.8255   440.7    6.781      39.355
2015    4       30    12  47    4.8249   440.8    6.778      39.365
2015    4       30    12  53    4.8244   440.9    6.775      39.375
2015    4       30    12  59    4.8239   441.0    6.772      39.385
2015    4       30    13   5    4.8233   441.1    6.769      39.395
2015    4       30    13  11    4.8228   441.2    6.766      39.405
2015    4       30    13  17    4.8223   441.3    6.763      39.415
2015    4       30    13  24    4.8218   441.4    6.760      39.424
2015    4       30    13  30    4.8212   441.5    6.757      39.434
2015    4       30    13  36    4.8207   441.6    6.754      39.443
2015    4       30    13  42    4.8202   441.7    6.751      39.452
2015    4       30    13  48    4.8197   441.7    6.748      39.461
2015    4       30    13  54    4.8192   441.8    6.744      39.470
2015    4       30    14   0    4.8187   441.9    6.741      39.479
2015    4       30    14   6    4.8182   442.0    6.738      39.487
2015    4       30    14  12    4.8177   442.1    6.735      39.496
2015    4       30    14  19    4.8172   442.2    6.732      39.504
2015    4       30    14  25    4.8167   442.3    6.729      39.512
2015    4       30    14  31    4.8162   442.4    6.726      39.520
2015    4       30    14  37    4.8157   442.5    6.723      39.528
2015    4       30    14  43    4.8152   442.5    6.720      39.536
2015    4       30    14  49    4.8148   442.6    6.717      39.543
2015    4       30    14  55    4.8143   442.7    6.714      39.551
2015    4       30    15   1    4.8139   442.8    6.711      39.558
2015    4       30    15   7    4.8135   442.9    6.708      39.565
2015    4       30    15  14    4.8130   443.0    6.705      39.572
2015    4       30    15  20    4.8126   443.1    6.702      39.579
2015    4       30    15  26    4.8122   443.2    6.700      39.586
2015    4       30    15  32    4.8118   443.2    6.697      39.593
2015    4       30    15  38    4.8114   443.3    6.694      39.599
2015    4       30    15  44    4.8110   443.4    6.691      39.606
2015    4       30    15  50    4.8106   443.5    6.689      39.612
2015    4       30    15  56    4.8102   443.6    6.686      39.619
2015    4       30    16   2    4.8097   443.7    6.684      39.626
2015    4       30    16   9    4.8093   443.8    6.681      39.633
2015    4       30    16  15    4.8089   443.9    6.679      39.640
2015    4       30    16  21    4.8085   444.0    6.676      39.647
2015    4       30    16  27    4.8081   444.0    6.673      39.654
2015    4       30    16  33    4.8076   444.1    6.671      39.662
2015    4       30    16  39    4.8072   444.2    6.668      39.670
2015    4       30    16  45    4.8068   444.3    6.666      39.677
2015    4       30    16  51    4.8063   444.4    6.663      39.685
2015    4       30    16  57    4.8059   444.5    6.661      39.692
2015    4       30    17   4    4.8054   444.6    6.658      39.700
2015    4       30    17  10    4.8049   444.7    6.655      39.708
2015    4       30    17  16    4.8044   444.8    6.653      39.715
2015    4       30    17  22    4.8039   444.9    6.650      39.723
2015    4       30    17  28    4.8034   445.0    6.647      39.731
2015    4       30    17  34    4.8030   445.0    6.645      39.739
2015    4       30    17  40    4.8025   445.1    6.642      39.747
2015    4       30    17  46    4.8019   445.2    6.639      39.755
2015    4       30    17  52    4.8014   445.3    6.636      39.763
2015    4       30    17  59    4.8009   445.4    6.634      39.771
2015    4       30    18   5    4.8004   445.5    6.631      39.779
2015    4       30    18  11    4.7999   445.6    6.628      39.788
2015    4       30    18  17    4.7993   445.7    6.625      39.796
2015    4       30    18  23    4.7988   445.8    6.623      39.804
2015    4       30    18  29    4.7982   445.9    6.620      39.812
2015    4       30    18  35    4.7977   445.9    6.617      39.821
2015    4       30    18  41    4.7971   446.0    6.614      39.829
2015    4       30    18  47    4.7966   446.1    6.611      39.837
2015    4       30    18  54    4.7960   446.2    6.608      39.846
2015    4       30    19   0    4.7954   446.3    6.606      39.854
2015    4       30    19   6    4.7949   446.4    6.603      39.863
2015    4       30    19  12    4.7943   446.5    6.600      39.872
2015    4       30    19  18    4.7937   446.6    6.597      39.881
2015    4       30    19  24    4.7931   446.7    6.594      39.889
2015    4       30    19  30    4.7926   446.8    6.591      39.898
2015    4       30    19  36    4.7920   446.8    6.588      39.907
2015    4       30    19  43    4.7914   446.9    6.585      39.916
2015    4       30    19  49    4.7908   447.0    6.582      39.925
2015    4       30    19  55    4.7903   447.1    6.579      39.934
2015    4       30    20   1    4.7897   447.2    6.576      39.944
2015    4       30    20   7    4.7891   447.3    6.574      39.953
2015    4       30    20  13    4.7885   447.4    6.571      39.962
2015    4       30    20  19    4.7880   447.5    6.568      39.971
2015    4       30    20  25    4.7874   447.5    6.565      39.980
2015    4       30    20  31    4.7868   447.6    6.562      39.989
2015    4       30    20  38    4.7862   447.7    6.559      39.998
2015    4       30    20  44    4.7857   447.8    6.556      40.007
2015    4       30    20  50    4.7851   447.9    6.553      40.016
2015    4       30    20  56    4.7846   448.0    6.550      40.025
2015    4       30    21   2    4.7840   448.1    6.547      40.034
2015    4       30    21   8    4.7835   448.2    6.545      40.044
2015    4       30    21  14    4.7829   448.2    6.542      40.053
2015    4       30    21  20    4.7824   448.3    6.539      40.062
2015    4       30    21  26    4.7818   448.4    6.536      40.071
2015    4       30    21  33    4.7813   448.5    6.533      40.080
2015    4       30    21  39    4.7807   448.6    6.530      40.089
2015    4       30    21  45    4.7802   448.7    6.527      40.098
2015    4       30    21  51    4.7797   448.8    6.524      40.106
2015    4       30    21  57    4.7791   448.8    6.522      40.115
2015    4       30    22   3    4.7786   448.9    6.519      40.123
2015    4       30    22   9    4.7780   449.0    6.516      40.132
2015    4       30    22  15    4.7775   449.1    6.513      40.140
2015    4       30    22  21    4.7770   449.2    6.510      40.148
2015    4       30    22  28    4.7764   449.3    6.508      40.157
2015    4       30    22  34    4.7759   449.3    6.505      40.165
2015    4       30    22  40    4.7754   449.4    6.502      40.173
2015    4       30    22  46    4.7749   449.5    6.499      40.181
2015    4       30    22  52    4.7744   449.6    6.496      40.188
2015    4       30    22  58    4.7738   449.7    6.494      40.196
2015    4       30    23   4    4.7733   449.8    6.491      40.204
2015    4       30    23  10    4.7728   449.9    6.488      40.212
2015    4       30    23  16    4.7723   449.9    6.486      40.219
2015    4       30    23  23    4.7718   450.0    6.483      40.227
2015    4       30    23  29    4.7712   450.1    6.480      40.234
2015    4       30    23  35    4.7707   450.2    6.478      40.242
2015    4       30    23  41    4.7702   450.3    6.475      40.250
2015    4       30    23  47    4.7697   450.4    6.472      40.257
2015    4       30    23  53    4.7691   450.4    6.470      40.265
2015    4       30    23  59    4.7686   450.5    6.467      40.273
2015    5        1     0   5    4.7680   450.6    6.464      40.281
2015    5        1     0  11    4.7675   450.7    6.462      40.288
2015    5        1     0  18    4.7669   450.8    6.459      40.297
2015    5        1     0  24    4.7664   450.9    6.457      40.305
2015    5        1     0  30    4.7658   450.9    6.454      40.313
2015    5        1     0  36    4.7652   451.0    6.451      40.321
2015    5        1     0  42    4.7646   451.1    6.449      40.330
2015    5        1     0  48    4.7640   451.2    6.446      40.339
2015    5        1     0  54    4.7634   451.3    6.443      40.347
2015    5        1     1   0    4.7628   451.4    6.441      40.356
2015    5        1     1   6    4.7622   451.5    6.438      40.365
2015    5        1     1  13    4.7616   451.5    6.435      40.374
2015    5        1     1  19    4.7610   451.6    6.432      40.383
2015    5        1     1  25    4.7603   451.7    6.430      40.392
2015    5        1     1  31    4.7597   451.8    6.427      40.401
2015    5        1     1  37    4.7591   451.9    6.424      40.410
2015    5        1     1  43    4.7584   452.0    6.422      40.419
2015    5        1     1  49    4.7578   452.1    6.419      40.428
2015    5        1     1  55    4.7571   452.1    6.416      40.437
2015    5        1     2   1    4.7565   452.2    6.413      40.446
2015    5        1     2   8    4.7558   452.3    6.411      40.455
2015    5        1     2  14    4.7552   452.4    6.408      40.464
2015    5        1     2  20    4.7545   452.5    6.405      40.473
2015    5        1     2  26    4.7538   452.6    6.403      40.482
2015    5        1     2  32    4.7532   452.6    6.400      40.491
2015    5        1     2  38    4.7525   452.7    6.397      40.500
2015    5        1     2  44    4.7519   452.8    6.395      40.509
2015    5        1     2  50    4.7512   452.9    6.392      40.518
2015    5        1     2  56    4.7505   453.0    6.389      40.528
2015    5        1     3   3    4.7498   453.1    6.387      40.537
2015    5        1     3   9    4.7492   453.1    6.384      40.546
2015    5        1     3  15    4.7485   453.2    6.381      40.555
2015    5        1     3  21    4.7478   453.3    6.379      40.565
2015    5        1     3  27    4.7472   453.4    6.376      40.574
2015    5        1     3  33    4.7465   453.5    6.374      40.584
2015    5        1     3  39    4.7458   453.6    6.371      40.593
2015    5        1     3  45    4.7452   453.6    6.369      40.603
2015    5        1     3  51    4.7445   453.7    6.366      40.612
2015    5        1     3  58    4.7438   453.8    6.364      40.622
2015    5        1     4   4    4.7432   453.9    6.362      40.632
2015    5        1     4  10    4.7425   454.0    6.359      40.642
2015    5        1     4  16    4.7418   454.1    6.357      40.652
2015    5        1     4  22    4.7412   454.1    6.354      40.662
2015    5        1     4  28    4.7405   454.2    6.352      40.672
2015    5        1     4  34    4.7398   454.3    6.349      40.682
2015    5        1     4  40    4.7391   454.4    6.347      40.693
2015    5        1     4  46    4.7385   454.5    6.344      40.703
2015    5        1     4  53    4.7378   454.6    6.342      40.713
2015    5        1     4  59    4.7371   454.7    6.339      40.723
2015    5        1     5   5    4.7364   454.7    6.337      40.733
2015    5        1     5  11    4.7357   454.8    6.334      40.743
2015    5        1     5  17    4.7350   454.9    6.331      40.752
2015    5        1     5  23    4.7343   455.0    6.329      40.762
2015    5        1     5  29    4.7336   455.1    6.326      40.771
2015    5        1     5  35    4.7329   455.2    6.323      40.780
2015    5        1     5  41    4.7322   455.2    6.321      40.789
2015    5        1     5  48    4.7315   455.3    6.318      40.798
2015    5        1     5  54    4.7308   455.4    6.315      40.807
2015    5        1     6   0    4.7301   455.5    6.312      40.815
2015    5        1     6   6    4.7293   455.6    6.310      40.824
2015    5        1     6  12    4.7286   455.7    6.307      40.832
2015    5        1     6  18    4.7279   455.7    6.304      40.840
2015    5        1     6  24    4.7271   455.8    6.301      40.848
2015    5        1     6  30    4.7264   455.9    6.298      40.856
2015    5        1     6  36    4.7257   456.0    6.295      40.864
2015    5        1     6  43    4.7249   456.1    6.292      40.872
2015    5        1     6  49    4.7242   456.2    6.289      40.879
2015    5        1     6  55    4.7234   456.3    6.286      40.887
2015    5        1     7   1    4.7226   456.3    6.283      40.895
2015    5        1     7   7    4.7219   456.4    6.280      40.902
2015    5        1     7  13    4.7211   456.5    6.277      40.910
2015    5        1     7  19    4.7203   456.6    6.274      40.917
2015    5        1     7  25    4.7195   456.7    6.271      40.925
2015    5        1     7  31    4.7188   456.8    6.268      40.932
2015    5        1     7  38    4.7180   456.8    6.265      40.939
2015    5        1     7  44    4.7172   456.9    6.262      40.947
2015    5        1     7  50    4.7164   457.0    6.259      40.954
2015    5        1     7  56    4.7156   457.1    6.256      40.961
2015    5        1     8   2    4.7148   457.2    6.253      40.968
2015    5        1     8   8    4.7140   457.3    6.250      40.975
2015    5        1     8  14    4.7132   457.3    6.247      40.982
2015    5        1     8  20    4.7124   457.4    6.244      40.989
2015    5        1     8  26    4.7115   457.5    6.241      40.996
2015    5        1     8  33    4.7107   457.6    6.238      41.004
2015    5        1     8  39    4.7099   457.7    6.235      41.011
2015    5        1     8  45    4.7091   457.8    6.232      41.018
2015    5        1     8  51    4.7082   457.8    6.229      41.025
2015    5        1     8  57    4.7074   457.9    6.226      41.032
2015    5        1     9   3    4.7065   458.0    6.223      41.039
2015    5        1     9   9    4.7056   458.1    6.220      41.046
2015    5        1     9  15    4.7048   458.2    6.217      41.054
2015    5        1     9  22    4.7039   458.3    6.214      41.061
2015    5        1     9  28    4.7030   458.3    6.211      41.068
2015    5        1     9  34    4.7021   458.4    6.208      41.076
2015    5        1     9  40    4.7012   458.5    6.205      41.083
2015    5        1     9  46    4.7003   458.6    6.202      41.091
2015    5        1     9  52    4.6994   458.7    6.199      41.099
2015    5        1     9  58    4.6985   458.8    6.196      41.106
2015    5        1    10   4    4.6976   458.8    6.193      41.114
2015    5        1    10  10    4.6967   458.9    6.191      41.122
2015    5        1    10  17    4.6957   459.0    6.188      41.130
2015    5        1    10  23    4.6948   459.1    6.185      41.137
2015    5        1    10  29    4.6939   459.2    6.182      41.145
2015    5        1    10  35    4.6929   459.3    6.179      41.153
2015    5        1    10  41    4.6920   459.3    6.176      41.160
2015    5        1    10  47    4.6910   459.4    6.173      41.167
2015    5        1    10  53    4.6901   459.5    6.170      41.175
2015    5        1    10  59    4.6891   459.6    6.167      41.182
2015    5        1    11   5    4.6881   459.7    6.164      41.190
2015    5        1    11  12    4.6872   459.7    6.161      41.197
2015    5        1    11  18    4.6862   459.8    6.158      41.205
2015    5        1    11  24    4.6852   459.9    6.155      41.213
2015    5        1    11  30    4.6843   460.0    6.152      41.220
2015    5        1    11  36    4.6833   460.1    6.149      41.228
2015    5        1    11  42    4.6823   460.2    6.146      41.235
2015    5        1    11  48    4.6813   460.2    6.143      41.242
2015    5        1    11  54    4.6803   460.3    6.140      41.250
2015    5        1    12   0    4.6793   460.4    6.137      41.257
2015    5        1    12   7    4.6783   460.5    6.134      41.264
2015    5        1    12  13    4.6773   460.6    6.131      41.272
2015    5        1    12  19    4.6763   460.6    6.128      41.279
2015    5        1    12  25    4.6753   460.7    6.125      41.286
2015    5        1    12  31    4.6742   460.8    6.122      41.293
2015    5        1    12  37    4.6732   460.9    6.119      41.300
2015    5        1    12  43    4.6722   461.0    6.115      41.306
2015    5        1    12  49    4.6711   461.1    6.112      41.313
2015    5        1    12  55    4.6701   461.1    6.109      41.320
2015    5        1    13   2    4.6690   461.2    6.106      41.326
2015    5        1    13   8    4.6680   461.3    6.103      41.333
2015    5        1    13  14    4.6669   461.4    6.099      41.339
2015    5        1    13  20    4.6659   461.5    6.096      41.345
2015    5        1    13  26    4.6648   461.5    6.093      41.352
2015    5        1    13  32    4.6638   461.6    6.089      41.358
2015    5        1    13  38    4.6627   461.7    6.086      41.364
2015    5        1    13  44    4.6616   461.8    6.083      41.370
2015    5        1    13  50    4.6605   461.9    6.080      41.375
2015    5        1    13  57    4.6594   461.9    6.076      41.381
2015    5        1    14   3    4.6584   462.0    6.073      41.387
2015    5        1    14   9    4.6573   462.1    6.070      41.393
2015    5        1    14  15    4.6562   462.2    6.066      41.398
2015    5        1    14  21    4.6551   462.2    6.063      41.404
2015    5        1    14  27    4.6540   462.3    6.059      41.409
2015    5        1    14  33    4.6529   462.4    6.056      41.415
2015    5        1    14  39    4.6517   462.5    6.053      41.420
2015    5        1    14  45    4.6506   462.6    6.049      41.426
2015    5        1    14  52    4.6495   462.6    6.046      41.431
2015    5        1    14  58    4.6484   462.7    6.043      41.437
2015    5        1    15   4    4.6473   462.8    6.039      41.442
2015    5        1    15  10    4.6461   462.9    6.036      41.448
2015    5        1    15  16    4.6450   462.9    6.033      41.453
2015    5        1    15  22    4.6439   463.0    6.029      41.458
2015    5        1    15  28    4.6427   463.1    6.026      41.464
2015    5        1    15  34    4.6416   463.2    6.023      41.469
2015    5        1    15  40    4.6404   463.3    6.019      41.474
2015    5        1    15  47    4.6392   463.3    6.016      41.479
2015    5        1    15  53    4.6381   463.4    6.013      41.484
2015    5        1    15  59    4.6369   463.5    6.010      41.489
2015    5        1    16   5    4.6357   463.6    6.006      41.494
2015    5        1    16  11    4.6345   463.6    6.003      41.499
2015    5        1    16  17    4.6333   463.7    6.000      41.504
2015    5        1    16  23    4.6321   463.8    5.997      41.508
2015    5        1    16  29    4.6309   463.9    5.993      41.513
2015    5        1    16  35    4.6296   464.0    5.990      41.518
2015    5        1    16  42    4.6284   464.0    5.987      41.522
2015    5        1    16  48    4.6271   464.1    5.983      41.527
2015    5        1    16  54    4.6259   464.2    5.980      41.531
2015    5        1    17   0    4.6246   464.3    5.977      41.535
2015    5        1    17   6    4.6233   464.3    5.973      41.540
2015    5        1    17  12    4.6220   464.4    5.970      41.544
2015    5        1    17  18    4.6207   464.5    5.967      41.547
2015    5        1    17  24    4.6194   464.6    5.963      41.551
2015    5        1    17  30    4.6181   464.6    5.960      41.554
2015    5        1    17  37    4.6167   464.7    5.956      41.557
2015    5        1    17  43    4.6154   464.8    5.953      41.561
2015    5        1    17  49    4.6140   464.9    5.950      41.563
2015    5        1    17  55    4.6127   464.9    5.946      41.566
2015    5        1    18   1    4.6113   465.0    5.943      41.569
2015    5        1    18   7    4.6100   465.1    5.939      41.571
2015    5        1    18  13    4.6086   465.2    5.936      41.574
2015    5        1    18  19    4.6072   465.2    5.932      41.576
2015    5        1    18  25    4.6058   465.3    5.929      41.578
2015    5        1    18  32    4.6045   465.4    5.925      41.580
2015    5        1    18  38    4.6031   465.5    5.922      41.582
2015    5        1    18  44    4.6017   465.5    5.918      41.584
2015    5        1    18  50    4.6003   465.6    5.915      41.586
2015    5        1    18  56    4.5989   465.7    5.911      41.588
2015    5        1    19   2    4.5975   465.7    5.908      41.590
2015    5        1    19   8    4.5961   465.8    5.904      41.592
2015    5        1    19  14    4.5947   465.9    5.901      41.594
2015    5        1    19  20    4.5933   465.9    5.897      41.596
2015    5        1    19  27    4.5919   466.0    5.894      41.598
2015    5        1    19  33    4.5905   466.1    5.890      41.600
2015    5        1    19  39    4.5891   466.2    5.887      41.602
2015    5        1    19  45    4.5877   466.2    5.884      41.604
2015    5        1    19  51    4.5863   466.3    5.880      41.607
2015    5        1    19  57    4.5849   466.4    5.877      41.609
2015    5        1    20   3    4.5835   466.4    5.873      41.611
2015    5        1    20   9    4.5821   466.5    5.870      41.614
2015    5        1    20  15    4.5806   466.6    5.866      41.617
2015    5        1    20  22    4.5792   466.6    5.863      41.619
2015    5        1    20  28    4.5778   466.7    5.859      41.622
2015    5        1    20  34    4.5764   466.8    5.856      41.624
2015    5        1    20  40    4.5750   466.8    5.853      41.627
2015    5        1    20  46    4.5736   466.9    5.849      41.630
2015    5        1    20  52    4.5721   467.0    5.846      41.633
2015    5        1    20  58    4.5707   467.0    5.842      41.635
2015    5        1    21   4    4.5692   467.1    5.839      41.638
2015    5        1    21  11    4.5678   467.2    5.835      41.641
2015    5        1    21  17    4.5663   467.2    5.832      41.643
2015    5        1    21  23    4.5649   467.3    5.828      41.646
2015    5        1    21  29    4.5634   467.4    5.825      41.648
2015    5        1    21  35    4.5620   467.4    5.821      41.651
2015    5        1    21  41    4.5605   467.5    5.818      41.653
2015    5        1    21  47    4.5591   467.6    5.815      41.655
2015    5        1    21  53    4.5576   467.6    5.811      41.657
2015    5        1    21  59    4.5561   467.7    5.808      41.660
2015    5        1    22   6    4.5547   467.8    5.804      41.661
2015    5        1    22  12    4.5532   467.8    5.801      41.663
2015    5        1    22  18    4.5517   467.9    5.797      41.665
2015    5        1    22  24    4.5502   467.9    5.794      41.667
2015    5        1    22  30    4.5487   468.0    5.791      41.668
2015    5        1    22  36    4.5473   468.1    5.787      41.669
2015    5        1    22  42    4.5458   468.1    5.784      41.670
2015    5        1    22  48    4.5443   468.2    5.780      41.672
2015    5        1    22  54    4.5428   468.3    5.777      41.672
2015    5        1    23   1    4.5413   468.3    5.774      41.673
2015    5        1    23   7    4.5398   468.4    5.770      41.674
2015    5        1    23  13    4.5383   468.4    5.767      41.674
2015    5        1    23  19    4.5368   468.5    5.764      41.674
2015    5        1    23  25    4.5353   468.6    5.760      41.674
2015    5        1    23  31    4.5338   468.6    5.757      41.674
2015    5        1    23  37    4.5322   468.7    5.754      41.674
2015    5        1    23  43    4.5307   468.7    5.750      41.674
2015    5        1    23  49    4.5292   468.8    5.747      41.673
2015    5        1    23  56    4.5276   468.9    5.744      41.673
2015    5        2     0   2    4.5260   468.9    5.741      41.672
2015    5        2     0   8    4.5245   469.0    5.737      41.671
2015    5        2     0  14    4.5229   469.0    5.734      41.670
2015    5        2     0  20    4.5213   469.1    5.731      41.669
2015    5        2     0  26    4.5197   469.1    5.727      41.668
2015    5        2     0  32    4.5181   469.2    5.724      41.666
2015    5        2     0  38    4.5165   469.3    5.721      41.665
2015    5        2     0  44    4.5149   469.3    5.718      41.663
2015    5        2     0  51    4.5133   469.4    5.714      41.661
2015    5        2     0  57    4.5116   469.4    5.711      41.660
2015    5        2     1   3    4.5100   469.5    5.708      41.658
2015    5        2     1   9    4.5084   469.5    5.704      41.656
2015    5        2     1  15    4.5067   469.6    5.701      41.654
2015    5        2     1  21    4.5050   469.7    5.698      41.652
2015    5        2     1  27    4.5034   469.7    5.694      41.649
2015    5        2     1  33    4.5017   469.8    5.691      41.647
2015    5        2     1  39    4.5000   469.8    5.688      41.645
2015    5        2     1  46    4.4984   469.9    5.684      41.642
2015    5        2     1  52    4.4967   469.9    5.681      41.640
2015    5        2     1  58    4.4950   470.0    5.677      41.637
2015    5        2     2   4    4.4933   470.0    5.674      41.634
2015    5        2     2  10    4.4916   470.1    5.670      41.632
2015    5        2     2  16    4.4899   470.1    5.667      41.629
2015    5        2     2  22    4.4882   470.2    5.663      41.626
2015    5        2     2  28    4.4864   470.2    5.660      41.623
2015    5        2     2  34    4.4847   470.3    5.656      41.620
2015    5        2     2  41    4.4830   470.3    5.653      41.617
2015    5        2     2  47    4.4813   470.4    5.649      41.614
2015    5        2     2  53    4.4795   470.4    5.646      41.611
2015    5        2     2  59    4.4778   470.5    5.642      41.607
2015    5        2     3   5    4.4761   470.5    5.639      41.604
2015    5        2     3  11    4.4744   470.6    5.635      41.601
2015    5        2     3  17    4.4726   470.6    5.632      41.597
2015    5        2     3  23    4.4709   470.7    5.628      41.594
2015    5        2     3  29    4.4692   470.7    5.625      41.591
2015    5        2     3  36    4.4674   470.8    5.621      41.587
2015    5        2     3  42    4.4657   470.8    5.618      41.584
2015    5        2     3  48    4.4640   470.9    5.614      41.580
2015    5        2     3  54    4.4622   470.9    5.611      41.577
2015    5        2     4   0    4.4605   470.9    5.608      41.573
2015    5        2     4   6    4.4588   471.0    5.604      41.569
2015    5        2     4  12    4.4571   471.0    5.601      41.566
2015    5        2     4  18    4.4554   471.1    5.598      41.562
2015    5        2     4  24    4.4536   471.1    5.594      41.559
2015    5        2     4  31    4.4519   471.2    5.591      41.555
2015    5        2     4  37    4.4502   471.2    5.588      41.552
2015    5        2     4  43    4.4485   471.2    5.585      41.548
2015    5        2     4  49    4.4468   471.3    5.582      41.545
2015    5        2     4  55    4.4451   471.3    5.579      41.541
2015    5        2     5   1    4.4435   471.4    5.576      41.538
2015    5        2     5   7    4.4418   471.4    5.573      41.535
2015    5        2     5  13    4.4401   471.4    5.570      41.531
2015    5        2     5  19    4.4384   471.5    5.567      41.528
2015    5        2     5  26    4.4367   471.5    5.564      41.524
2015    5        2     5  32    4.4351   471.6    5.561      41.521
2015    5        2     5  38    4.4334   471.6    5.558      41.518
2015    5        2     5  44    4.4317   471.6    5.555      41.514
2015    5        2     5  50    4.4300   471.7    5.553      41.511
2015    5        2     5  56    4.4284   471.7    5.550      41.507
2015    5        2     6   2    4.4267   471.8    5.547      41.504
2015    5        2     6   8    4.4250   471.8    5.545      41.500
2015    5        2     6  14    4.4234   471.8    5.542      41.497
2015    5        2     6  21    4.4217   471.9    5.539      41.493
2015    5        2     6  27    4.4200   471.9    5.537      41.489
2015    5        2     6  33    4.4183   471.9    5.534      41.486
2015    5        2     6  39    4.4166   472.0    5.531      41.482
2015    5        2     6  45    4.4149   472.0    5.529      41.478
2015    5        2     6  51    4.4131   472.1    5.526      41.474
2015    5        2     6  57    4.4114   472.1    5.523      41.470
2015    5        2     7   3    4.4097   472.1    5.521      41.465
2015    5        2     7   9    4.4080   472.2    5.518      41.461
2015    5        2     7  16    4.4063   472.2    5.515      41.457
2015    5        2     7  22    4.4045   472.2    5.513      41.453
2015    5        2     7  28    4.4028   472.3    5.510      41.448
2015    5        2     7  34    4.4010   472.3    5.508      41.444
2015    5        2     7  40    4.3993   472.3    5.505      41.439
2015    5        2     7  46    4.3975   472.4    5.502      41.435
2015    5        2     7  52    4.3958   472.4    5.499      41.430
2015    5        2     7  58    4.3940   472.4    5.497      41.425
2015    5        2     8   4    4.3923   472.4    5.494      41.420
2015    5        2     8  11    4.3905   472.5    5.491      41.416
2015    5        2     8  17    4.3888   472.5    5.489      41.410
2015    5        2     8  23    4.3870   472.5    5.486      41.405
2015    5        2     8  29    4.3853   472.6    5.483      41.400
2015    5        2     8  35    4.3835   472.6    5.480      41.395
2015    5        2     8  41    4.3818   472.6    5.477      41.390
2015    5        2     8  47    4.3800   472.7    5.475      41.384
2015    5        2     8  53    4.3783   472.7    5.472      41.379
2015    5        2     9   0    4.3765   472.7    5.469      41.373
2015    5        2     9   6    4.3747   472.7    5.466      41.367
2015    5        2     9  12    4.3730   472.8    5.463      41.361
2015    5        2     9  18    4.3712   472.8    5.460      41.355
2015    5        2     9  24    4.3694   472.8    5.457      41.349
2015    5        2     9  30    4.3677   472.9    5.454      41.343
2015    5        2     9  36    4.3659   472.9    5.452      41.337
2015    5        2     9  42    4.3641   472.9    5.449      41.330
2015    5        2     9  48    4.3623   472.9    5.446      41.324
2015    5        2     9  55    4.3606   473.0    5.443      41.317
2015    5        2    10   1    4.3588   473.0    5.440      41.310
2015    5        2    10   7    4.3570   473.0    5.437      41.303
2015    5        2    10  13    4.3552   473.0    5.434      41.296
2015    5        2    10  19    4.3534   473.1    5.431      41.289
2015    5        2    10  25    4.3516   473.1    5.428      41.281
2015    5        2    10  31    4.3499   473.1    5.425      41.274
2015    5        2    10  37    4.3481   473.1    5.422      41.266
2015    5        2    10  43    4.3463   473.2    5.419      41.259
2015    5        2    10  50    4.3445   473.2    5.416      41.251
2015    5        2    10  56    4.3427   473.2    5.413      41.243
2015    5        2    11   2    4.3409   473.2    5.410      41.236
2015    5        2    11   8    4.3392   473.3    5.407      41.228
2015    5        2    11  14    4.3374   473.3    5.405      41.220
2015    5        2    11  20    4.3356   473.3    5.402      41.212
2015    5        2    11  26    4.3338   473.3    5.399      41.204
2015    5        2    11  32    4.3321   473.3    5.396      41.196
2015    5        2    11  38    4.3303   473.4    5.393      41.188
2015    5        2    11  45    4.3285   473.4    5.391      41.180
2015    5        2    11  51    4.3268   473.4    5.388      41.172
2015    5        2    11  57    4.3250   473.4    5.385      41.165
2015    5        2    12   3    4.3232   473.4    5.383      41.157
2015    5        2    12   9    4.3215   473.5    5.380      41.149
2015    5        2    12  15    4.3197   473.5    5.377      41.141
2015    5        2    12  21    4.3180   473.5    5.375      41.134
2015    5        2    12  27    4.3162   473.5    5.372      41.126
2015    5        2    12  33    4.3145   473.5    5.370      41.118
2015    5        2    12  40    4.3127   473.6    5.368      41.111
2015    5        2    12  46    4.3110   473.6    5.365      41.103
2015    5        2    12  52    4.3092   473.6    5.363      41.096
2015    5        2    12  58    4.3075   473.6    5.360      41.088
2015    5        2    13   4    4.3057   473.6    5.358      41.081
2015    5        2    13  10    4.3039   473.6    5.356      41.073
2015    5        2    13  16    4.3022   473.6    5.354      41.066
2015    5        2    13  22    4.3004   473.7    5.351      41.058
2015    5        2    13  28    4.2987   473.7    5.349      41.051
2015    5        2    13  35    4.2969   473.7    5.347      41.044
2015    5        2    13  41    4.2951   473.7    5.345      41.036
2015    5        2    13  47    4.2934   473.7    5.342      41.029
2015    5        2    13  53    4.2916   473.7    5.340      41.021
2015    5        2    13  59    4.2898   473.7    5.338      41.014
2015    5        2    14   5    4.2880   473.8    5.336      41.007
2015    5        2    14  11    4.2862   473.8    5.334      40.999
2015    5        2    14  17    4.2844   473.8    5.332      40.992
2015    5        2    14  23    4.2827   473.8    5.330      40.984
2015    5        2    14  30    4.2809   473.8    5.327      40.977
2015    5        2    14  36    4.2791   473.8    5.325      40.970
2015    5        2    14  42    4.2773   473.8    5.323      40.962
2015    5        2    14  48    4.2755   473.8    5.321      40.955
2015    5        2    14  54    4.2738   473.8    5.319      40.948
2015    5        2    15   0    4.2720   473.9    5.317      40.940
2015    5        2    15   6    4.2702   473.9    5.315      40.933
2015    5        2    15  12    4.2685   473.9    5.313      40.926
2015    5        2    15  18    4.2667   473.9    5.311      40.919
2015    5        2    15  25    4.2649   473.9    5.309      40.911
2015    5        2    15  31    4.2632   473.9    5.306      40.904
2015    5        2    15  37    4.2614   473.9    5.304      40.897
2015    5        2    15  43    4.2597   473.9    5.302      40.889
2015    5        2    15  49    4.2580   473.9    5.300      40.882
2015    5        2    15  55    4.2562   473.9    5.298      40.875
2015    5        2    16   1    4.2545   473.9    5.296      40.868
2015    5        2    16   7    4.2528   474.0    5.294      40.860
2015    5        2    16  13    4.2511   474.0    5.292      40.853
2015    5        2    16  20    4.2493   474.0    5.290      40.846
2015    5        2    16  26    4.2476   474.0    5.288      40.838
2015    5        2    16  32    4.2459   474.0    5.286      40.831
2015    5        2    16  38    4.2442   474.0    5.284      40.823
2015    5        2    16  44    4.2425   474.0    5.282      40.816
2015    5        2    16  50    4.2408   474.0    5.280      40.808
2015    5        2    16  56    4.2391   474.0    5.277      40.800
2015    5        2    17   2    4.2374   474.0    5.275      40.792
2015    5        2    17   8    4.2356   474.0    5.273      40.784
2015    5        2    17  15    4.2339   474.0    5.271      40.776
2015    5        2    17  21    4.2322   474.0    5.269      40.768
2015    5        2    17  27    4.2305   474.0    5.267      40.760
2015    5        2    17  33    4.2288   474.1    5.265      40.752
2015    5        2    17  39    4.2271   474.1    5.262      40.743
2015    5        2    17  45    4.2254   474.1    5.260      40.735
2015    5        2    17  51    4.2237   474.1    5.258      40.726
2015    5        2    17  57    4.2220   474.1    5.256      40.717
2015    5        2    18   3    4.2203   474.1    5.254      40.709
2015    5        2    18  10    4.2186   474.1    5.252      40.700
2015    5        2    18  16    4.2169   474.1    5.249      40.691
2015    5        2    18  22    4.2152   474.1    5.247      40.682
2015    5        2    18  28    4.2134   474.1    5.245      40.673
2015    5        2    18  34    4.2117   474.1    5.243      40.663
2015    5        2    18  40    4.2100   474.1    5.241      40.654
2015    5        2    18  46    4.2083   474.1    5.238      40.645
2015    5        2    18  52    4.2066   474.1    5.236      40.635
2015    5        2    18  58    4.2049   474.1    5.234      40.626
2015    5        2    19   5    4.2031   474.1    5.232      40.616
2015    5        2    19  11    4.2014   474.1    5.230      40.607
2015    5        2    19  17    4.1997   474.1    5.228      40.597
2015    5        2    19  23    4.1979   474.1    5.226      40.587
2015    5        2    19  29    4.1962   474.1    5.223      40.578
2015    5        2    19  35    4.1944   474.1    5.221      40.568
2015    5        2    19  41    4.1927   474.1    5.219      40.558
2015    5        2    19  47    4.1909   474.1    5.217      40.548
2015    5        2    19  53    4.1891   474.1    5.215      40.538
2015    5        2    20   0    4.1874   474.1    5.213      40.529
2015    5        2    20   6    4.1856   474.1    5.211      40.519
2015    5        2    20  12    4.1838   474.1    5.209      40.509
2015    5        2    20  18    4.1820   474.1    5.207      40.499
2015    5        2    20  24    4.1802   474.1    5.205      40.489
2015    5        2    20  30    4.1784   474.1    5.203      40.479
2015    5        2    20  36    4.1766   474.1    5.201      40.469
2015    5        2    20  42    4.1748   474.1    5.199      40.459
2015    5        2    20  48    4.1730   474.1    5.197      40.449
2015    5        2    20  55    4.1712   474.1    5.195      40.439
2015    5        2    21   1    4.1694   474.1    5.193      40.429
2015    5        2    21   7    4.1675   474.1    5.191      40.419
2015    5        2    21  13    4.1657   474.1    5.189      40.409
2015    5        2    21  19    4.1639   474.1    5.187      40.399
2015    5        2    21  25    4.1620   474.1    5.185      40.389
2015    5        2    21  31    4.1602   474.1    5.183      40.379
2015    5        2    21  37    4.1584   474.1    5.182      40.368
2015    5        2    21  43    4.1565   474.1    5.180      40.358
2015    5        2    21  50    4.1547   474.1    5.178      40.348
2015    5        2    21  56    4.1528   474.1    5.176      40.337
2015    5        2    22   2    4.1510   474.1    5.174      40.327
2015    5        2    22   8    4.1492   474.0    5.172      40.316
2015    5        2    22  14    4.1473   474.0    5.170      40.306
2015    5        2    22  20    4.1455   474.0    5.168      40.295
2015    5        2    22  26    4.1437   474.0    5.166      40.285
2015    5        2    22  32    4.1418   474.0    5.164      40.274
2015    5        2    22  38    4.1400   474.0    5.162      40.264
2015    5        2    22  45    4.1382   474.0    5.160      40.253
2015    5        2    22  51    4.1364   474.0    5.159      40.242
2015    5        2    22  57    4.1346   474.0    5.157      40.232
2015    5        2    23   3    4.1328   474.0    5.155      40.221
2015    5        2    23   9    4.1310   474.0    5.153      40.211
2015    5        2    23  15    4.1292   473.9    5.151      40.200
2015    5        2    23  21    4.1274   473.9    5.149      40.189
2015    5        2    23  27    4.1256   473.9    5.147      40.178
2015    5        2    23  34    4.1238   473.9    5.145      40.168
2015    5        2    23  40    4.1221   473.9    5.143      40.157
2015    5        2    23  46    4.1203   473.9    5.142      40.146
2015    5        2    23  52    4.1185   473.9    5.140      40.135
2015    5        2    23  58    4.1168   473.9    5.138      40.124
2015    5        3     0   4    4.1151   473.9    5.136      40.113
2015    5        3     0  10    4.1133   473.8    5.134      40.103
2015    5        3     0  16    4.1116   473.8    5.132      40.092
2015    5        3     0  22    4.1099   473.8    5.130      40.081
2015    5        3     0  29    4.1082   473.8    5.128      40.070
2015    5        3     0  35    4.1064   473.8    5.126      40.059
2015    5        3     0  41    4.1047   473.8    5.125      40.048
2015    5        3     0  47    4.1030   473.8    5.123      40.037
2015    5        3     0  53    4.1013   473.8    5.121      40.026
2015    5        3     0  59    4.0996   473.7    5.119      40.015
2015    5        3     1   5    4.0980   473.7    5.117      40.004
2015    5        3     1  11    4.0963   473.7    5.115      39.992
2015    5        3     1  17    4.0946   473.7    5.113      39.981
2015    5        3     1  24    4.0929   473.7    5.112      39.970
2015    5        3     1  30    4.0912   473.7    5.110      39.959
2015    5        3     1  36    4.0895   473.7    5.108      39.948
2015    5        3     1  42    4.0878   473.6    5.106      39.936
2015    5        3     1  48    4.0861   473.6    5.105      39.925
2015    5        3     1  54    4.0843   473.6    5.103      39.914
2015    5        3     2   0    4.0826   473.6    5.101      39.902
2015    5        3     2   6    4.0808   473.6    5.099      39.891
2015    5        3     2  12    4.0791   473.6    5.098      39.880
2015    5        3     2  19    4.0773   473.5    5.096      39.869
2015    5        3     2  25    4.0756   473.5    5.094      39.858
2015    5        3     2  31    4.0738   473.5    5.093      39.847
2015    5        3     2  37    4.0720   473.5    5.091      39.836
2015    5        3     2  43    4.0702   473.5    5.089      39.825
2015    5        3     2  49    4.0684   473.5    5.088      39.814
2015    5        3     2  55    4.0666   473.4    5.086      39.803
2015    5        3     3   1    4.0648   473.4    5.084      39.792
2015    5        3     3   7    4.0630   473.4    5.082      39.781
2015    5        3     3  14    4.0611   473.4    5.081      39.770
2015    5        3     3  20    4.0593   473.4    5.079      39.758
2015    5        3     3  26    4.0575   473.4    5.077      39.747
2015    5        3     3  32    4.0556   473.3    5.076      39.736
2015    5        3     3  38    4.0538   473.3    5.074      39.724
2015    5        3     3  44    4.0519   473.3    5.073      39.713
2015    5        3     3  50    4.0501   473.3    5.071      39.702
2015    5        3     3  56    4.0482   473.3    5.069      39.690
2015    5        3     4   2    4.0463   473.2    5.068      39.678
2015    5        3     4   9    4.0445   473.2    5.066      39.667
2015    5        3     4  15    4.0426   473.2    5.065      39.655
2015    5        3     4  21    4.0407   473.2    5.063      39.643
2015    5        3     4  27    4.0388   473.2    5.061      39.632
2015    5        3     4  33    4.0369   473.1    5.060      39.620
2015    5        3     4  39    4.0350   473.1    5.058      39.608
2015    5        3     4  45    4.0331   473.1    5.057      39.596
2015    5        3     4  51    4.0312   473.1    5.055      39.584
2015    5        3     4  57    4.0293   473.1    5.054      39.572
2015    5        3     5   4    4.0274   473.0    5.052      39.560
2015    5        3     5  10    4.0255   473.0    5.050      39.548
2015    5        3     5  16    4.0236   473.0    5.049      39.535
2015    5        3     5  22    4.0217   473.0    5.047      39.523
2015    5        3     5  28    4.0198   472.9    5.046      39.511
2015    5        3     5  34    4.0178   472.9    5.044      39.498
2015    5        3     5  40    4.0159   472.9    5.042      39.486
2015    5        3     5  46    4.0140   472.8    5.041      39.473
2015    5        3     5  52    4.0121   472.8    5.039      39.461
2015    5        3     5  59    4.0102   472.8    5.037      39.448
2015    5        3     6   5    4.0083   472.8    5.036      39.435
2015    5        3     6  11    4.0065   472.7    5.034      39.422
2015    5        3     6  17    4.0046   472.7    5.032      39.409
2015    5        3     6  23    4.0027   472.7    5.030      39.395
2015    5        3     6  29    4.0008   472.6    5.028      39.381
2015    5        3     6  35    3.9990   472.6    5.027      39.367
2015    5        3     6  41    3.9971   472.6    5.025      39.353
2015    5        3     6  47    3.9953   472.5    5.023      39.339
2015    5        3     6  54    3.9934   472.5    5.021      39.325
2015    5        3     7   0    3.9916   472.5    5.019      39.310
2015    5        3     7   6    3.9898   472.4    5.018      39.295
2015    5        3     7  12    3.9880   472.4    5.016      39.281
2015    5        3     7  18    3.9862   472.4    5.014      39.266
2015    5        3     7  24    3.9844   472.3    5.012      39.251
2015    5        3     7  30    3.9827   472.3    5.011      39.236
2015    5        3     7  36    3.9809   472.3    5.009      39.221
2015    5        3     7  42    3.9791   472.2    5.007      39.206
2015    5        3     7  49    3.9774   472.2    5.006      39.191
2015    5        3     7  55    3.9756   472.2    5.004      39.176
2015    5        3     8   1    3.9739   472.1    5.002      39.161
2015    5        3     8   7    3.9722   472.1    5.001      39.147
2015    5        3     8  13    3.9704   472.1    4.999      39.132
2015    5        3     8  19    3.9687   472.0    4.998      39.117
2015    5        3     8  25    3.9669   472.0    4.996      39.102
2015    5        3     8  31    3.9652   472.0    4.995      39.088
2015    5        3     8  37    3.9634   471.9    4.993      39.073
2015    5        3     8  44    3.9616   471.9    4.992      39.059
2015    5        3     8  50    3.9599   471.9    4.990      39.045
2015    5        3     8  56    3.9581   471.8    4.989      39.030
2015    5        3     9   2    3.9562   471.8    4.987      39.016
2015    5        3     9   8    3.9544   471.8    4.986      39.002
2015    5        3     9  14    3.9526   471.7    4.984      38.987
2015    5        3     9  20    3.9507   471.7    4.982      38.972
2015    5        3     9  26    3.9489   471.7    4.981      38.957
2015    5        3     9  32    3.9470   471.6    4.979      38.942
2015    5        3     9  39    3.9451   471.6    4.978      38.927
2015    5        3     9  45    3.9432   471.6    4.976      38.913
2015    5        3     9  51    3.9414   471.5    4.974      38.898
2015    5        3     9  57    3.9395   471.5    4.973      38.883
2015    5        3    10   3    3.9376   471.4    4.971      38.868
2015    5        3    10   9    3.9356   471.4    4.969      38.852
2015    5        3    10  15    3.9337   471.4    4.967      38.837
2015    5        3    10  21    3.9318   471.3    4.965      38.822
2015    5        3    10  27    3.9299   471.3    4.964      38.806
2015    5        3    10  34    3.9280   471.3    4.962      38.790
2015    5        3    10  40    3.9261   471.2    4.960      38.774
2015    5        3    10  46    3.9241   471.2    4.958      38.758
2015    5        3    10  52    3.9222   471.1    4.956      38.742
2015    5        3    10  58    3.9203   471.1    4.954      38.726
2015    5        3    11   4    3.9183   471.0    4.953      38.709
2015    5        3    11  10    3.9164   471.0    4.951      38.693
2015    5        3    11  16    3.9145   471.0    4.949      38.677
2015    5        3    11  23    3.9125   470.9    4.947      38.660
2015    5        3    11  29    3.9106   470.9    4.946      38.644
2015    5        3    11  35    3.9087   470.8    4.944      38.627
2015    5        3    11  41    3.9068   470.8    4.942      38.611
2015    5        3    11  47    3.9048   470.7    4.940      38.594
2015    5        3    11  53    3.9029   470.7    4.939      38.578
2015    5        3    11  59    3.9010   470.7    4.937      38.561
2015    5        3    12   5    3.8991   470.6    4.936      38.545
2015    5        3    12  11    3.8972   470.6    4.934      38.529
2015    5        3    12  18    3.8953   470.5    4.932      38.513
2015    5        3    12  24    3.8934   470.5    4.931      38.497
2015    5        3    12  30    3.8915   470.4    4.929      38.480
2015    5        3    12  36    3.8896   470.4    4.928      38.465
2015    5        3    12  42    3.8877   470.3    4.926      38.449
2015    5        3    12  48    3.8858   470.3    4.925      38.433
2015    5        3    12  54    3.8839   470.2    4.924      38.417
2015    5        3    13   0    3.8820   470.2    4.922      38.401
2015    5        3    13   6    3.8801   470.1    4.921      38.386
2015    5        3    13  13    3.8783   470.1    4.919      38.370
2015    5        3    13  19    3.8764   470.0    4.918      38.355
2015    5        3    13  25    3.8745   470.0    4.916      38.339
2015    5        3    13  31    3.8727   469.9    4.915      38.323
2015    5        3    13  37    3.8708   469.9    4.913      38.307
2015    5        3    13  43    3.8690   469.8    4.912      38.290
2015    5        3    13  49    3.8672   469.7    4.910      38.274
2015    5        3    13  55    3.8653   469.7    4.909      38.257
2015    5        3    14   1    3.8635   469.6    4.907      38.240
2015    5        3    14   8    3.8617   469.6    4.906      38.224
2015    5        3    14  14    3.8599   469.5    4.904      38.207
2015    5        3    14  20    3.8582   469.5    4.903      38.190
2015    5        3    14  26    3.8564   469.4    4.902      38.173
2015    5        3    14  32    3.8546   469.3    4.900      38.156
2015    5        3    14  38    3.8529   469.3    4.899      38.139
2015    5        3    14  44    3.8512   469.2    4.898      38.122
2015    5        3    14  50    3.8495   469.2    4.897      38.105
2015    5        3    14  56    3.8478   469.1    4.896      38.088
2015    5        3    15   3    3.8461   469.1    4.895      38.071
2015    5        3    15   9    3.8444   469.0    4.894      38.054
2015    5        3    15  15    3.8427   468.9    4.893      38.037
2015    5        3    15  21    3.8410   468.9    4.892      38.020
2015    5        3    15  27    3.8393   468.8    4.891      38.003
2015    5        3    15  33    3.8375   468.8    4.890      37.986
2015    5        3    15  39    3.8358   468.7    4.889      37.969
2015    5        3    15  45    3.8340   468.7    4.888      37.952
2015    5        3    15  51    3.8323   468.6    4.887      37.935
2015    5        3    15  58    3.8305   468.5    4.886      37.918
2015    5        3    16   4    3.8287   468.5    4.885      37.901
2015    5        3    16  10    3.8269   468.4    4.884      37.884
2015    5        3    16  16    3.8251   468.4    4.883      37.867
2015    5        3    16  22    3.8233   468.3    4.882      37.850
2015    5        3    16  28    3.8214   468.2    4.880      37.832
2015    5        3    16  34    3.8196   468.2    4.879      37.814
2015    5        3    16  40    3.8178   468.1    4.878      37.795
2015    5        3    16  46    3.8159   468.1    4.876      37.777
2015    5        3    16  53    3.8141   468.0    4.875      37.758
2015    5        3    16  59    3.8122   467.9    4.874      37.739
2015    5        3    17   5    3.8104   467.9    4.872      37.720
2015    5        3    17  11    3.8085   467.8    4.871      37.700
2015    5        3    17  17    3.8067   467.7    4.869      37.681
2015    5        3    17  23    3.8049   467.7    4.868      37.660
2015    5        3    17  29    3.8030   467.6    4.866      37.640
2015    5        3    17  35    3.8011   467.6    4.865      37.619
2015    5        3    17  41    3.7993   467.5    4.863      37.598
2015    5        3    17  48    3.7974   467.4    4.862      37.577
2015    5        3    17  54    3.7956   467.4    4.860      37.556
2015    5        3    18   0    3.7938   467.3    4.858      37.535
2015    5        3    18   6    3.7919   467.2    4.857      37.513
2015    5        3    18  12    3.7900   467.2    4.855      37.491
2015    5        3    18  18    3.7882   467.1    4.854      37.470
2015    5        3    18  24    3.7863   467.0    4.852      37.448
2015    5        3    18  30    3.7845   467.0    4.850      37.426
2015    5        3    18  36    3.7826   466.9    4.849      37.404
2015    5        3    18  43    3.7807   466.8    4.847      37.382
2015    5        3    18  49    3.7789   466.7    4.846      37.359
2015    5        3    18  55    3.7770   466.7    4.844      37.337
2015    5        3    19   1    3.7752   466.6    4.843      37.315
2015    5        3    19   7    3.7734   466.5    4.841      37.293
2015    5        3    19  13    3.7715   466.5    4.840      37.271
2015    5        3    19  19    3.7697   466.4    4.838      37.249
2015    5        3    19  25    3.7678   466.3    4.837      37.227
2015    5        3    19  31    3.7660   466.2    4.835      37.205
2015    5        3    19  38    3.7642   466.2    4.834      37.184
2015    5        3    19  44    3.7624   466.1    4.833      37.162
2015    5        3    19  50    3.7606   466.0    4.831      37.141
2015    5        3    19  56    3.7588   466.0    4.830      37.119
2015    5        3    20   2    3.7570   465.9    4.829      37.098
2015    5        3    20   8    3.7552   465.8    4.827      37.076
2015    5        3    20  14    3.7534   465.7    4.826      37.055
2015    5        3    20  20    3.7516   465.7    4.825      37.034
2015    5        3    20  26    3.7499   465.6    4.824      37.013
2015    5        3    20  33    3.7481   465.5    4.822      36.992
2015    5        3    20  39    3.7464   465.4    4.821      36.971
2015    5        3    20  45    3.7446   465.3    4.820      36.950
2015    5        3    20  51    3.7429   465.3    4.819      36.930
2015    5        3    20  57    3.7411   465.2    4.818      36.909
2015    5        3    21   3    3.7394   465.1    4.817      36.889
2015    5        3    21   9    3.7377   465.0    4.816      36.868
2015    5        3    21  15    3.7360   464.9    4.814      36.848
2015    5        3    21  21    3.7343   464.8    4.813      36.828
2015    5        3    21  28    3.7327   464.8    4.812      36.807
2015    5        3    21  34    3.7310   464.7    4.812      36.787
2015    5        3    21  40    3.7294   464.6    4.811      36.767
2015    5        3    21  46    3.7278   464.5    4.810      36.748
2015    5        3    21  52    3.7262   464.4    4.809      36.728
2015    5        3    21  58    3.7246   464.3    4.808      36.709
2015    5        3    22   4    3.7230   464.3    4.807      36.690
2015    5        3    22  10    3.7214   464.2    4.807      36.670
2015    5        3    22  16    3.7199   464.1    4.806      36.651
2015    5        3    22  23    3.7183   464.0    4.806      36.632
2015    5        3    22  29    3.7168   463.9    4.805      36.613
2015    5        3    22  35    3.7152   463.8    4.804      36.594
2015    5        3    22  41    3.7136   463.7    4.804      36.575
2015    5        3    22  47    3.7121   463.7    4.803      36.556
2015    5        3    22  53    3.7105   463.6    4.803      36.537
2015    5        3    22  59    3.7089   463.5    4.802      36.518
2015    5        3    23   5    3.7073   463.4    4.801      36.499
2015    5        3    23  11    3.7058   463.3    4.801      36.480
2015    5        3    23  18    3.7042   463.2    4.800      36.461
2015    5        3    23  24    3.7026   463.1    4.800      36.441
2015    5        3    23  30    3.7010   463.1    4.799      36.421
2015    5        3    23  36    3.6993   463.0    4.798      36.401
2015    5        3    23  42    3.6977   462.9    4.798      36.381
2015    5        3    23  48    3.6961   462.8    4.797      36.361
2015    5        3    23  54    3.6945   462.7    4.796      36.340
2015    5        4     0   0    3.6929   462.6    4.796      36.319
