year    month   day   hour  minute  B_enl V_enl   n_enl       T_enl
[year] [month] [day] [hour][minute] [nT]  [km/s]  [cm-3]      [kK]
2015    4        5     0   1    3.9249   672.9    2.656      66.746
2015    4        5     0   7    3.9236   672.9    2.655      66.731
2015    4        5     0  13    3.9222   672.9    2.655      66.716
2015    4        5     0  19    3.9208   672.8    2.655      66.700
2015    4        5     0  25    3.9194   672.8    2.654      66.684
2015    4        5     0  31    3.9180   672.7    2.654      66.669
2015    4        5     0  37    3.9167   672.7    2.654      66.653
2015    4        5     0  43    3.9153   672.6    2.654      66.637
2015    4        5     0  48    3.9139   672.6    2.653      66.621
2015    4        5     0  54    3.9126   672.6    2.653      66.604
2015    4        5     1   0    3.9112   672.5    2.653      66.588
2015    4        5     1   6    3.9098   672.5    2.652      66.572
2015    4        5     1  12    3.9085   672.4    2.652      66.555
2015    4        5     1  18    3.9071   672.4    2.652      66.538
2015    4        5     1  24    3.9057   672.3    2.651      66.521
2015    4        5     1  30    3.9044   672.3    2.651      66.504
2015    4        5     1  36    3.9030   672.3    2.650      66.486
2015    4        5     1  42    3.9016   672.2    2.650      66.469
2015    4        5     1  48    3.9002   672.2    2.650      66.451
2015    4        5     1  54    3.8989   672.1    2.649      66.433
2015    4        5     2   0    3.8975   672.1    2.649      66.415
2015    4        5     2   6    3.8961   672.0    2.648      66.396
2015    4        5     2  12    3.8947   672.0    2.648      66.378
2015    4        5     2  18    3.8933   671.9    2.647      66.359
2015    4        5     2  24    3.8918   671.9    2.647      66.339
2015    4        5     2  30    3.8904   671.9    2.646      66.320
2015    4        5     2  36    3.8890   671.8    2.646      66.300
2015    4        5     2  42    3.8876   671.8    2.645      66.280
2015    4        5     2  48    3.8861   671.7    2.645      66.259
2015    4        5     2  54    3.8847   671.7    2.644      66.238
2015    4        5     3   0    3.8832   671.6    2.644      66.217
2015    4        5     3   6    3.8817   671.6    2.643      66.196
2015    4        5     3  12    3.8802   671.5    2.642      66.174
2015    4        5     3  18    3.8787   671.5    2.642      66.152
2015    4        5     3  24    3.8772   671.4    2.641      66.130
2015    4        5     3  30    3.8757   671.4    2.641      66.108
2015    4        5     3  36    3.8742   671.3    2.640      66.086
2015    4        5     3  42    3.8727   671.3    2.640      66.063
2015    4        5     3  48    3.8712   671.2    2.639      66.040
2015    4        5     3  54    3.8696   671.2    2.638      66.018
2015    4        5     4   0    3.8681   671.1    2.638      65.995
2015    4        5     4   6    3.8665   671.1    2.637      65.973
2015    4        5     4  12    3.8650   671.0    2.637      65.950
2015    4        5     4  18    3.8634   671.0    2.636      65.928
2015    4        5     4  24    3.8619   670.9    2.636      65.905
2015    4        5     4  30    3.8603   670.9    2.635      65.883
2015    4        5     4  36    3.8587   670.8    2.635      65.861
2015    4        5     4  42    3.8571   670.7    2.634      65.839
2015    4        5     4  48    3.8556   670.7    2.634      65.817
2015    4        5     4  54    3.8540   670.6    2.634      65.795
2015    4        5     5   0    3.8524   670.5    2.633      65.774
2015    4        5     5   6    3.8508   670.5    2.633      65.752
2015    4        5     5  12    3.8493   670.4    2.633      65.731
2015    4        5     5  18    3.8477   670.4    2.632      65.710
2015    4        5     5  24    3.8461   670.3    2.632      65.689
2015    4        5     5  30    3.8445   670.2    2.632      65.669
2015    4        5     5  36    3.8430   670.1    2.632      65.648
2015    4        5     5  42    3.8414   670.1    2.632      65.628
2015    4        5     5  48    3.8398   670.0    2.631      65.608
2015    4        5     5  54    3.8383   669.9    2.631      65.588
2015    4        5     6   0    3.8367   669.9    2.631      65.568
2015    4        5     6   6    3.8352   669.8    2.631      65.549
2015    4        5     6  12    3.8336   669.7    2.631      65.529
2015    4        5     6  18    3.8321   669.7    2.631      65.510
2015    4        5     6  24    3.8305   669.6    2.631      65.491
2015    4        5     6  30    3.8290   669.5    2.631      65.472
2015    4        5     6  36    3.8274   669.4    2.631      65.453
2015    4        5     6  42    3.8259   669.4    2.631      65.434
2015    4        5     6  48    3.8244   669.3    2.631      65.416
2015    4        5     6  54    3.8228   669.2    2.631      65.397
2015    4        5     7   0    3.8213   669.2    2.630      65.378
2015    4        5     7   6    3.8197   669.1    2.630      65.359
2015    4        5     7  12    3.8182   669.0    2.630      65.339
2015    4        5     7  18    3.8166   668.9    2.630      65.319
2015    4        5     7  24    3.8150   668.9    2.630      65.298
2015    4        5     7  30    3.8135   668.8    2.629      65.277
2015    4        5     7  36    3.8119   668.7    2.629      65.254
2015    4        5     7  42    3.8104   668.6    2.629      65.232
2015    4        5     7  48    3.8088   668.6    2.628      65.208
2015    4        5     7  54    3.8072   668.5    2.628      65.184
2015    4        5     8   0    3.8056   668.4    2.628      65.159
2015    4        5     8   6    3.8040   668.3    2.627      65.134
2015    4        5     8  12    3.8024   668.3    2.627      65.108
2015    4        5     8  18    3.8008   668.2    2.626      65.082
2015    4        5     8  24    3.7992   668.1    2.626      65.054
2015    4        5     8  30    3.7976   668.0    2.625      65.027
2015    4        5     8  36    3.7960   668.0    2.624      64.998
2015    4        5     8  42    3.7944   667.9    2.624      64.969
2015    4        5     8  48    3.7928   667.8    2.623      64.940
2015    4        5     8  54    3.7911   667.7    2.622      64.910
2015    4        5     9   0    3.7895   667.7    2.622      64.880
2015    4        5     9   6    3.7879   667.6    2.621      64.849
2015    4        5     9  12    3.7862   667.5    2.620      64.818
2015    4        5     9  18    3.7846   667.4    2.620      64.786
2015    4        5     9  24    3.7829   667.3    2.619      64.754
2015    4        5     9  30    3.7813   667.2    2.618      64.722
2015    4        5     9  36    3.7796   667.2    2.617      64.689
2015    4        5     9  42    3.7780   667.1    2.616      64.656
2015    4        5     9  48    3.7763   667.0    2.616      64.622
2015    4        5     9  54    3.7746   666.9    2.615      64.589
2015    4        5    10   0    3.7730   666.8    2.614      64.555
2015    4        5    10   6    3.7713   666.7    2.613      64.522
2015    4        5    10  12    3.7696   666.6    2.612      64.488
2015    4        5    10  18    3.7680   666.5    2.612      64.455
2015    4        5    10  24    3.7663   666.4    2.611      64.421
2015    4        5    10  30    3.7646   666.3    2.610      64.388
2015    4        5    10  36    3.7630   666.2    2.610      64.355
2015    4        5    10  42    3.7613   666.1    2.609      64.323
2015    4        5    10  48    3.7597   666.0    2.608      64.290
2015    4        5    10  54    3.7580   665.9    2.608      64.258
2015    4        5    11   0    3.7564   665.8    2.607      64.226
2015    4        5    11   6    3.7547   665.7    2.607      64.195
2015    4        5    11  12    3.7531   665.6    2.606      64.164
2015    4        5    11  18    3.7514   665.5    2.606      64.133
2015    4        5    11  24    3.7498   665.4    2.605      64.103
2015    4        5    11  30    3.7481   665.3    2.605      64.073
2015    4        5    11  36    3.7465   665.2    2.605      64.044
2015    4        5    11  42    3.7448   665.1    2.605      64.015
2015    4        5    11  48    3.7432   665.0    2.604      63.986
2015    4        5    11  54    3.7415   664.9    2.604      63.958
2015    4        5    12   0    3.7399   664.8    2.604      63.930
2015    4        5    12   6    3.7382   664.7    2.604      63.902
2015    4        5    12  12    3.7365   664.6    2.604      63.875
2015    4        5    12  18    3.7349   664.5    2.604      63.847
2015    4        5    12  24    3.7332   664.4    2.604      63.820
2015    4        5    12  30    3.7315   664.3    2.604      63.793
2015    4        5    12  36    3.7298   664.2    2.604      63.766
2015    4        5    12  42    3.7281   664.0    2.604      63.739
2015    4        5    12  48    3.7264   663.9    2.604      63.712
2015    4        5    12  54    3.7247   663.8    2.604      63.685
2015    4        5    13   0    3.7230   663.7    2.604      63.659
2015    4        5    13   6    3.7213   663.6    2.604      63.632
2015    4        5    13  12    3.7196   663.5    2.604      63.605
2015    4        5    13  18    3.7179   663.4    2.604      63.578
2015    4        5    13  24    3.7162   663.3    2.605      63.551
2015    4        5    13  30    3.7145   663.2    2.605      63.524
2015    4        5    13  36    3.7127   663.1    2.605      63.497
2015    4        5    13  42    3.7110   663.0    2.605      63.470
2015    4        5    13  48    3.7092   662.8    2.605      63.442
2015    4        5    13  54    3.7075   662.7    2.605      63.415
2015    4        5    14   0    3.7057   662.6    2.605      63.387
2015    4        5    14   6    3.7039   662.5    2.605      63.359
2015    4        5    14  12    3.7021   662.4    2.605      63.330
2015    4        5    14  18    3.7003   662.3    2.605      63.301
2015    4        5    14  24    3.6985   662.2    2.604      63.270
2015    4        5    14  30    3.6967   662.1    2.604      63.239
2015    4        5    14  35    3.6949   661.9    2.604      63.207
2015    4        5    14  41    3.6931   661.8    2.603      63.175
2015    4        5    14  47    3.6912   661.7    2.603      63.141
2015    4        5    14  53    3.6894   661.6    2.603      63.106
2015    4        5    14  59    3.6876   661.5    2.602      63.071
2015    4        5    15   5    3.6857   661.4    2.602      63.035
2015    4        5    15  11    3.6839   661.2    2.601      62.998
2015    4        5    15  17    3.6820   661.1    2.601      62.960
2015    4        5    15  23    3.6802   661.0    2.600      62.922
2015    4        5    15  29    3.6783   660.9    2.599      62.883
2015    4        5    15  35    3.6764   660.8    2.599      62.843
2015    4        5    15  41    3.6746   660.6    2.598      62.803
2015    4        5    15  47    3.6727   660.5    2.597      62.762
2015    4        5    15  53    3.6709   660.4    2.597      62.720
2015    4        5    15  59    3.6690   660.3    2.596      62.678
2015    4        5    16   5    3.6671   660.1    2.595      62.635
2015    4        5    16  11    3.6652   660.0    2.594      62.592
2015    4        5    16  17    3.6634   659.9    2.594      62.549
2015    4        5    16  23    3.6615   659.7    2.593      62.506
2015    4        5    16  29    3.6597   659.6    2.592      62.463
2015    4        5    16  35    3.6578   659.4    2.591      62.419
2015    4        5    16  41    3.6560   659.3    2.591      62.376
2015    4        5    16  47    3.6542   659.2    2.590      62.334
2015    4        5    16  53    3.6523   659.0    2.589      62.291
2015    4        5    16  59    3.6505   658.9    2.589      62.249
2015    4        5    17   5    3.6488   658.7    2.588      62.208
2015    4        5    17  11    3.6470   658.6    2.588      62.167
2015    4        5    17  17    3.6452   658.4    2.587      62.127
2015    4        5    17  23    3.6435   658.3    2.587      62.088
2015    4        5    17  29    3.6418   658.1    2.587      62.049
2015    4        5    17  35    3.6400   658.0    2.586      62.011
2015    4        5    17  41    3.6383   657.8    2.586      61.974
2015    4        5    17  47    3.6366   657.7    2.586      61.937
2015    4        5    17  53    3.6349   657.5    2.586      61.901
2015    4        5    17  59    3.6332   657.4    2.585      61.865
2015    4        5    18   5    3.6315   657.2    2.585      61.830
2015    4        5    18  11    3.6298   657.1    2.585      61.795
2015    4        5    18  17    3.6281   656.9    2.585      61.760
2015    4        5    18  23    3.6263   656.8    2.585      61.725
2015    4        5    18  29    3.6246   656.6    2.585      61.689
2015    4        5    18  35    3.6229   656.5    2.584      61.654
2015    4        5    18  41    3.6212   656.3    2.584      61.618
2015    4        5    18  47    3.6194   656.2    2.584      61.582
2015    4        5    18  53    3.6177   656.0    2.584      61.546
2015    4        5    18  59    3.6159   655.9    2.584      61.510
2015    4        5    19   5    3.6141   655.7    2.584      61.474
2015    4        5    19  11    3.6124   655.6    2.584      61.437
2015    4        5    19  17    3.6106   655.4    2.583      61.400
2015    4        5    19  23    3.6088   655.3    2.583      61.363
2015    4        5    19  29    3.6070   655.1    2.583      61.326
2015    4        5    19  35    3.6052   655.0    2.583      61.288
2015    4        5    19  41    3.6033   654.8    2.583      61.250
2015    4        5    19  47    3.6015   654.7    2.582      61.211
2015    4        5    19  53    3.5996   654.5    2.582      61.172
2015    4        5    19  59    3.5978   654.4    2.582      61.133
2015    4        5    20   5    3.5959   654.2    2.582      61.093
2015    4        5    20  11    3.5940   654.1    2.581      61.053
2015    4        5    20  17    3.5921   653.9    2.581      61.012
2015    4        5    20  23    3.5902   653.7    2.581      60.971
2015    4        5    20  29    3.5883   653.6    2.581      60.930
2015    4        5    20  35    3.5864   653.4    2.581      60.888
2015    4        5    20  41    3.5845   653.3    2.580      60.846
2015    4        5    20  47    3.5826   653.1    2.580      60.804
2015    4        5    20  53    3.5807   652.9    2.580      60.762
2015    4        5    20  59    3.5787   652.8    2.580      60.719
2015    4        5    21   5    3.5768   652.6    2.580      60.677
2015    4        5    21  11    3.5749   652.4    2.580      60.634
2015    4        5    21  17    3.5729   652.3    2.579      60.592
2015    4        5    21  23    3.5710   652.1    2.579      60.549
2015    4        5    21  29    3.5691   651.9    2.579      60.506
2015    4        5    21  35    3.5671   651.8    2.579      60.464
2015    4        5    21  41    3.5652   651.6    2.579      60.421
2015    4        5    21  47    3.5633   651.4    2.579      60.379
2015    4        5    21  53    3.5614   651.2    2.579      60.337
2015    4        5    21  59    3.5595   651.1    2.579      60.294
2015    4        5    22   5    3.5576   650.9    2.579      60.252
2015    4        5    22  11    3.5557   650.7    2.579      60.210
2015    4        5    22  17    3.5538   650.5    2.579      60.168
2015    4        5    22  23    3.5519   650.4    2.579      60.125
2015    4        5    22  29    3.5500   650.2    2.579      60.083
2015    4        5    22  34    3.5482   650.0    2.579      60.041
2015    4        5    22  40    3.5463   649.8    2.579      59.998
2015    4        5    22  46    3.5444   649.6    2.579      59.955
2015    4        5    22  52    3.5425   649.5    2.579      59.911
2015    4        5    22  58    3.5406   649.3    2.579      59.868
2015    4        5    23   4    3.5387   649.1    2.579      59.823
2015    4        5    23  10    3.5368   648.9    2.579      59.779
2015    4        5    23  16    3.5349   648.7    2.578      59.733
2015    4        5    23  22    3.5330   648.6    2.578      59.688
2015    4        5    23  28    3.5311   648.4    2.578      59.642
2015    4        5    23  34    3.5292   648.2    2.578      59.596
2015    4        5    23  40    3.5273   648.0    2.578      59.550
2015    4        5    23  46    3.5254   647.8    2.577      59.503
2015    4        5    23  52    3.5235   647.6    2.577      59.457
2015    4        5    23  58    3.5216   647.5    2.577      59.411
2015    4        6     0   4    3.5198   647.3    2.577      59.365
2015    4        6     0  10    3.5179   647.1    2.577      59.320
2015    4        6     0  16    3.5161   646.9    2.576      59.275
2015    4        6     0  22    3.5142   646.7    2.576      59.230
2015    4        6     0  28    3.5124   646.5    2.576      59.185
2015    4        6     0  34    3.5106   646.3    2.576      59.141
2015    4        6     0  40    3.5088   646.1    2.576      59.097
2015    4        6     0  46    3.5069   646.0    2.576      59.054
2015    4        6     0  52    3.5051   645.8    2.576      59.011
2015    4        6     0  58    3.5034   645.6    2.576      58.968
2015    4        6     1   4    3.5015   645.4    2.576      58.926
2015    4        6     1  10    3.4997   645.2    2.576      58.884
2015    4        6     1  16    3.4979   645.0    2.576      58.842
2015    4        6     1  22    3.4961   644.8    2.576      58.800
2015    4        6     1  28    3.4943   644.6    2.576      58.758
2015    4        6     1  34    3.4925   644.4    2.576      58.717
2015    4        6     1  40    3.4907   644.2    2.576      58.675
2015    4        6     1  46    3.4888   644.1    2.577      58.633
2015    4        6     1  52    3.4870   643.9    2.577      58.591
2015    4        6     1  58    3.4852   643.7    2.577      58.548
2015    4        6     2   4    3.4834   643.5    2.577      58.506
2015    4        6     2  10    3.4816   643.3    2.577      58.464
2015    4        6     2  16    3.4797   643.1    2.577      58.422
2015    4        6     2  22    3.4779   642.9    2.577      58.379
2015    4        6     2  28    3.4761   642.7    2.577      58.336
2015    4        6     2  34    3.4742   642.5    2.577      58.293
2015    4        6     2  40    3.4724   642.3    2.577      58.250
2015    4        6     2  46    3.4705   642.1    2.577      58.207
2015    4        6     2  52    3.4686   641.9    2.577      58.163
2015    4        6     2  58    3.4668   641.7    2.577      58.120
2015    4        6     3   4    3.4649   641.5    2.577      58.075
2015    4        6     3  10    3.4630   641.3    2.577      58.030
2015    4        6     3  16    3.4610   641.1    2.577      57.983
2015    4        6     3  22    3.4591   640.9    2.577      57.937
2015    4        6     3  28    3.4572   640.8    2.577      57.889
2015    4        6     3  34    3.4552   640.6    2.576      57.842
2015    4        6     3  40    3.4533   640.4    2.576      57.793
2015    4        6     3  46    3.4514   640.1    2.576      57.744
2015    4        6     3  52    3.4494   639.9    2.576      57.695
2015    4        6     3  58    3.4474   639.7    2.576      57.645
2015    4        6     4   4    3.4455   639.5    2.575      57.596
2015    4        6     4  10    3.4435   639.3    2.575      57.545
2015    4        6     4  16    3.4416   639.1    2.575      57.495
2015    4        6     4  22    3.4396   638.9    2.575      57.445
2015    4        6     4  28    3.4377   638.7    2.575      57.395
2015    4        6     4  34    3.4357   638.5    2.574      57.345
2015    4        6     4  40    3.4338   638.3    2.574      57.295
2015    4        6     4  46    3.4318   638.1    2.574      57.245
2015    4        6     4  52    3.4299   637.8    2.574      57.196
2015    4        6     4  58    3.4280   637.6    2.574      57.146
2015    4        6     5   4    3.4261   637.4    2.574      57.097
2015    4        6     5  10    3.4242   637.2    2.574      57.048
2015    4        6     5  16    3.4223   637.0    2.574      56.999
2015    4        6     5  22    3.4204   636.7    2.574      56.951
2015    4        6     5  28    3.4185   636.5    2.574      56.903
2015    4        6     5  33    3.4167   636.3    2.575      56.855
2015    4        6     5  39    3.4148   636.1    2.575      56.808
2015    4        6     5  45    3.4129   635.8    2.575      56.761
2015    4        6     5  51    3.4111   635.6    2.575      56.715
2015    4        6     5  57    3.4093   635.4    2.576      56.669
2015    4        6     6   3    3.4074   635.2    2.576      56.623
2015    4        6     6   9    3.4056   634.9    2.576      56.578
2015    4        6     6  15    3.4038   634.7    2.577      56.533
2015    4        6     6  21    3.4020   634.5    2.577      56.488
2015    4        6     6  27    3.4002   634.2    2.577      56.443
2015    4        6     6  33    3.3984   634.0    2.578      56.398
2015    4        6     6  39    3.3966   633.8    2.578      56.354
2015    4        6     6  45    3.3948   633.5    2.579      56.309
2015    4        6     6  51    3.3930   633.3    2.579      56.264
2015    4        6     6  57    3.3912   633.1    2.580      56.219
2015    4        6     7   3    3.3894   632.9    2.580      56.174
2015    4        6     7   9    3.3876   632.6    2.580      56.128
2015    4        6     7  15    3.3858   632.4    2.581      56.082
2015    4        6     7  21    3.3840   632.2    2.581      56.035
2015    4        6     7  27    3.3822   631.9    2.581      55.988
2015    4        6     7  33    3.3803   631.7    2.581      55.940
2015    4        6     7  39    3.3785   631.5    2.582      55.892
2015    4        6     7  45    3.3767   631.2    2.582      55.843
2015    4        6     7  51    3.3748   631.0    2.582      55.794
2015    4        6     7  57    3.3730   630.8    2.582      55.745
2015    4        6     8   3    3.3711   630.5    2.582      55.695
2015    4        6     8   9    3.3693   630.3    2.583      55.645
2015    4        6     8  15    3.3674   630.1    2.583      55.596
2015    4        6     8  21    3.3656   629.9    2.583      55.546
2015    4        6     8  27    3.3638   629.6    2.583      55.497
2015    4        6     8  33    3.3619   629.4    2.583      55.447
2015    4        6     8  39    3.3601   629.2    2.584      55.398
2015    4        6     8  45    3.3582   628.9    2.584      55.349
2015    4        6     8  51    3.3564   628.7    2.584      55.300
2015    4        6     8  57    3.3546   628.5    2.584      55.251
2015    4        6     9   3    3.3528   628.2    2.585      55.203
2015    4        6     9   9    3.3510   628.0    2.585      55.155
2015    4        6     9  15    3.3492   627.8    2.585      55.107
2015    4        6     9  21    3.3474   627.5    2.586      55.059
2015    4        6     9  27    3.3456   627.3    2.586      55.012
2015    4        6     9  33    3.3438   627.1    2.587      54.965
2015    4        6     9  39    3.3420   626.8    2.587      54.918
2015    4        6     9  45    3.3402   626.6    2.588      54.871
2015    4        6     9  51    3.3384   626.4    2.588      54.825
2015    4        6     9  57    3.3366   626.1    2.589      54.779
2015    4        6    10   3    3.3348   625.9    2.589      54.732
2015    4        6    10   9    3.3330   625.6    2.589      54.685
2015    4        6    10  15    3.3312   625.4    2.590      54.639
2015    4        6    10  21    3.3294   625.2    2.590      54.592
2015    4        6    10  27    3.3275   624.9    2.591      54.545
2015    4        6    10  33    3.3257   624.7    2.591      54.498
2015    4        6    10  39    3.3239   624.5    2.592      54.451
2015    4        6    10  45    3.3221   624.2    2.592      54.405
2015    4        6    10  51    3.3203   624.0    2.593      54.359
2015    4        6    10  57    3.3185   623.7    2.594      54.313
2015    4        6    11   3    3.3167   623.5    2.594      54.267
2015    4        6    11   9    3.3149   623.3    2.595      54.221
2015    4        6    11  15    3.3131   623.0    2.595      54.176
2015    4        6    11  21    3.3114   622.8    2.596      54.130
2015    4        6    11  27    3.3096   622.5    2.596      54.085
2015    4        6    11  33    3.3078   622.3    2.597      54.040
2015    4        6    11  39    3.3060   622.0    2.597      53.995
2015    4        6    11  45    3.3042   621.8    2.598      53.949
2015    4        6    11  51    3.3024   621.6    2.598      53.904
2015    4        6    11  57    3.3006   621.3    2.598      53.858
2015    4        6    12   3    3.2988   621.1    2.599      53.812
2015    4        6    12   9    3.2969   620.8    2.599      53.765
2015    4        6    12  15    3.2951   620.6    2.599      53.717
2015    4        6    12  21    3.2933   620.3    2.599      53.669
2015    4        6    12  27    3.2915   620.1    2.599      53.620
2015    4        6    12  33    3.2897   619.8    2.600      53.571
2015    4        6    12  39    3.2879   619.6    2.600      53.521
2015    4        6    12  45    3.2861   619.3    2.600      53.471
2015    4        6    12  51    3.2843   619.1    2.600      53.422
2015    4        6    12  57    3.2825   618.8    2.600      53.372
2015    4        6    13   3    3.2807   618.5    2.601      53.322
2015    4        6    13   9    3.2789   618.3    2.601      53.272
2015    4        6    13  15    3.2772   618.0    2.601      53.222
2015    4        6    13  21    3.2754   617.8    2.601      53.173
2015    4        6    13  27    3.2737   617.5    2.602      53.125
2015    4        6    13  33    3.2720   617.2    2.602      53.076
2015    4        6    13  39    3.2702   617.0    2.602      53.029
2015    4        6    13  45    3.2686   616.7    2.603      52.981
2015    4        6    13  51    3.2669   616.5    2.603      52.934
2015    4        6    13  57    3.2652   616.2    2.604      52.888
2015    4        6    14   3    3.2635   615.9    2.604      52.841
2015    4        6    14   9    3.2619   615.7    2.605      52.794
2015    4        6    14  15    3.2602   615.4    2.606      52.748
2015    4        6    14  21    3.2586   615.1    2.606      52.701
2015    4        6    14  27    3.2569   614.9    2.607      52.654
2015    4        6    14  33    3.2553   614.6    2.607      52.607
2015    4        6    14  39    3.2536   614.3    2.608      52.560
2015    4        6    14  45    3.2519   614.1    2.609      52.512
2015    4        6    14  51    3.2502   613.8    2.609      52.463
2015    4        6    14  57    3.2486   613.5    2.610      52.415
2015    4        6    15   3    3.2469   613.2    2.610      52.366
2015    4        6    15   9    3.2452   613.0    2.611      52.317
2015    4        6    15  15    3.2436   612.7    2.612      52.268
2015    4        6    15  21    3.2419   612.4    2.612      52.220
2015    4        6    15  27    3.2403   612.1    2.613      52.171
2015    4        6    15  33    3.2386   611.9    2.614      52.123
2015    4        6    15  39    3.2370   611.6    2.615      52.075
2015    4        6    15  45    3.2354   611.3    2.616      52.027
2015    4        6    15  51    3.2338   611.0    2.616      51.980
2015    4        6    15  56    3.2322   610.8    2.617      51.933
2015    4        6    16   2    3.2306   610.5    2.618      51.886
2015    4        6    16   8    3.2290   610.2    2.619      51.839
2015    4        6    16  14    3.2274   610.0    2.620      51.791
2015    4        6    16  20    3.2258   609.7    2.621      51.744
2015    4        6    16  26    3.2241   609.4    2.621      51.697
2015    4        6    16  32    3.2225   609.1    2.622      51.650
2015    4        6    16  38    3.2209   608.9    2.623      51.602
2015    4        6    16  44    3.2193   608.6    2.624      51.554
2015    4        6    16  50    3.2176   608.3    2.624      51.506
2015    4        6    16  56    3.2160   608.0    2.625      51.457
2015    4        6    17   2    3.2144   607.7    2.626      51.408
2015    4        6    17   8    3.2127   607.4    2.626      51.359
2015    4        6    17  14    3.2111   607.2    2.627      51.310
2015    4        6    17  20    3.2095   606.9    2.628      51.261
2015    4        6    17  26    3.2079   606.6    2.629      51.212
2015    4        6    17  32    3.2062   606.3    2.629      51.163
2015    4        6    17  38    3.2046   606.0    2.630      51.115
2015    4        6    17  44    3.2030   605.8    2.631      51.066
2015    4        6    17  50    3.2014   605.5    2.632      51.018
2015    4        6    17  56    3.1999   605.2    2.632      50.971
2015    4        6    18   2    3.1983   604.9    2.633      50.923
2015    4        6    18   8    3.1968   604.6    2.634      50.877
2015    4        6    18  14    3.1952   604.3    2.635      50.830
2015    4        6    18  20    3.1937   604.1    2.636      50.784
2015    4        6    18  26    3.1922   603.8    2.637      50.739
2015    4        6    18  32    3.1907   603.5    2.638      50.694
2015    4        6    18  38    3.1892   603.2    2.639      50.650
2015    4        6    18  44    3.1877   602.9    2.640      50.606
2015    4        6    18  50    3.1862   602.7    2.642      50.562
2015    4        6    18  56    3.1847   602.4    2.643      50.520
2015    4        6    19   2    3.1833   602.1    2.644      50.477
2015    4        6    19   8    3.1818   601.8    2.645      50.435
2015    4        6    19  14    3.1803   601.5    2.646      50.393
2015    4        6    19  20    3.1788   601.2    2.647      50.352
2015    4        6    19  26    3.1774   600.9    2.649      50.310
2015    4        6    19  32    3.1759   600.7    2.650      50.269
2015    4        6    19  38    3.1745   600.4    2.651      50.227
2015    4        6    19  44    3.1730   600.1    2.652      50.186
2015    4        6    19  50    3.1716   599.8    2.653      50.144
2015    4        6    19  56    3.1702   599.5    2.655      50.103
2015    4        6    20   2    3.1687   599.2    2.656      50.062
2015    4        6    20   8    3.1673   599.0    2.657      50.021
2015    4        6    20  14    3.1659   598.7    2.658      49.980
2015    4        6    20  20    3.1645   598.4    2.660      49.939
2015    4        6    20  26    3.1631   598.1    2.661      49.898
2015    4        6    20  32    3.1617   597.8    2.662      49.857
2015    4        6    20  38    3.1603   597.6    2.664      49.816
2015    4        6    20  44    3.1588   597.3    2.665      49.775
2015    4        6    20  50    3.1574   597.0    2.666      49.734
2015    4        6    20  56    3.1559   596.7    2.667      49.692
2015    4        6    21   2    3.1545   596.4    2.668      49.651
2015    4        6    21   8    3.1530   596.1    2.669      49.608
2015    4        6    21  14    3.1516   595.9    2.670      49.566
2015    4        6    21  20    3.1501   595.6    2.671      49.523
2015    4        6    21  26    3.1486   595.3    2.672      49.480
2015    4        6    21  32    3.1471   595.0    2.673      49.436
2015    4        6    21  38    3.1457   594.7    2.674      49.391
2015    4        6    21  44    3.1442   594.4    2.675      49.346
2015    4        6    21  50    3.1427   594.1    2.676      49.300
2015    4        6    21  56    3.1412   593.8    2.677      49.254
2015    4        6    22   2    3.1398   593.5    2.677      49.208
2015    4        6    22   8    3.1383   593.3    2.678      49.161
2015    4        6    22  14    3.1368   593.0    2.679      49.114
2015    4        6    22  20    3.1354   592.7    2.680      49.066
2015    4        6    22  26    3.1339   592.4    2.681      49.019
2015    4        6    22  32    3.1324   592.1    2.682      48.971
2015    4        6    22  38    3.1310   591.8    2.682      48.924
2015    4        6    22  44    3.1296   591.5    2.683      48.877
2015    4        6    22  50    3.1281   591.2    2.684      48.830
2015    4        6    22  56    3.1267   590.9    2.685      48.783
2015    4        6    23   2    3.1253   590.6    2.686      48.737
2015    4        6    23   8    3.1239   590.3    2.687      48.691
2015    4        6    23  14    3.1226   590.0    2.688      48.645
2015    4        6    23  20    3.1212   589.7    2.689      48.600
2015    4        6    23  26    3.1199   589.4    2.691      48.555
2015    4        6    23  32    3.1185   589.1    2.692      48.511
2015    4        6    23  38    3.1172   588.8    2.693      48.466
2015    4        6    23  44    3.1159   588.5    2.694      48.422
2015    4        6    23  50    3.1146   588.2    2.695      48.378
2015    4        6    23  56    3.1133   587.9    2.697      48.334
2015    4        7     0   2    3.1120   587.6    2.698      48.291
2015    4        7     0   8    3.1107   587.3    2.699      48.247
2015    4        7     0  14    3.1094   587.0    2.701      48.204
2015    4        7     0  20    3.1081   586.7    2.702      48.161
2015    4        7     0  26    3.1068   586.3    2.703      48.117
2015    4        7     0  32    3.1055   586.0    2.705      48.075
2015    4        7     0  38    3.1042   585.7    2.706      48.032
2015    4        7     0  44    3.1029   585.4    2.708      47.989
2015    4        7     0  50    3.1017   585.1    2.709      47.946
2015    4        7     0  56    3.1005   584.8    2.710      47.904
2015    4        7     1   2    3.0992   584.5    2.712      47.862
2015    4        7     1   8    3.0980   584.2    2.713      47.820
2015    4        7     1  14    3.0968   583.9    2.715      47.779
2015    4        7     1  20    3.0956   583.5    2.717      47.737
2015    4        7     1  26    3.0945   583.2    2.718      47.696
2015    4        7     1  32    3.0933   582.9    2.720      47.655
2015    4        7     1  38    3.0921   582.6    2.721      47.614
2015    4        7     1  44    3.0909   582.3    2.723      47.573
2015    4        7     1  50    3.0898   582.0    2.724      47.532
2015    4        7     1  56    3.0886   581.7    2.726      47.491
2015    4        7     2   2    3.0874   581.4    2.727      47.449
2015    4        7     2   8    3.0862   581.1    2.729      47.408
2015    4        7     2  14    3.0850   580.8    2.730      47.366
2015    4        7     2  20    3.0838   580.5    2.732      47.324
2015    4        7     2  26    3.0827   580.1    2.733      47.282
2015    4        7     2  32    3.0815   579.8    2.735      47.240
2015    4        7     2  38    3.0803   579.5    2.736      47.197
2015    4        7     2  44    3.0791   579.2    2.738      47.155
2015    4        7     2  50    3.0779   578.9    2.739      47.113
2015    4        7     2  56    3.0768   578.6    2.741      47.070
2015    4        7     3   2    3.0756   578.3    2.742      47.028
2015    4        7     3   8    3.0745   578.0    2.744      46.986
2015    4        7     3  14    3.0734   577.6    2.745      46.944
2015    4        7     3  20    3.0722   577.3    2.747      46.903
2015    4        7     3  26    3.0711   577.0    2.749      46.862
2015    4        7     3  31    3.0700   576.7    2.750      46.821
2015    4        7     3  37    3.0689   576.4    2.752      46.780
2015    4        7     3  43    3.0678   576.1    2.754      46.739
2015    4        7     3  49    3.0667   575.8    2.756      46.699
2015    4        7     3  55    3.0657   575.5    2.757      46.659
2015    4        7     4   1    3.0646   575.2    2.759      46.620
2015    4        7     4   7    3.0635   574.9    2.761      46.580
2015    4        7     4  13    3.0624   574.6    2.763      46.540
2015    4        7     4  19    3.0613   574.3    2.764      46.501
2015    4        7     4  25    3.0602   574.0    2.766      46.461
2015    4        7     4  31    3.0591   573.7    2.768      46.421
2015    4        7     4  37    3.0580   573.4    2.770      46.382
2015    4        7     4  43    3.0569   573.1    2.772      46.342
2015    4        7     4  49    3.0558   572.8    2.773      46.303
2015    4        7     4  55    3.0547   572.4    2.775      46.263
2015    4        7     5   1    3.0535   572.1    2.777      46.224
2015    4        7     5   7    3.0524   571.8    2.778      46.184
2015    4        7     5  13    3.0513   571.5    2.780      46.145
2015    4        7     5  19    3.0502   571.2    2.782      46.106
2015    4        7     5  25    3.0492   570.9    2.784      46.067
2015    4        7     5  31    3.0481   570.6    2.785      46.028
2015    4        7     5  37    3.0470   570.3    2.787      45.989
2015    4        7     5  43    3.0459   570.0    2.789      45.950
2015    4        7     5  49    3.0449   569.6    2.791      45.911
2015    4        7     5  55    3.0439   569.3    2.793      45.873
2015    4        7     6   1    3.0428   569.0    2.795      45.834
2015    4        7     6   7    3.0418   568.7    2.796      45.796
2015    4        7     6  13    3.0408   568.4    2.798      45.758
2015    4        7     6  19    3.0398   568.1    2.800      45.720
2015    4        7     6  25    3.0388   567.8    2.802      45.682
2015    4        7     6  31    3.0378   567.5    2.804      45.644
2015    4        7     6  37    3.0368   567.2    2.806      45.606
2015    4        7     6  43    3.0358   566.9    2.807      45.568
2015    4        7     6  49    3.0348   566.6    2.809      45.530
2015    4        7     6  55    3.0338   566.3    2.811      45.492
2015    4        7     7   1    3.0328   565.9    2.813      45.453
2015    4        7     7   7    3.0318   565.6    2.815      45.414
2015    4        7     7  13    3.0308   565.3    2.817      45.376
2015    4        7     7  19    3.0298   565.0    2.818      45.336
2015    4        7     7  25    3.0288   564.7    2.820      45.297
2015    4        7     7  31    3.0278   564.4    2.822      45.257
2015    4        7     7  37    3.0268   564.1    2.824      45.218
2015    4        7     7  43    3.0259   563.8    2.825      45.178
2015    4        7     7  49    3.0249   563.4    2.827      45.138
2015    4        7     7  55    3.0239   563.1    2.829      45.098
2015    4        7     8   1    3.0229   562.8    2.831      45.058
2015    4        7     8   7    3.0220   562.5    2.833      45.019
2015    4        7     8  13    3.0211   562.2    2.834      44.979
2015    4        7     8  19    3.0202   561.9    2.836      44.940
2015    4        7     8  25    3.0192   561.6    2.838      44.901
2015    4        7     8  31    3.0183   561.2    2.840      44.862
2015    4        7     8  37    3.0175   560.9    2.842      44.824
2015    4        7     8  43    3.0166   560.6    2.844      44.786
2015    4        7     8  49    3.0157   560.3    2.846      44.748
2015    4        7     8  55    3.0149   560.0    2.848      44.710
2015    4        7     9   1    3.0141   559.7    2.850      44.673
2015    4        7     9   7    3.0132   559.4    2.852      44.635
2015    4        7     9  13    3.0124   559.1    2.854      44.598
2015    4        7     9  19    3.0116   558.8    2.857      44.561
2015    4        7     9  25    3.0107   558.5    2.859      44.524
2015    4        7     9  31    3.0099   558.1    2.861      44.487
2015    4        7     9  37    3.0090   557.8    2.863      44.450
2015    4        7     9  43    3.0082   557.5    2.865      44.412
2015    4        7     9  49    3.0074   557.2    2.867      44.375
2015    4        7     9  55    3.0065   556.9    2.869      44.337
2015    4        7    10   1    3.0057   556.6    2.871      44.300
2015    4        7    10   7    3.0048   556.3    2.873      44.262
2015    4        7    10  13    3.0039   556.0    2.875      44.224
2015    4        7    10  19    3.0031   555.6    2.877      44.186
2015    4        7    10  25    3.0022   555.3    2.879      44.148
2015    4        7    10  31    3.0014   555.0    2.881      44.110
2015    4        7    10  37    3.0006   554.7    2.883      44.072
2015    4        7    10  43    2.9997   554.4    2.885      44.034
2015    4        7    10  49    2.9989   554.1    2.887      43.995
2015    4        7    10  55    2.9980   553.8    2.889      43.957
2015    4        7    11   1    2.9972   553.5    2.891      43.919
2015    4        7    11   7    2.9964   553.1    2.893      43.880
2015    4        7    11  13    2.9956   552.8    2.895      43.841
2015    4        7    11  19    2.9947   552.5    2.897      43.803
2015    4        7    11  25    2.9939   552.2    2.899      43.764
2015    4        7    11  31    2.9931   551.9    2.901      43.725
2015    4        7    11  36    2.9923   551.6    2.903      43.686
2015    4        7    11  42    2.9914   551.3    2.905      43.647
2015    4        7    11  48    2.9906   550.9    2.907      43.607
2015    4        7    11  54    2.9898   550.6    2.909      43.568
2015    4        7    12   0    2.9890   550.3    2.911      43.529
2015    4        7    12   6    2.9882   550.0    2.913      43.490
2015    4        7    12  12    2.9874   549.7    2.915      43.451
2015    4        7    12  18    2.9867   549.4    2.917      43.412
2015    4        7    12  24    2.9859   549.1    2.919      43.373
2015    4        7    12  30    2.9851   548.7    2.922      43.334
2015    4        7    12  36    2.9844   548.4    2.924      43.295
2015    4        7    12  42    2.9836   548.1    2.926      43.257
2015    4        7    12  48    2.9829   547.8    2.928      43.219
2015    4        7    12  54    2.9821   547.5    2.930      43.181
2015    4        7    13   0    2.9814   547.2    2.932      43.143
2015    4        7    13   6    2.9807   546.9    2.935      43.106
2015    4        7    13  12    2.9800   546.5    2.937      43.069
2015    4        7    13  18    2.9793   546.2    2.939      43.032
2015    4        7    13  24    2.9786   545.9    2.942      42.996
2015    4        7    13  30    2.9780   545.6    2.944      42.960
2015    4        7    13  36    2.9773   545.3    2.947      42.924
2015    4        7    13  42    2.9767   545.0    2.949      42.889
2015    4        7    13  48    2.9760   544.7    2.952      42.853
2015    4        7    13  54    2.9754   544.4    2.954      42.818
2015    4        7    14   0    2.9748   544.1    2.957      42.783
2015    4        7    14   6    2.9742   543.7    2.959      42.749
2015    4        7    14  12    2.9736   543.4    2.962      42.714
2015    4        7    14  18    2.9730   543.1    2.964      42.679
2015    4        7    14  24    2.9724   542.8    2.967      42.645
2015    4        7    14  30    2.9718   542.5    2.969      42.610
2015    4        7    14  36    2.9712   542.2    2.972      42.576
2015    4        7    14  42    2.9705   541.9    2.974      42.541
2015    4        7    14  48    2.9699   541.6    2.977      42.507
2015    4        7    14  54    2.9693   541.3    2.980      42.472
2015    4        7    15   0    2.9687   541.0    2.982      42.437
2015    4        7    15   6    2.9681   540.7    2.985      42.402
2015    4        7    15  12    2.9675   540.4    2.987      42.366
2015    4        7    15  18    2.9669   540.1    2.989      42.331
2015    4        7    15  24    2.9663   539.7    2.992      42.295
2015    4        7    15  30    2.9656   539.4    2.994      42.260
2015    4        7    15  36    2.9650   539.1    2.997      42.224
2015    4        7    15  42    2.9644   538.8    2.999      42.188
2015    4        7    15  48    2.9638   538.5    3.002      42.152
2015    4        7    15  54    2.9632   538.2    3.004      42.116
2015    4        7    16   0    2.9626   537.9    3.006      42.079
2015    4        7    16   6    2.9620   537.6    3.009      42.043
2015    4        7    16  12    2.9614   537.3    3.011      42.007
2015    4        7    16  18    2.9608   537.0    3.014      41.970
2015    4        7    16  24    2.9602   536.7    3.016      41.934
2015    4        7    16  30    2.9596   536.4    3.019      41.897
2015    4        7    16  36    2.9590   536.1    3.021      41.861
2015    4        7    16  42    2.9585   535.8    3.023      41.824
2015    4        7    16  48    2.9579   535.4    3.026      41.788
2015    4        7    16  54    2.9573   535.1    3.028      41.752
2015    4        7    17   0    2.9568   534.8    3.031      41.715
2015    4        7    17   6    2.9562   534.5    3.033      41.679
2015    4        7    17  12    2.9557   534.2    3.036      41.643
2015    4        7    17  18    2.9552   533.9    3.038      41.607
2015    4        7    17  24    2.9546   533.6    3.041      41.571
2015    4        7    17  30    2.9541   533.3    3.043      41.536
2015    4        7    17  36    2.9536   533.0    3.046      41.500
2015    4        7    17  42    2.9531   532.7    3.049      41.465
2015    4        7    17  48    2.9525   532.4    3.051      41.429
2015    4        7    17  54    2.9520   532.1    3.054      41.394
2015    4        7    18   0    2.9515   531.8    3.056      41.359
2015    4        7    18   6    2.9510   531.5    3.059      41.324
2015    4        7    18  12    2.9505   531.2    3.062      41.289
2015    4        7    18  18    2.9501   530.9    3.064      41.254
2015    4        7    18  24    2.9496   530.5    3.067      41.219
2015    4        7    18  30    2.9491   530.2    3.070      41.184
2015    4        7    18  36    2.9486   529.9    3.072      41.150
2015    4        7    18  42    2.9481   529.6    3.075      41.115
2015    4        7    18  47    2.9476   529.3    3.078      41.081
2015    4        7    18  53    2.9472   529.0    3.080      41.046
2015    4        7    18  59    2.9467   528.7    3.083      41.012
2015    4        7    19   5    2.9462   528.4    3.086      40.977
2015    4        7    19  11    2.9458   528.1    3.088      40.943
2015    4        7    19  17    2.9453   527.8    3.091      40.909
2015    4        7    19  23    2.9449   527.5    3.094      40.874
2015    4        7    19  29    2.9444   527.2    3.097      40.840
2015    4        7    19  35    2.9440   526.9    3.099      40.805
2015    4        7    19  41    2.9435   526.6    3.102      40.771
2015    4        7    19  47    2.9431   526.3    3.105      40.736
2015    4        7    19  53    2.9426   526.0    3.107      40.702
2015    4        7    19  59    2.9422   525.7    3.110      40.667
2015    4        7    20   5    2.9418   525.4    3.113      40.633
2015    4        7    20  11    2.9414   525.1    3.115      40.598
2015    4        7    20  17    2.9410   524.8    3.118      40.563
2015    4        7    20  23    2.9406   524.5    3.121      40.529
2015    4        7    20  29    2.9402   524.1    3.124      40.494
2015    4        7    20  35    2.9398   523.8    3.126      40.459
2015    4        7    20  41    2.9394   523.5    3.129      40.424
2015    4        7    20  47    2.9390   523.2    3.132      40.389
2015    4        7    20  53    2.9386   522.9    3.134      40.354
2015    4        7    20  59    2.9383   522.6    3.137      40.319
2015    4        7    21   5    2.9379   522.3    3.140      40.284
2015    4        7    21  11    2.9375   522.0    3.143      40.249
2015    4        7    21  17    2.9372   521.7    3.145      40.214
2015    4        7    21  23    2.9368   521.4    3.148      40.179
2015    4        7    21  29    2.9365   521.1    3.151      40.144
2015    4        7    21  35    2.9361   520.8    3.154      40.109
2015    4        7    21  41    2.9358   520.5    3.157      40.073
2015    4        7    21  47    2.9354   520.2    3.159      40.038
2015    4        7    21  53    2.9351   519.9    3.162      40.003
2015    4        7    21  59    2.9347   519.6    3.165      39.968
2015    4        7    22   5    2.9344   519.3    3.168      39.932
2015    4        7    22  11    2.9340   519.0    3.171      39.897
2015    4        7    22  17    2.9337   518.7    3.174      39.862
2015    4        7    22  23    2.9333   518.4    3.176      39.827
2015    4        7    22  29    2.9330   518.1    3.179      39.792
2015    4        7    22  35    2.9327   517.8    3.182      39.757
2015    4        7    22  41    2.9323   517.5    3.185      39.722
2015    4        7    22  47    2.9320   517.2    3.188      39.687
2015    4        7    22  53    2.9316   516.9    3.191      39.653
2015    4        7    22  59    2.9313   516.6    3.194      39.618
2015    4        7    23   5    2.9310   516.3    3.197      39.584
2015    4        7    23  11    2.9306   516.0    3.200      39.550
2015    4        7    23  17    2.9303   515.7    3.203      39.516
2015    4        7    23  23    2.9300   515.4    3.206      39.482
2015    4        7    23  29    2.9297   515.1    3.209      39.449
2015    4        7    23  35    2.9294   514.8    3.212      39.416
2015    4        7    23  41    2.9291   514.5    3.215      39.383
2015    4        7    23  47    2.9288   514.2    3.218      39.350
2015    4        7    23  53    2.9285   513.9    3.222      39.317
2015    4        7    23  59    2.9282   513.6    3.225      39.285
2015    4        8     0   5    2.9280   513.3    3.228      39.253
2015    4        8     0  11    2.9277   513.0    3.231      39.221
2015    4        8     0  17    2.9274   512.7    3.235      39.190
2015    4        8     0  23    2.9272   512.4    3.238      39.158
2015    4        8     0  29    2.9269   512.1    3.241      39.127
2015    4        8     0  35    2.9266   511.8    3.245      39.096
2015    4        8     0  41    2.9263   511.5    3.248      39.066
2015    4        8     0  47    2.9260   511.2    3.252      39.035
2015    4        8     0  53    2.9258   510.9    3.255      39.004
2015    4        8     0  59    2.9255   510.6    3.258      38.974
2015    4        8     1   5    2.9252   510.3    3.262      38.944
2015    4        8     1  11    2.9249   510.0    3.265      38.914
2015    4        8     1  17    2.9246   509.7    3.269      38.884
2015    4        8     1  23    2.9243   509.4    3.272      38.854
2015    4        8     1  29    2.9240   509.1    3.276      38.824
2015    4        8     1  35    2.9237   508.8    3.279      38.794
2015    4        8     1  41    2.9234   508.6    3.283      38.765
2015    4        8     1  47    2.9231   508.3    3.286      38.735
2015    4        8     1  53    2.9228   508.0    3.290      38.706
2015    4        8     1  58    2.9224   507.7    3.294      38.676
2015    4        8     2   4    2.9221   507.4    3.297      38.647
2015    4        8     2  10    2.9218   507.1    3.301      38.617
2015    4        8     2  16    2.9215   506.8    3.304      38.588
2015    4        8     2  22    2.9211   506.5    3.308      38.559
2015    4        8     2  28    2.9208   506.2    3.311      38.530
2015    4        8     2  34    2.9205   505.9    3.315      38.501
2015    4        8     2  40    2.9202   505.6    3.319      38.472
2015    4        8     2  46    2.9198   505.3    3.322      38.443
2015    4        8     2  52    2.9195   505.0    3.326      38.414
2015    4        8     2  58    2.9192   504.7    3.329      38.385
2015    4        8     3   4    2.9189   504.4    3.333      38.357
2015    4        8     3  10    2.9185   504.1    3.337      38.328
2015    4        8     3  16    2.9182   503.9    3.340      38.300
2015    4        8     3  22    2.9179   503.6    3.344      38.272
2015    4        8     3  28    2.9176   503.3    3.348      38.244
2015    4        8     3  34    2.9173   503.0    3.352      38.216
2015    4        8     3  40    2.9170   502.7    3.355      38.188
2015    4        8     3  46    2.9167   502.4    3.359      38.161
2015    4        8     3  52    2.9165   502.1    3.363      38.134
2015    4        8     3  58    2.9162   501.8    3.367      38.107
2015    4        8     4   4    2.9159   501.5    3.371      38.080
2015    4        8     4  10    2.9156   501.2    3.375      38.054
2015    4        8     4  16    2.9154   500.9    3.379      38.028
2015    4        8     4  22    2.9151   500.6    3.382      38.002
2015    4        8     4  28    2.9149   500.4    3.386      37.976
2015    4        8     4  34    2.9146   500.1    3.390      37.951
2015    4        8     4  40    2.9144   499.8    3.395      37.926
2015    4        8     4  46    2.9141   499.5    3.399      37.901
2015    4        8     4  52    2.9139   499.2    3.403      37.877
2015    4        8     4  58    2.9137   498.9    3.407      37.852
2015    4        8     5   4    2.9134   498.6    3.411      37.829
2015    4        8     5  10    2.9132   498.3    3.415      37.805
2015    4        8     5  16    2.9129   498.1    3.419      37.782
2015    4        8     5  22    2.9127   497.8    3.424      37.759
2015    4        8     5  28    2.9125   497.5    3.428      37.736
2015    4        8     5  34    2.9123   497.2    3.432      37.714
2015    4        8     5  40    2.9121   496.9    3.437      37.692
2015    4        8     5  46    2.9118   496.6    3.441      37.671
2015    4        8     5  52    2.9116   496.4    3.446      37.649
2015    4        8     5  58    2.9114   496.1    3.450      37.628
2015    4        8     6   4    2.9112   495.8    3.455      37.608
2015    4        8     6  10    2.9110   495.5    3.459      37.587
2015    4        8     6  16    2.9108   495.3    3.464      37.567
2015    4        8     6  22    2.9106   495.0    3.468      37.547
2015    4        8     6  28    2.9104   494.7    3.473      37.528
2015    4        8     6  34    2.9102   494.4    3.478      37.508
2015    4        8     6  40    2.9100   494.2    3.482      37.489
2015    4        8     6  46    2.9098   493.9    3.487      37.471
2015    4        8     6  52    2.9096   493.6    3.492      37.452
2015    4        8     6  58    2.9094   493.4    3.497      37.434
2015    4        8     7   4    2.9092   493.1    3.501      37.416
2015    4        8     7  10    2.9090   492.8    3.506      37.398
2015    4        8     7  16    2.9088   492.5    3.511      37.380
2015    4        8     7  22    2.9086   492.3    3.516      37.363
2015    4        8     7  28    2.9084   492.0    3.521      37.345
2015    4        8     7  34    2.9082   491.7    3.526      37.328
2015    4        8     7  40    2.9080   491.5    3.531      37.311
2015    4        8     7  46    2.9077   491.2    3.536      37.293
2015    4        8     7  52    2.9075   491.0    3.541      37.276
2015    4        8     7  58    2.9073   490.7    3.546      37.258
2015    4        8     8   4    2.9070   490.4    3.551      37.241
2015    4        8     8  10    2.9068   490.2    3.556      37.223
2015    4        8     8  16    2.9065   489.9    3.561      37.205
2015    4        8     8  22    2.9062   489.6    3.566      37.187
2015    4        8     8  28    2.9059   489.4    3.571      37.168
2015    4        8     8  34    2.9057   489.1    3.576      37.149
2015    4        8     8  40    2.9054   488.8    3.580      37.130
2015    4        8     8  46    2.9051   488.5    3.585      37.110
2015    4        8     8  52    2.9048   488.3    3.590      37.090
2015    4        8     8  58    2.9045   488.0    3.595      37.070
2015    4        8     9   4    2.9043   487.7    3.600      37.050
2015    4        8     9  10    2.9040   487.4    3.605      37.029
2015    4        8     9  16    2.9037   487.2    3.610      37.008
2015    4        8     9  22    2.9034   486.9    3.615      36.987
2015    4        8     9  28    2.9032   486.6    3.620      36.966
2015    4        8     9  34    2.9029   486.3    3.625      36.944
2015    4        8     9  40    2.9026   486.1    3.630      36.922
2015    4        8     9  45    2.9024   485.8    3.634      36.901
2015    4        8     9  51    2.9021   485.5    3.639      36.879
2015    4        8     9  57    2.9019   485.2    3.644      36.856
2015    4        8    10   3    2.9016   485.0    3.649      36.834
2015    4        8    10   9    2.9014   484.7    3.654      36.812
2015    4        8    10  15    2.9012   484.4    3.659      36.789
2015    4        8    10  21    2.9010   484.1    3.664      36.767
2015    4        8    10  27    2.9008   483.8    3.669      36.744
2015    4        8    10  33    2.9006   483.6    3.674      36.722
2015    4        8    10  39    2.9005   483.3    3.679      36.700
2015    4        8    10  45    2.9003   483.0    3.684      36.678
2015    4        8    10  51    2.9002   482.7    3.690      36.656
2015    4        8    10  57    2.9002   482.4    3.695      36.635
2015    4        8    11   3    2.9001   482.2    3.700      36.614
2015    4        8    11   9    2.9001   481.9    3.705      36.593
2015    4        8    11  15    2.9001   481.6    3.711      36.573
2015    4        8    11  21    2.9001   481.3    3.716      36.553
2015    4        8    11  27    2.9001   481.1    3.722      36.534
2015    4        8    11  33    2.9002   480.8    3.727      36.515
2015    4        8    11  39    2.9003   480.5    3.733      36.496
2015    4        8    11  45    2.9005   480.3    3.738      36.478
2015    4        8    11  51    2.9006   480.0    3.744      36.461
2015    4        8    11  57    2.9007   479.7    3.750      36.444
2015    4        8    12   3    2.9009   479.5    3.755      36.427
2015    4        8    12   9    2.9011   479.2    3.761      36.410
2015    4        8    12  15    2.9013   479.0    3.767      36.394
2015    4        8    12  21    2.9015   478.7    3.772      36.377
2015    4        8    12  27    2.9017   478.5    3.778      36.361
2015    4        8    12  33    2.9019   478.2    3.784      36.345
2015    4        8    12  39    2.9021   477.9    3.789      36.328
2015    4        8    12  45    2.9022   477.7    3.795      36.311
2015    4        8    12  51    2.9024   477.4    3.800      36.293
2015    4        8    12  57    2.9025   477.2    3.806      36.275
2015    4        8    13   3    2.9026   476.9    3.811      36.257
2015    4        8    13   9    2.9027   476.6    3.817      36.238
2015    4        8    13  15    2.9028   476.4    3.822      36.219
2015    4        8    13  21    2.9028   476.1    3.827      36.199
2015    4        8    13  27    2.9029   475.8    3.832      36.178
2015    4        8    13  33    2.9029   475.5    3.837      36.157
2015    4        8    13  39    2.9030   475.3    3.842      36.135
2015    4        8    13  45    2.9030   475.0    3.847      36.113
2015    4        8    13  51    2.9030   474.7    3.852      36.090
2015    4        8    13  57    2.9030   474.4    3.857      36.067
2015    4        8    14   3    2.9031   474.2    3.862      36.043
2015    4        8    14   9    2.9031   473.9    3.867      36.019
2015    4        8    14  15    2.9031   473.6    3.872      35.994
2015    4        8    14  21    2.9031   473.3    3.876      35.968
2015    4        8    14  27    2.9032   473.0    3.881      35.943
2015    4        8    14  33    2.9032   472.8    3.886      35.917
2015    4        8    14  39    2.9032   472.5    3.890      35.890
2015    4        8    14  45    2.9033   472.2    3.895      35.863
2015    4        8    14  51    2.9034   471.9    3.899      35.836
2015    4        8    14  57    2.9035   471.6    3.904      35.809
2015    4        8    15   3    2.9036   471.3    3.909      35.781
2015    4        8    15   9    2.9037   471.1    3.913      35.754
2015    4        8    15  15    2.9038   470.8    3.918      35.726
2015    4        8    15  21    2.9040   470.5    3.923      35.698
2015    4        8    15  27    2.9042   470.2    3.927      35.671
2015    4        8    15  33    2.9045   469.9    3.932      35.643
2015    4        8    15  39    2.9047   469.6    3.937      35.615
2015    4        8    15  45    2.9051   469.3    3.942      35.588
2015    4        8    15  51    2.9054   469.0    3.947      35.561
2015    4        8    15  57    2.9058   468.8    3.952      35.534
2015    4        8    16   3    2.9062   468.5    3.957      35.507
2015    4        8    16   9    2.9067   468.2    3.962      35.480
2015    4        8    16  15    2.9072   467.9    3.967      35.454
2015    4        8    16  21    2.9077   467.6    3.972      35.428
2015    4        8    16  27    2.9083   467.4    3.978      35.402
2015    4        8    16  33    2.9089   467.1    3.983      35.376
2015    4        8    16  39    2.9095   466.8    3.989      35.351
2015    4        8    16  45    2.9102   466.5    3.994      35.325
2015    4        8    16  51    2.9110   466.3    4.000      35.300
2015    4        8    16  57    2.9117   466.0    4.005      35.275
2015    4        8    17   3    2.9125   465.7    4.011      35.250
2015    4        8    17   9    2.9133   465.4    4.016      35.225
2015    4        8    17  15    2.9141   465.2    4.022      35.200
2015    4        8    17  21    2.9150   464.9    4.028      35.175
2015    4        8    17  27    2.9159   464.6    4.034      35.150
2015    4        8    17  33    2.9168   464.3    4.039      35.125
2015    4        8    17  39    2.9177   464.0    4.045      35.100
2015    4        8    17  45    2.9187   463.8    4.051      35.075
2015    4        8    17  51    2.9197   463.5    4.057      35.050
2015    4        8    17  57    2.9207   463.2    4.063      35.026
2015    4        8    18   3    2.9217   462.9    4.069      35.001
2015    4        8    18   9    2.9227   462.7    4.074      34.977
2015    4        8    18  14    2.9238   462.4    4.080      34.953
2015    4        8    18  20    2.9249   462.1    4.086      34.928
2015    4        8    18  26    2.9259   461.8    4.092      34.904
2015    4        8    18  32    2.9271   461.6    4.098      34.880
2015    4        8    18  38    2.9282   461.3    4.104      34.857
2015    4        8    18  44    2.9293   461.0    4.110      34.833
2015    4        8    18  50    2.9305   460.7    4.116      34.809
2015    4        8    18  56    2.9316   460.5    4.121      34.786
2015    4        8    19   2    2.9328   460.2    4.127      34.762
2015    4        8    19   8    2.9340   459.9    4.133      34.739
2015    4        8    19  14    2.9352   459.6    4.139      34.716
2015    4        8    19  20    2.9365   459.4    4.145      34.693
2015    4        8    19  26    2.9377   459.1    4.151      34.670
2015    4        8    19  32    2.9390   458.8    4.156      34.647
2015    4        8    19  38    2.9402   458.5    4.162      34.624
2015    4        8    19  44    2.9415   458.3    4.168      34.601
2015    4        8    19  50    2.9428   458.0    4.174      34.579
2015    4        8    19  56    2.9441   457.7    4.179      34.556
2015    4        8    20   2    2.9454   457.4    4.185      34.533
2015    4        8    20   8    2.9468   457.2    4.190      34.511
2015    4        8    20  14    2.9481   456.9    4.196      34.488
2015    4        8    20  20    2.9495   456.6    4.202      34.466
2015    4        8    20  26    2.9509   456.3    4.207      34.443
2015    4        8    20  32    2.9523   456.1    4.213      34.420
2015    4        8    20  38    2.9537   455.8    4.218      34.398
2015    4        8    20  44    2.9551   455.5    4.224      34.375
2015    4        8    20  50    2.9566   455.2    4.229      34.352
2015    4        8    20  56    2.9581   455.0    4.234      34.328
2015    4        8    21   2    2.9596   454.7    4.240      34.305
2015    4        8    21   8    2.9611   454.4    4.245      34.282
2015    4        8    21  14    2.9626   454.2    4.250      34.258
2015    4        8    21  20    2.9641   453.9    4.256      34.235
2015    4        8    21  26    2.9657   453.6    4.261      34.211
2015    4        8    21  32    2.9673   453.3    4.266      34.187
2015    4        8    21  38    2.9689   453.1    4.271      34.163
2015    4        8    21  44    2.9705   452.8    4.276      34.139
2015    4        8    21  50    2.9721   452.5    4.282      34.115
2015    4        8    21  56    2.9738   452.3    4.287      34.091
2015    4        8    22   2    2.9755   452.0    4.292      34.067
2015    4        8    22   8    2.9771   451.7    4.297      34.043
2015    4        8    22  14    2.9789   451.5    4.302      34.019
2015    4        8    22  20    2.9806   451.2    4.307      33.994
2015    4        8    22  26    2.9823   450.9    4.311      33.970
2015    4        8    22  32    2.9841   450.7    4.316      33.945
2015    4        8    22  38    2.9859   450.4    4.321      33.921
2015    4        8    22  44    2.9877   450.1    4.326      33.896
2015    4        8    22  50    2.9895   449.9    4.331      33.871
2015    4        8    22  56    2.9913   449.6    4.335      33.846
2015    4        8    23   2    2.9932   449.4    4.340      33.822
2015    4        8    23   8    2.9950   449.1    4.345      33.797
2015    4        8    23  14    2.9969   448.8    4.349      33.772
2015    4        8    23  20    2.9988   448.6    4.354      33.747
2015    4        8    23  26    3.0008   448.3    4.358      33.722
2015    4        8    23  32    3.0027   448.1    4.363      33.697
2015    4        8    23  38    3.0047   447.8    4.368      33.672
2015    4        8    23  44    3.0067   447.5    4.372      33.647
2015    4        8    23  50    3.0087   447.3    4.377      33.622
2015    4        8    23  56    3.0107   447.0    4.381      33.597
2015    4        9     0   2    3.0128   446.8    4.386      33.572
2015    4        9     0   8    3.0149   446.5    4.391      33.548
2015    4        9     0  14    3.0170   446.3    4.396      33.523
2015    4        9     0  20    3.0192   446.0    4.400      33.499
2015    4        9     0  26    3.0214   445.8    4.405      33.475
2015    4        9     0  32    3.0236   445.5    4.410      33.451
2015    4        9     0  38    3.0259   445.3    4.415      33.428
2015    4        9     0  44    3.0281   445.0    4.420      33.404
2015    4        9     0  50    3.0304   444.8    4.425      33.381
2015    4        9     0  56    3.0328   444.5    4.430      33.358
2015    4        9     1   2    3.0351   444.3    4.436      33.336
2015    4        9     1   8    3.0375   444.0    4.441      33.313
2015    4        9     1  14    3.0399   443.8    4.446      33.291
2015    4        9     1  20    3.0423   443.5    4.452      33.270
2015    4        9     1  26    3.0448   443.3    4.457      33.248
2015    4        9     1  32    3.0473   443.1    4.463      33.227
2015    4        9     1  38    3.0498   442.8    4.469      33.206
2015    4        9     1  44    3.0523   442.6    4.475      33.186
2015    4        9     1  50    3.0548   442.4    4.481      33.166
2015    4        9     1  56    3.0574   442.1    4.487      33.146
2015    4        9     2   2    3.0600   441.9    4.493      33.126
2015    4        9     2   8    3.0625   441.7    4.499      33.107
2015    4        9     2  14    3.0651   441.5    4.506      33.088
2015    4        9     2  20    3.0677   441.2    4.512      33.069
2015    4        9     2  26    3.0703   441.0    4.518      33.051
2015    4        9     2  32    3.0729   440.8    4.525      33.033
2015    4        9     2  38    3.0755   440.6    4.532      33.015
2015    4        9     2  44    3.0781   440.3    4.538      32.997
2015    4        9     2  50    3.0806   440.1    4.545      32.979
2015    4        9     2  56    3.0831   439.9    4.552      32.962
2015    4        9     3   2    3.0856   439.7    4.558      32.945
2015    4        9     3   8    3.0881   439.5    4.565      32.927
2015    4        9     3  14    3.0906   439.3    4.572      32.910
2015    4        9     3  20    3.0931   439.1    4.579      32.893
2015    4        9     3  26    3.0955   438.8    4.586      32.876
2015    4        9     3  32    3.0979   438.6    4.593      32.859
2015    4        9     3  38    3.1004   438.4    4.600      32.842
2015    4        9     3  44    3.1027   438.2    4.606      32.825
2015    4        9     3  49    3.1052   438.0    4.613      32.807
2015    4        9     3  55    3.1075   437.8    4.620      32.790
2015    4        9     4   1    3.1099   437.6    4.627      32.772
2015    4        9     4   7    3.1123   437.4    4.633      32.754
2015    4        9     4  13    3.1147   437.1    4.640      32.736
2015    4        9     4  19    3.1170   436.9    4.647      32.718
2015    4        9     4  25    3.1194   436.7    4.653      32.700
2015    4        9     4  31    3.1218   436.5    4.660      32.681
2015    4        9     4  37    3.1241   436.3    4.666      32.663
2015    4        9     4  43    3.1265   436.1    4.673      32.644
2015    4        9     4  49    3.1289   435.9    4.679      32.626
2015    4        9     4  55    3.1312   435.7    4.686      32.607
2015    4        9     5   1    3.1336   435.4    4.692      32.589
2015    4        9     5   7    3.1360   435.2    4.699      32.570
2015    4        9     5  13    3.1384   435.0    4.705      32.551
2015    4        9     5  19    3.1408   434.8    4.711      32.533
2015    4        9     5  25    3.1432   434.6    4.718      32.514
2015    4        9     5  31    3.1456   434.4    4.724      32.495
2015    4        9     5  37    3.1480   434.2    4.730      32.476
2015    4        9     5  43    3.1504   434.0    4.737      32.458
2015    4        9     5  49    3.1528   433.8    4.743      32.439
2015    4        9     5  55    3.1553   433.6    4.749      32.420
2015    4        9     6   1    3.1577   433.4    4.755      32.401
2015    4        9     6   7    3.1601   433.2    4.762      32.382
2015    4        9     6  13    3.1625   433.0    4.768      32.363
2015    4        9     6  19    3.1650   432.7    4.774      32.344
2015    4        9     6  25    3.1674   432.5    4.780      32.325
2015    4        9     6  31    3.1698   432.3    4.786      32.306
2015    4        9     6  37    3.1723   432.1    4.793      32.287
2015    4        9     6  43    3.1747   431.9    4.799      32.268
2015    4        9     6  49    3.1772   431.7    4.805      32.249
2015    4        9     6  55    3.1796   431.5    4.811      32.230
2015    4        9     7   1    3.1821   431.3    4.818      32.211
2015    4        9     7   7    3.1846   431.1    4.824      32.192
2015    4        9     7  13    3.1870   430.9    4.831      32.173
2015    4        9     7  19    3.1895   430.7    4.837      32.155
2015    4        9     7  25    3.1920   430.5    4.843      32.136
2015    4        9     7  31    3.1945   430.3    4.850      32.117
2015    4        9     7  37    3.1970   430.1    4.857      32.099
2015    4        9     7  43    3.1995   429.9    4.863      32.081
2015    4        9     7  49    3.2020   429.7    4.870      32.063
2015    4        9     7  55    3.2045   429.5    4.877      32.045
2015    4        9     8   1    3.2071   429.3    4.884      32.027
2015    4        9     8   7    3.2097   429.1    4.891      32.010
2015    4        9     8  13    3.2123   428.9    4.898      31.992
2015    4        9     8  19    3.2149   428.7    4.906      31.976
2015    4        9     8  25    3.2175   428.5    4.913      31.959
2015    4        9     8  31    3.2201   428.3    4.921      31.943
2015    4        9     8  37    3.2228   428.1    4.929      31.927
2015    4        9     8  43    3.2255   427.9    4.937      31.912
2015    4        9     8  49    3.2282   427.7    4.945      31.896
2015    4        9     8  55    3.2309   427.5    4.953      31.882
2015    4        9     9   1    3.2337   427.3    4.961      31.868
2015    4        9     9   7    3.2364   427.1    4.970      31.854
2015    4        9     9  13    3.2393   426.9    4.979      31.841
2015    4        9     9  19    3.2421   426.7    4.988      31.829
2015    4        9     9  25    3.2449   426.5    4.998      31.817
2015    4        9     9  31    3.2478   426.4    5.007      31.806
2015    4        9     9  37    3.2506   426.2    5.017      31.795
2015    4        9     9  43    3.2535   426.0    5.027      31.785
2015    4        9     9  49    3.2564   425.8    5.037      31.776
2015    4        9     9  55    3.2593   425.6    5.047      31.767
2015    4        9    10   1    3.2622   425.4    5.058      31.759
2015    4        9    10   7    3.2651   425.3    5.069      31.751
2015    4        9    10  13    3.2680   425.1    5.080      31.744
2015    4        9    10  19    3.2710   424.9    5.091      31.738
2015    4        9    10  25    3.2739   424.7    5.103      31.732
2015    4        9    10  31    3.2768   424.6    5.114      31.727
2015    4        9    10  37    3.2798   424.4    5.126      31.723
2015    4        9    10  43    3.2828   424.2    5.138      31.719
2015    4        9    10  49    3.2857   424.0    5.150      31.716
2015    4        9    10  55    3.2887   423.9    5.163      31.713
2015    4        9    11   1    3.2917   423.7    5.175      31.711
2015    4        9    11   7    3.2946   423.6    5.188      31.709
2015    4        9    11  13    3.2976   423.4    5.201      31.708
2015    4        9    11  19    3.3007   423.2    5.214      31.707
2015    4        9    11  25    3.3037   423.1    5.226      31.707
2015    4        9    11  31    3.3067   422.9    5.240      31.707
2015    4        9    11  37    3.3097   422.8    5.253      31.707
2015    4        9    11  43    3.3127   422.6    5.266      31.709
2015    4        9    11  49    3.3157   422.4    5.279      31.710
2015    4        9    11  55    3.3187   422.3    5.292      31.711
2015    4        9    12   1    3.3217   422.1    5.305      31.713
2015    4        9    12   7    3.3246   422.0    5.318      31.715
2015    4        9    12  13    3.3276   421.8    5.331      31.717
2015    4        9    12  19    3.3306   421.7    5.344      31.720
2015    4        9    12  25    3.3335   421.5    5.357      31.723
2015    4        9    12  31    3.3365   421.4    5.370      31.727
2015    4        9    12  37    3.3395   421.2    5.383      31.731
2015    4        9    12  43    3.3425   421.1    5.395      31.735
2015    4        9    12  49    3.3455   420.9    5.408      31.740
2015    4        9    12  55    3.3485   420.8    5.420      31.745
2015    4        9    13   1    3.3515   420.6    5.432      31.750
2015    4        9    13   7    3.3545   420.5    5.444      31.756
2015    4        9    13  13    3.3575   420.4    5.456      31.761
2015    4        9    13  19    3.3605   420.2    5.468      31.767
2015    4        9    13  25    3.3636   420.1    5.480      31.772
2015    4        9    13  31    3.3666   419.9    5.492      31.777
2015    4        9    13  37    3.3697   419.8    5.503      31.782
2015    4        9    13  43    3.3728   419.6    5.515      31.787
2015    4        9    13  49    3.3759   419.5    5.526      31.792
2015    4        9    13  55    3.3790   419.4    5.537      31.797
2015    4        9    14   1    3.3821   419.2    5.548      31.801
2015    4        9    14   7    3.3853   419.1    5.559      31.806
2015    4        9    14  13    3.3885   419.0    5.570      31.810
2015    4        9    14  19    3.3916   418.8    5.581      31.814
2015    4        9    14  25    3.3948   418.7    5.592      31.818
2015    4        9    14  31    3.3981   418.6    5.603      31.822
2015    4        9    14  37    3.4013   418.4    5.613      31.826
2015    4        9    14  43    3.4045   418.3    5.624      31.830
2015    4        9    14  49    3.4078   418.2    5.634      31.833
2015    4        9    14  55    3.4111   418.1    5.645      31.837
2015    4        9    15   0    3.4144   417.9    5.655      31.840
2015    4        9    15   6    3.4177   417.8    5.665      31.843
2015    4        9    15  12    3.4211   417.7    5.676      31.847
2015    4        9    15  18    3.4244   417.6    5.686      31.850
2015    4        9    15  24    3.4278   417.4    5.696      31.853
2015    4        9    15  30    3.4312   417.3    5.706      31.856
2015    4        9    15  36    3.4346   417.2    5.715      31.859
2015    4        9    15  42    3.4380   417.1    5.725      31.862
2015    4        9    15  48    3.4414   416.9    5.735      31.864
2015    4        9    15  54    3.4449   416.8    5.744      31.867
2015    4        9    16   0    3.4483   416.7    5.754      31.870
2015    4        9    16   6    3.4518   416.6    5.764      31.873
2015    4        9    16  12    3.4552   416.5    5.773      31.876
2015    4        9    16  18    3.4587   416.4    5.782      31.879
2015    4        9    16  24    3.4622   416.3    5.792      31.882
2015    4        9    16  30    3.4657   416.1    5.801      31.885
2015    4        9    16  36    3.4692   416.0    5.810      31.889
2015    4        9    16  42    3.4727   415.9    5.819      31.892
2015    4        9    16  48    3.4762   415.8    5.828      31.895
2015    4        9    16  54    3.4797   415.7    5.837      31.899
2015    4        9    17   0    3.4832   415.6    5.846      31.903
2015    4        9    17   6    3.4867   415.5    5.855      31.907
2015    4        9    17  12    3.4902   415.4    5.864      31.911
2015    4        9    17  18    3.4937   415.3    5.873      31.915
2015    4        9    17  24    3.4972   415.2    5.882      31.920
2015    4        9    17  30    3.5007   415.1    5.890      31.925
2015    4        9    17  36    3.5042   414.9    5.899      31.930
2015    4        9    17  42    3.5078   414.8    5.908      31.935
2015    4        9    17  48    3.5113   414.7    5.916      31.941
2015    4        9    17  54    3.5148   414.6    5.925      31.947
2015    4        9    18   0    3.5183   414.5    5.933      31.953
2015    4        9    18   6    3.5218   414.4    5.942      31.959
2015    4        9    18  12    3.5253   414.3    5.950      31.966
2015    4        9    18  18    3.5288   414.2    5.959      31.973
2015    4        9    18  24    3.5323   414.1    5.967      31.980
2015    4        9    18  30    3.5358   414.0    5.976      31.988
2015    4        9    18  36    3.5393   413.9    5.984      31.995
2015    4        9    18  42    3.5428   413.8    5.993      32.004
2015    4        9    18  48    3.5462   413.8    6.001      32.012
2015    4        9    18  54    3.5497   413.7    6.009      32.021
2015    4        9    19   0    3.5532   413.6    6.018      32.030
2015    4        9    19   6    3.5566   413.5    6.026      32.039
2015    4        9    19  12    3.5600   413.4    6.035      32.048
2015    4        9    19  18    3.5635   413.3    6.043      32.057
2015    4        9    19  24    3.5669   413.2    6.051      32.067
2015    4        9    19  30    3.5703   413.1    6.060      32.077
2015    4        9    19  36    3.5737   413.0    6.068      32.087
2015    4        9    19  42    3.5771   412.9    6.077      32.097
2015    4        9    19  48    3.5804   412.8    6.085      32.108
2015    4        9    19  54    3.5838   412.7    6.093      32.118
2015    4        9    20   0    3.5871   412.7    6.102      32.129
2015    4        9    20   6    3.5905   412.6    6.110      32.140
2015    4        9    20  12    3.5938   412.5    6.118      32.151
2015    4        9    20  18    3.5971   412.4    6.127      32.161
2015    4        9    20  24    3.6004   412.3    6.135      32.172
2015    4        9    20  30    3.6037   412.2    6.144      32.184
2015    4        9    20  36    3.6071   412.1    6.152      32.195
2015    4        9    20  42    3.6103   412.0    6.160      32.206
2015    4        9    20  48    3.6136   412.0    6.169      32.217
2015    4        9    20  54    3.6169   411.9    6.177      32.229
2015    4        9    21   0    3.6202   411.8    6.186      32.240
2015    4        9    21   6    3.6235   411.7    6.195      32.252
2015    4        9    21  12    3.6268   411.6    6.203      32.264
2015    4        9    21  18    3.6301   411.5    6.212      32.276
2015    4        9    21  24    3.6334   411.4    6.221      32.288
2015    4        9    21  30    3.6366   411.4    6.229      32.300
2015    4        9    21  36    3.6399   411.3    6.238      32.313
2015    4        9    21  42    3.6432   411.2    6.247      32.325
2015    4        9    21  48    3.6465   411.1    6.256      32.338
2015    4        9    21  54    3.6498   411.0    6.265      32.351
2015    4        9    22   0    3.6531   411.0    6.274      32.364
2015    4        9    22   6    3.6564   410.9    6.283      32.378
2015    4        9    22  12    3.6597   410.8    6.292      32.392
2015    4        9    22  18    3.6630   410.7    6.302      32.406
2015    4        9    22  24    3.6662   410.7    6.311      32.420
2015    4        9    22  30    3.6694   410.6    6.320      32.434
2015    4        9    22  36    3.6726   410.5    6.329      32.448
2015    4        9    22  42    3.6757   410.5    6.337      32.462
2015    4        9    22  48    3.6788   410.4    6.346      32.476
2015    4        9    22  54    3.6819   410.3    6.354      32.489
2015    4        9    23   0    3.6850   410.3    6.363      32.502
2015    4        9    23   6    3.6880   410.2    6.371      32.515
2015    4        9    23  12    3.6909   410.2    6.379      32.528
2015    4        9    23  18    3.6939   410.1    6.387      32.540
2015    4        9    23  24    3.6968   410.1    6.395      32.553
2015    4        9    23  30    3.6997   410.0    6.403      32.565
2015    4        9    23  36    3.7026   409.9    6.410      32.577
2015    4        9    23  42    3.7054   409.9    6.418      32.588
2015    4        9    23  48    3.7082   409.8    6.425      32.599
2015    4        9    23  54    3.7110   409.8    6.432      32.610
2015    4       10     0   0    3.7138   409.7    6.439      32.621
2015    4       10     0   6    3.7165   409.7    6.446      32.631
2015    4       10     0  12    3.7192   409.6    6.453      32.641
2015    4       10     0  18    3.7219   409.5    6.460      32.651
2015    4       10     0  24    3.7246   409.5    6.466      32.660
2015    4       10     0  30    3.7273   409.4    6.473      32.669
2015    4       10     0  36    3.7299   409.4    6.479      32.678
2015    4       10     0  42    3.7325   409.3    6.486      32.687
2015    4       10     0  48    3.7351   409.3    6.492      32.695
2015    4       10     0  54    3.7378   409.2    6.498      32.703
2015    4       10     1   0    3.7403   409.2    6.504      32.710
2015    4       10     1   6    3.7429   409.1    6.510      32.718
2015    4       10     1  12    3.7455   409.0    6.516      32.725
2015    4       10     1  18    3.7480   409.0    6.522      32.731
2015    4       10     1  24    3.7505   408.9    6.528      32.738
2015    4       10     1  30    3.7530   408.9    6.534      32.744
2015    4       10     1  36    3.7556   408.8    6.540      32.751
2015    4       10     1  42    3.7580   408.8    6.546      32.757
2015    4       10     1  48    3.7605   408.7    6.551      32.762
2015    4       10     1  54    3.7630   408.7    6.557      32.768
2015    4       10     2   0    3.7654   408.6    6.562      32.773
2015    4       10     2   6    3.7679   408.6    6.568      32.779
2015    4       10     2  12    3.7703   408.5    6.573      32.784
2015    4       10     2  18    3.7727   408.5    6.579      32.789
2015    4       10     2  24    3.7751   408.4    6.584      32.794
2015    4       10     2  30    3.7775   408.3    6.590      32.799
2015    4       10     2  36    3.7799   408.3    6.595      32.803
2015    4       10     2  42    3.7823   408.2    6.601      32.808
2015    4       10     2  48    3.7846   408.2    6.606      32.813
2015    4       10     2  54    3.7870   408.1    6.611      32.817
2015    4       10     3   0    3.7893   408.1    6.617      32.822
2015    4       10     3   6    3.7916   408.0    6.622      32.826
2015    4       10     3  12    3.7939   408.0    6.627      32.831
2015    4       10     3  18    3.7962   407.9    6.633      32.835
2015    4       10     3  24    3.7984   407.9    6.638      32.840
2015    4       10     3  29    3.8007   407.8    6.643      32.844
2015    4       10     3  35    3.8029   407.8    6.649      32.849
2015    4       10     3  41    3.8051   407.7    6.654      32.854
2015    4       10     3  47    3.8073   407.7    6.659      32.860
2015    4       10     3  53    3.8095   407.7    6.665      32.865
2015    4       10     3  59    3.8116   407.6    6.670      32.871
2015    4       10     4   5    3.8137   407.6    6.676      32.877
2015    4       10     4  11    3.8158   407.5    6.681      32.883
2015    4       10     4  17    3.8178   407.5    6.686      32.889
2015    4       10     4  23    3.8198   407.4    6.691      32.897
2015    4       10     4  29    3.8218   407.4    6.696      32.904
2015    4       10     4  35    3.8238   407.4    6.701      32.912
2015    4       10     4  41    3.8258   407.3    6.706      32.919
2015    4       10     4  47    3.8277   407.3    6.711      32.927
2015    4       10     4  53    3.8296   407.2    6.715      32.935
2015    4       10     4  59    3.8314   407.2    6.720      32.943
2015    4       10     5   5    3.8333   407.2    6.725      32.951
2015    4       10     5  11    3.8351   407.1    6.729      32.958
2015    4       10     5  17    3.8369   407.1    6.733      32.965
2015    4       10     5  23    3.8387   407.0    6.738      32.973
2015    4       10     5  29    3.8405   407.0    6.742      32.980
2015    4       10     5  35    3.8422   407.0    6.746      32.987
2015    4       10     5  41    3.8439   406.9    6.750      32.994
2015    4       10     5  47    3.8456   406.9    6.754      33.000
2015    4       10     5  53    3.8473   406.8    6.758      33.007
2015    4       10     5  59    3.8490   406.8    6.762      33.014
2015    4       10     6   5    3.8507   406.8    6.766      33.020
2015    4       10     6  11    3.8523   406.7    6.770      33.027
2015    4       10     6  17    3.8540   406.7    6.773      33.033
2015    4       10     6  23    3.8556   406.6    6.777      33.039
2015    4       10     6  29    3.8572   406.6    6.781      33.046
2015    4       10     6  35    3.8588   406.6    6.784      33.052
2015    4       10     6  41    3.8604   406.5    6.788      33.058
2015    4       10     6  47    3.8619   406.5    6.791      33.064
2015    4       10     6  53    3.8635   406.4    6.794      33.070
2015    4       10     6  59    3.8651   406.4    6.798      33.076
2015    4       10     7   5    3.8666   406.4    6.801      33.082
2015    4       10     7  11    3.8681   406.3    6.804      33.088
2015    4       10     7  17    3.8697   406.3    6.807      33.093
2015    4       10     7  23    3.8712   406.2    6.811      33.099
2015    4       10     7  29    3.8727   406.2    6.814      33.105
2015    4       10     7  35    3.8742   406.2    6.817      33.110
2015    4       10     7  41    3.8757   406.1    6.820      33.115
2015    4       10     7  47    3.8772   406.1    6.823      33.120
2015    4       10     7  53    3.8786   406.0    6.826      33.126
2015    4       10     7  59    3.8801   406.0    6.829      33.131
2015    4       10     8   5    3.8816   406.0    6.831      33.136
2015    4       10     8  11    3.8830   405.9    6.834      33.141
2015    4       10     8  17    3.8845   405.9    6.837      33.146
2015    4       10     8  23    3.8859   405.8    6.840      33.150
2015    4       10     8  29    3.8874   405.8    6.842      33.155
2015    4       10     8  35    3.8888   405.8    6.845      33.160
2015    4       10     8  41    3.8902   405.7    6.848      33.164
2015    4       10     8  47    3.8917   405.7    6.850      33.169
2015    4       10     8  53    3.8931   405.6    6.853      33.173
2015    4       10     8  59    3.8946   405.6    6.856      33.177
2015    4       10     9   5    3.8960   405.6    6.858      33.181
2015    4       10     9  11    3.8974   405.5    6.861      33.186
2015    4       10     9  17    3.8989   405.5    6.864      33.190
2015    4       10     9  23    3.9003   405.4    6.866      33.194
2015    4       10     9  29    3.9018   405.4    6.869      33.198
2015    4       10     9  35    3.9032   405.4    6.872      33.202
2015    4       10     9  41    3.9047   405.3    6.874      33.206
2015    4       10     9  47    3.9061   405.3    6.877      33.210
2015    4       10     9  53    3.9076   405.2    6.880      33.214
2015    4       10     9  59    3.9091   405.2    6.882      33.218
2015    4       10    10   5    3.9105   405.2    6.885      33.222
2015    4       10    10  11    3.9120   405.1    6.888      33.226
2015    4       10    10  17    3.9135   405.1    6.891      33.230
2015    4       10    10  23    3.9150   405.0    6.894      33.233
2015    4       10    10  29    3.9165   405.0    6.897      33.237
2015    4       10    10  35    3.9181   405.0    6.900      33.241
2015    4       10    10  41    3.9196   404.9    6.903      33.245
2015    4       10    10  47    3.9211   404.9    6.906      33.249
2015    4       10    10  53    3.9226   404.8    6.909      33.254
2015    4       10    10  59    3.9241   404.8    6.912      33.258
2015    4       10    11   5    3.9256   404.8    6.916      33.262
2015    4       10    11  11    3.9271   404.7    6.919      33.266
2015    4       10    11  17    3.9285   404.7    6.922      33.270
2015    4       10    11  23    3.9299   404.7    6.926      33.275
2015    4       10    11  29    3.9313   404.6    6.929      33.279
2015    4       10    11  35    3.9327   404.6    6.932      33.284
2015    4       10    11  41    3.9340   404.5    6.936      33.288
2015    4       10    11  47    3.9353   404.5    6.939      33.293
2015    4       10    11  53    3.9365   404.5    6.943      33.297
2015    4       10    11  59    3.9377   404.4    6.947      33.302
2015    4       10    12   5    3.9389   404.4    6.950      33.307
2015    4       10    12  11    3.9401   404.4    6.954      33.311
2015    4       10    12  17    3.9412   404.3    6.957      33.316
2015    4       10    12  23    3.9423   404.3    6.961      33.321
2015    4       10    12  29    3.9433   404.3    6.965      33.325
2015    4       10    12  35    3.9443   404.2    6.968      33.330
2015    4       10    12  41    3.9453   404.2    6.972      33.335
2015    4       10    12  47    3.9463   404.1    6.975      33.340
2015    4       10    12  53    3.9472   404.1    6.979      33.344
2015    4       10    12  59    3.9482   404.1    6.982      33.349
2015    4       10    13   5    3.9491   404.0    6.985      33.354
2015    4       10    13  11    3.9500   404.0    6.988      33.358
2015    4       10    13  17    3.9508   403.9    6.991      33.363
2015    4       10    13  23    3.9517   403.9    6.995      33.368
2015    4       10    13  29    3.9525   403.9    6.997      33.373
2015    4       10    13  35    3.9533   403.8    7.000      33.377
2015    4       10    13  41    3.9542   403.8    7.003      33.382
2015    4       10    13  47    3.9550   403.7    7.006      33.387
2015    4       10    13  53    3.9558   403.7    7.009      33.391
2015    4       10    13  59    3.9565   403.6    7.011      33.396
2015    4       10    14   5    3.9573   403.6    7.014      33.400
2015    4       10    14  11    3.9581   403.6    7.016      33.405
2015    4       10    14  17    3.9589   403.5    7.019      33.409
2015    4       10    14  23    3.9596   403.5    7.021      33.413
2015    4       10    14  29    3.9604   403.4    7.023      33.418
2015    4       10    14  35    3.9611   403.4    7.026      33.422
2015    4       10    14  41    3.9619   403.3    7.028      33.426
2015    4       10    14  47    3.9626   403.3    7.030      33.430
2015    4       10    14  53    3.9634   403.2    7.032      33.434
2015    4       10    14  59    3.9641   403.2    7.034      33.438
2015    4       10    15   5    3.9648   403.1    7.036      33.441
2015    4       10    15  11    3.9656   403.1    7.038      33.445
2015    4       10    15  17    3.9663   403.1    7.040      33.448
2015    4       10    15  23    3.9671   403.0    7.042      33.452
2015    4       10    15  29    3.9678   403.0    7.043      33.455
2015    4       10    15  35    3.9686   402.9    7.045      33.458
2015    4       10    15  41    3.9693   402.9    7.047      33.461
2015    4       10    15  47    3.9701   402.8    7.048      33.464
2015    4       10    15  53    3.9708   402.8    7.050      33.466
2015    4       10    15  59    3.9715   402.7    7.051      33.469
2015    4       10    16   5    3.9723   402.7    7.053      33.471
2015    4       10    16  11    3.9731   402.6    7.054      33.473
2015    4       10    16  17    3.9738   402.6    7.056      33.475
2015    4       10    16  23    3.9746   402.5    7.057      33.477
2015    4       10    16  29    3.9753   402.5    7.058      33.479
2015    4       10    16  35    3.9761   402.4    7.060      33.480
2015    4       10    16  41    3.9769   402.4    7.061      33.482
2015    4       10    16  47    3.9776   402.3    7.062      33.483
2015    4       10    16  53    3.9784   402.3    7.063      33.484
2015    4       10    16  59    3.9791   402.2    7.064      33.485
2015    4       10    17   5    3.9799   402.2    7.066      33.486
2015    4       10    17  11    3.9807   402.2    7.067      33.486
2015    4       10    17  17    3.9814   402.1    7.068      33.486
2015    4       10    17  22    3.9822   402.1    7.069      33.487
2015    4       10    17  28    3.9830   402.0    7.070      33.487
2015    4       10    17  34    3.9837   402.0    7.071      33.486
2015    4       10    17  40    3.9845   401.9    7.072      33.486
2015    4       10    17  46    3.9852   401.9    7.072      33.486
2015    4       10    17  52    3.9860   401.8    7.073      33.485
2015    4       10    17  58    3.9867   401.8    7.074      33.484
2015    4       10    18   4    3.9875   401.7    7.075      33.483
2015    4       10    18  10    3.9882   401.7    7.076      33.482
2015    4       10    18  16    3.9889   401.6    7.077      33.481
2015    4       10    18  22    3.9896   401.6    7.077      33.479
2015    4       10    18  28    3.9904   401.5    7.078      33.478
2015    4       10    18  34    3.9911   401.5    7.079      33.476
2015    4       10    18  40    3.9918   401.5    7.079      33.474
2015    4       10    18  46    3.9925   401.4    7.080      33.472
2015    4       10    18  52    3.9932   401.4    7.081      33.470
2015    4       10    18  58    3.9939   401.3    7.081      33.468
2015    4       10    19   4    3.9945   401.3    7.082      33.466
2015    4       10    19  10    3.9952   401.2    7.082      33.464
2015    4       10    19  16    3.9959   401.2    7.083      33.462
2015    4       10    19  22    3.9965   401.1    7.084      33.459
2015    4       10    19  28    3.9972   401.1    7.084      33.457
2015    4       10    19  34    3.9978   401.0    7.085      33.454
2015    4       10    19  40    3.9985   401.0    7.085      33.452
2015    4       10    19  46    3.9991   400.9    7.086      33.449
2015    4       10    19  52    3.9997   400.9    7.086      33.446
2015    4       10    19  58    4.0003   400.9    7.087      33.444
2015    4       10    20   4    4.0009   400.8    7.087      33.441
2015    4       10    20  10    4.0015   400.8    7.088      33.438
2015    4       10    20  16    4.0022   400.7    7.088      33.436
2015    4       10    20  22    4.0027   400.7    7.089      33.433
2015    4       10    20  28    4.0034   400.6    7.089      33.430
2015    4       10    20  34    4.0039   400.6    7.090      33.428
2015    4       10    20  40    4.0045   400.5    7.090      33.425
2015    4       10    20  46    4.0051   400.5    7.091      33.422
2015    4       10    20  52    4.0057   400.5    7.091      33.420
2015    4       10    20  58    4.0062   400.4    7.092      33.417
2015    4       10    21   4    4.0068   400.4    7.092      33.415
2015    4       10    21  10    4.0073   400.3    7.093      33.412
2015    4       10    21  16    4.0079   400.3    7.094      33.410
2015    4       10    21  22    4.0084   400.2    7.094      33.407
2015    4       10    21  28    4.0090   400.2    7.095      33.405
2015    4       10    21  34    4.0095   400.1    7.095      33.402
2015    4       10    21  40    4.0100   400.1    7.096      33.400
2015    4       10    21  46    4.0106   400.0    7.096      33.398
2015    4       10    21  52    4.0111   400.0    7.097      33.396
2015    4       10    21  58    4.0116   400.0    7.097      33.393
2015    4       10    22   4    4.0122   399.9    7.098      33.391
2015    4       10    22  10    4.0127   399.9    7.098      33.389
2015    4       10    22  16    4.0132   399.8    7.099      33.387
2015    4       10    22  22    4.0137   399.8    7.099      33.385
2015    4       10    22  28    4.0142   399.7    7.100      33.383
2015    4       10    22  34    4.0147   399.7    7.100      33.381
2015    4       10    22  40    4.0152   399.6    7.101      33.379
2015    4       10    22  46    4.0157   399.6    7.101      33.377
2015    4       10    22  52    4.0162   399.6    7.102      33.375
2015    4       10    22  58    4.0167   399.5    7.102      33.373
2015    4       10    23   4    4.0172   399.5    7.103      33.371
2015    4       10    23  10    4.0176   399.4    7.103      33.370
2015    4       10    23  16    4.0181   399.4    7.103      33.368
2015    4       10    23  22    4.0186   399.3    7.104      33.366
2015    4       10    23  28    4.0191   399.3    7.104      33.364
2015    4       10    23  34    4.0195   399.2    7.105      33.362
2015    4       10    23  40    4.0200   399.2    7.105      33.361
2015    4       10    23  46    4.0205   399.1    7.105      33.359
2015    4       10    23  52    4.0209   399.1    7.106      33.357
2015    4       10    23  58    4.0214   399.1    7.106      33.356
2015    4       11     0   4    4.0218   399.0    7.106      33.354
2015    4       11     0  10    4.0223   399.0    7.107      33.352
2015    4       11     0  16    4.0227   398.9    7.107      33.351
2015    4       11     0  22    4.0232   398.9    7.107      33.349
2015    4       11     0  28    4.0236   398.8    7.108      33.348
2015    4       11     0  34    4.0240   398.8    7.108      33.346
2015    4       11     0  40    4.0245   398.7    7.108      33.345
2015    4       11     0  46    4.0249   398.7    7.108      33.344
2015    4       11     0  52    4.0253   398.6    7.109      33.342
2015    4       11     0  58    4.0258   398.6    7.109      33.341
2015    4       11     1   4    4.0262   398.5    7.109      33.340
2015    4       11     1  10    4.0266   398.5    7.109      33.339
2015    4       11     1  16    4.0270   398.4    7.110      33.337
2015    4       11     1  22    4.0274   398.4    7.110      33.336
2015    4       11     1  28    4.0278   398.3    7.110      33.335
2015    4       11     1  34    4.0282   398.3    7.110      33.334
2015    4       11     1  40    4.0286   398.3    7.110      33.333
2015    4       11     1  46    4.0290   398.2    7.111      33.332
2015    4       11     1  52    4.0293   398.2    7.111      33.331
2015    4       11     1  58    4.0297   398.1    7.111      33.330
2015    4       11     2   4    4.0301   398.1    7.111      33.329
2015    4       11     2  10    4.0304   398.0    7.111      33.329
2015    4       11     2  16    4.0308   398.0    7.111      33.328
2015    4       11     2  22    4.0311   397.9    7.111      33.327
2015    4       11     2  28    4.0314   397.9    7.112      33.326
2015    4       11     2  34    4.0317   397.8    7.112      33.325
2015    4       11     2  40    4.0320   397.8    7.112      33.324
2015    4       11     2  46    4.0323   397.7    7.112      33.323
2015    4       11     2  52    4.0326   397.7    7.112      33.322
2015    4       11     2  58    4.0329   397.6    7.112      33.321
2015    4       11     3   4    4.0332   397.6    7.112      33.320
2015    4       11     3  10    4.0334   397.5    7.112      33.319
2015    4       11     3  16    4.0336   397.5    7.112      33.317
2015    4       11     3  22    4.0339   397.4    7.112      33.316
2015    4       11     3  28    4.0341   397.4    7.112      33.314
2015    4       11     3  34    4.0344   397.3    7.112      33.313
2015    4       11     3  40    4.0346   397.3    7.112      33.311
2015    4       11     3  46    4.0348   397.3    7.111      33.309
2015    4       11     3  52    4.0350   397.2    7.111      33.307
2015    4       11     3  58    4.0352   397.2    7.111      33.305
2015    4       11     4   4    4.0354   397.1    7.111      33.302
2015    4       11     4  10    4.0356   397.1    7.110      33.300
2015    4       11     4  16    4.0358   397.0    7.110      33.297
2015    4       11     4  22    4.0359   397.0    7.110      33.294
2015    4       11     4  28    4.0361   396.9    7.109      33.291
2015    4       11     4  34    4.0363   396.9    7.109      33.288
2015    4       11     4  40    4.0364   396.8    7.109      33.284
2015    4       11     4  46    4.0366   396.8    7.108      33.281
2015    4       11     4  52    4.0367   396.7    7.108      33.277
2015    4       11     4  58    4.0369   396.7    7.107      33.273
2015    4       11     5   4    4.0370   396.6    7.107      33.269
2015    4       11     5  10    4.0371   396.6    7.106      33.264
2015    4       11     5  16    4.0372   396.5    7.106      33.260
2015    4       11     5  22    4.0374   396.4    7.105      33.255
2015    4       11     5  28    4.0375   396.4    7.105      33.251
2015    4       11     5  34    4.0376   396.3    7.104      33.246
2015    4       11     5  40    4.0377   396.3    7.103      33.241
2015    4       11     5  46    4.0378   396.2    7.103      33.236
2015    4       11     5  52    4.0379   396.2    7.102      33.231
2015    4       11     5  58    4.0380   396.1    7.102      33.225
2015    4       11     6   4    4.0381   396.1    7.101      33.220
2015    4       11     6  10    4.0382   396.0    7.100      33.214
2015    4       11     6  16    4.0383   396.0    7.100      33.209
2015    4       11     6  22    4.0384   395.9    7.099      33.203
2015    4       11     6  28    4.0385   395.9    7.099      33.197
2015    4       11     6  34    4.0386   395.8    7.098      33.192
2015    4       11     6  40    4.0387   395.8    7.098      33.186
2015    4       11     6  46    4.0388   395.7    7.097      33.180
2015    4       11     6  52    4.0389   395.7    7.097      33.174
2015    4       11     6  58    4.0391   395.6    7.096      33.168
2015    4       11     7   4    4.0392   395.6    7.096      33.162
2015    4       11     7  10    4.0393   395.5    7.096      33.156
2015    4       11     7  16    4.0394   395.5    7.095      33.151
2015    4       11     7  22    4.0396   395.4    7.095      33.145
2015    4       11     7  28    4.0397   395.4    7.095      33.139
2015    4       11     7  34    4.0399   395.3    7.095      33.133
2015    4       11     7  40    4.0400   395.2    7.095      33.127
2015    4       11     7  45    4.0402   395.2    7.095      33.121
2015    4       11     7  51    4.0403   395.1    7.095      33.116
2015    4       11     7  57    4.0405   395.1    7.095      33.110
2015    4       11     8   3    4.0406   395.0    7.095      33.104
2015    4       11     8   9    4.0408   395.0    7.095      33.099
2015    4       11     8  15    4.0410   394.9    7.095      33.093
2015    4       11     8  21    4.0411   394.9    7.095      33.088
2015    4       11     8  27    4.0413   394.8    7.095      33.082
2015    4       11     8  33    4.0415   394.8    7.096      33.077
2015    4       11     8  39    4.0416   394.7    7.096      33.072
2015    4       11     8  45    4.0418   394.7    7.096      33.066
2015    4       11     8  51    4.0419   394.6    7.097      33.061
2015    4       11     8  57    4.0421   394.6    7.097      33.056
2015    4       11     9   3    4.0422   394.5    7.098      33.050
2015    4       11     9   9    4.0424   394.5    7.098      33.045
2015    4       11     9  15    4.0425   394.4    7.099      33.040
2015    4       11     9  21    4.0426   394.4    7.099      33.035
2015    4       11     9  27    4.0428   394.3    7.100      33.030
2015    4       11     9  33    4.0429   394.3    7.100      33.025
2015    4       11     9  39    4.0430   394.2    7.101      33.020
2015    4       11     9  45    4.0431   394.2    7.102      33.015
2015    4       11     9  51    4.0432   394.1    7.102      33.010
2015    4       11     9  57    4.0434   394.1    7.103      33.005
2015    4       11    10   3    4.0435   394.0    7.103      33.000
2015    4       11    10   9    4.0436   394.0    7.104      32.995
2015    4       11    10  15    4.0437   393.9    7.105      32.990
2015    4       11    10  21    4.0438   393.9    7.105      32.985
2015    4       11    10  27    4.0439   393.8    7.106      32.980
2015    4       11    10  33    4.0440   393.8    7.106      32.975
2015    4       11    10  39    4.0441   393.7    7.107      32.970
2015    4       11    10  45    4.0442   393.7    7.107      32.965
2015    4       11    10  51    4.0443   393.6    7.108      32.959
2015    4       11    10  57    4.0444   393.6    7.108      32.955
2015    4       11    11   3    4.0445   393.5    7.109      32.949
2015    4       11    11   9    4.0445   393.4    7.109      32.944
2015    4       11    11  15    4.0446   393.4    7.110      32.939
2015    4       11    11  21    4.0447   393.3    7.110      32.934
2015    4       11    11  27    4.0447   393.3    7.111      32.929
2015    4       11    11  33    4.0448   393.2    7.111      32.924
2015    4       11    11  39    4.0449   393.2    7.112      32.919
2015    4       11    11  45    4.0449   393.1    7.112      32.914
2015    4       11    11  51    4.0450   393.1    7.112      32.909
2015    4       11    11  57    4.0450   393.0    7.113      32.904
2015    4       11    12   3    4.0451   393.0    7.113      32.899
2015    4       11    12   9    4.0451   392.9    7.113      32.894
2015    4       11    12  15    4.0452   392.9    7.114      32.889
2015    4       11    12  21    4.0452   392.8    7.114      32.884
2015    4       11    12  27    4.0453   392.8    7.114      32.879
2015    4       11    12  33    4.0453   392.7    7.114      32.874
2015    4       11    12  39    4.0454   392.7    7.115      32.869
2015    4       11    12  45    4.0454   392.6    7.115      32.864
2015    4       11    12  51    4.0454   392.5    7.115      32.858
2015    4       11    12  57    4.0454   392.5    7.115      32.853
2015    4       11    13   3    4.0455   392.4    7.115      32.848
2015    4       11    13   9    4.0455   392.4    7.115      32.843
2015    4       11    13  15    4.0456   392.3    7.115      32.838
2015    4       11    13  21    4.0456   392.3    7.115      32.833
2015    4       11    13  27    4.0456   392.2    7.115      32.827
2015    4       11    13  33    4.0457   392.1    7.115      32.822
2015    4       11    13  39    4.0457   392.1    7.115      32.817
2015    4       11    13  45    4.0458   392.0    7.115      32.812
2015    4       11    13  51    4.0458   392.0    7.115      32.806
2015    4       11    13  57    4.0459   391.9    7.114      32.801
2015    4       11    14   3    4.0460   391.9    7.114      32.796
2015    4       11    14   9    4.0460   391.8    7.114      32.791
2015    4       11    14  15    4.0461   391.8    7.114      32.786
2015    4       11    14  21    4.0462   391.7    7.114      32.781
2015    4       11    14  27    4.0463   391.6    7.114      32.776
2015    4       11    14  33    4.0464   391.6    7.114      32.771
2015    4       11    14  39    4.0465   391.5    7.114      32.766
2015    4       11    14  45    4.0466   391.5    7.114      32.761
2015    4       11    14  51    4.0468   391.4    7.114      32.756
2015    4       11    14  57    4.0469   391.4    7.114      32.751
2015    4       11    15   3    4.0471   391.3    7.114      32.746
2015    4       11    15   9    4.0472   391.2    7.114      32.742
2015    4       11    15  15    4.0474   391.2    7.114      32.737
2015    4       11    15  21    4.0476   391.1    7.114      32.732
2015    4       11    15  27    4.0478   391.1    7.114      32.728
2015    4       11    15  33    4.0480   391.0    7.115      32.723
2015    4       11    15  39    4.0483   391.0    7.115      32.719
2015    4       11    15  45    4.0485   390.9    7.115      32.714
2015    4       11    15  51    4.0487   390.8    7.115      32.710
2015    4       11    15  57    4.0490   390.8    7.116      32.706
2015    4       11    16   3    4.0493   390.7    7.116      32.701
2015    4       11    16   9    4.0496   390.7    7.117      32.697
2015    4       11    16  15    4.0499   390.6    7.117      32.693
2015    4       11    16  21    4.0502   390.6    7.118      32.689
2015    4       11    16  27    4.0505   390.5    7.118      32.685
2015    4       11    16  33    4.0508   390.4    7.119      32.681
2015    4       11    16  39    4.0512   390.4    7.120      32.677
2015    4       11    16  45    4.0516   390.3    7.121      32.673
2015    4       11    16  51    4.0519   390.3    7.121      32.669
2015    4       11    16  57    4.0523   390.2    7.122      32.666
2015    4       11    17   3    4.0527   390.2    7.123      32.662
2015    4       11    17   9    4.0531   390.1    7.124      32.659
2015    4       11    17  15    4.0536   390.0    7.126      32.655
2015    4       11    17  21    4.0540   390.0    7.127      32.652
2015    4       11    17  27    4.0544   389.9    7.128      32.648
2015    4       11    17  33    4.0549   389.9    7.129      32.645
2015    4       11    17  39    4.0553   389.8    7.131      32.642
2015    4       11    17  45    4.0558   389.8    7.132      32.639
2015    4       11    17  51    4.0563   389.7    7.134      32.636
2015    4       11    17  57    4.0568   389.6    7.135      32.633
2015    4       11    18   3    4.0573   389.6    7.137      32.630
2015    4       11    18   9    4.0578   389.5    7.139      32.627
2015    4       11    18  15    4.0583   389.5    7.141      32.625
2015    4       11    18  21    4.0588   389.4    7.142      32.622
2015    4       11    18  27    4.0594   389.4    7.144      32.620
2015    4       11    18  33    4.0599   389.3    7.146      32.617
2015    4       11    18  39    4.0605   389.2    7.149      32.615
2015    4       11    18  45    4.0610   389.2    7.151      32.612
2015    4       11    18  51    4.0616   389.1    7.153      32.610
2015    4       11    18  57    4.0622   389.1    7.155      32.608
2015    4       11    19   3    4.0627   389.0    7.157      32.605
2015    4       11    19   9    4.0633   389.0    7.160      32.603
2015    4       11    19  15    4.0639   388.9    7.162      32.601
2015    4       11    19  21    4.0645   388.8    7.165      32.599
2015    4       11    19  27    4.0650   388.8    7.167      32.596
2015    4       11    19  33    4.0656   388.7    7.170      32.594
2015    4       11    19  39    4.0662   388.7    7.172      32.592
2015    4       11    19  45    4.0668   388.6    7.175      32.590
2015    4       11    19  51    4.0674   388.6    7.178      32.588
2015    4       11    19  57    4.0680   388.5    7.180      32.586
2015    4       11    20   3    4.0686   388.4    7.183      32.584
2015    4       11    20   9    4.0693   388.4    7.186      32.581
2015    4       11    20  15    4.0699   388.3    7.188      32.579
2015    4       11    20  21    4.0705   388.3    7.191      32.577
2015    4       11    20  27    4.0711   388.2    7.194      32.575
2015    4       11    20  33    4.0717   388.1    7.196      32.572
2015    4       11    20  39    4.0724   388.1    7.199      32.570
2015    4       11    20  45    4.0730   388.0    7.202      32.568
2015    4       11    20  51    4.0737   388.0    7.205      32.565
2015    4       11    20  57    4.0743   387.9    7.207      32.562
2015    4       11    21   3    4.0750   387.8    7.210      32.560
2015    4       11    21   9    4.0757   387.8    7.213      32.557
2015    4       11    21  15    4.0763   387.7    7.216      32.554
2015    4       11    21  21    4.0770   387.7    7.218      32.552
2015    4       11    21  27    4.0777   387.6    7.221      32.549
2015    4       11    21  33    4.0785   387.5    7.224      32.546
2015    4       11    21  39    4.0792   387.5    7.227      32.543
2015    4       11    21  45    4.0800   387.4    7.229      32.540
2015    4       11    21  51    4.0807   387.4    7.232      32.537
2015    4       11    21  57    4.0815   387.3    7.235      32.535
2015    4       11    22   3    4.0823   387.2    7.238      32.531
2015    4       11    22   9    4.0831   387.2    7.240      32.528
2015    4       11    22  15    4.0839   387.1    7.243      32.525
2015    4       11    22  21    4.0847   387.0    7.246      32.522
2015    4       11    22  26    4.0856   387.0    7.248      32.519
2015    4       11    22  32    4.0864   386.9    7.251      32.516
2015    4       11    22  38    4.0873   386.9    7.253      32.513
2015    4       11    22  44    4.0882   386.8    7.256      32.509
2015    4       11    22  50    4.0892   386.7    7.259      32.506
2015    4       11    22  56    4.0901   386.7    7.261      32.503
2015    4       11    23   2    4.0910   386.6    7.264      32.500
2015    4       11    23   8    4.0920   386.5    7.266      32.496
2015    4       11    23  14    4.0930   386.5    7.269      32.493
2015    4       11    23  20    4.0940   386.4    7.272      32.490
2015    4       11    23  26    4.0950   386.3    7.274      32.487
2015    4       11    23  32    4.0961   386.3    7.277      32.484
2015    4       11    23  38    4.0971   386.2    7.279      32.481
2015    4       11    23  44    4.0982   386.2    7.282      32.477
2015    4       11    23  50    4.0993   386.1    7.284      32.474
2015    4       11    23  56    4.1004   386.0    7.287      32.471
2015    4       12     0   2    4.1015   386.0    7.289      32.468
2015    4       12     0   8    4.1026   385.9    7.292      32.466
2015    4       12     0  14    4.1038   385.8    7.295      32.463
2015    4       12     0  20    4.1049   385.8    7.297      32.460
2015    4       12     0  26    4.1061   385.7    7.300      32.457
2015    4       12     0  32    4.1073   385.6    7.302      32.455
2015    4       12     0  38    4.1084   385.6    7.305      32.452
2015    4       12     0  44    4.1096   385.5    7.307      32.450
2015    4       12     0  50    4.1108   385.4    7.310      32.447
2015    4       12     0  56    4.1120   385.4    7.313      32.445
2015    4       12     1   2    4.1132   385.3    7.315      32.442
2015    4       12     1   8    4.1144   385.2    7.318      32.440
2015    4       12     1  14    4.1156   385.2    7.321      32.438
2015    4       12     1  20    4.1169   385.1    7.324      32.436
2015    4       12     1  26    4.1181   385.0    7.326      32.434
2015    4       12     1  32    4.1193   385.0    7.329      32.432
2015    4       12     1  38    4.1205   384.9    7.332      32.430
2015    4       12     1  44    4.1218   384.9    7.335      32.428
2015    4       12     1  50    4.1231   384.8    7.338      32.426
2015    4       12     1  56    4.1243   384.7    7.341      32.425
2015    4       12     2   2    4.1256   384.7    7.343      32.423
2015    4       12     2   8    4.1269   384.6    7.346      32.422
2015    4       12     2  14    4.1281   384.5    7.350      32.420
2015    4       12     2  20    4.1294   384.5    7.353      32.419
2015    4       12     2  26    4.1307   384.4    7.356      32.417
2015    4       12     2  32    4.1320   384.3    7.359      32.416
2015    4       12     2  38    4.1334   384.3    7.362      32.415
2015    4       12     2  44    4.1347   384.2    7.366      32.414
2015    4       12     2  50    4.1360   384.1    7.369      32.413
2015    4       12     2  56    4.1374   384.1    7.373      32.412
2015    4       12     3   2    4.1387   384.0    7.376      32.411
2015    4       12     3   8    4.1401   383.9    7.380      32.410
2015    4       12     3  14    4.1415   383.9    7.384      32.409
2015    4       12     3  20    4.1429   383.8    7.387      32.408
2015    4       12     3  26    4.1443   383.7    7.391      32.408
2015    4       12     3  32    4.1457   383.7    7.395      32.407
2015    4       12     3  38    4.1472   383.6    7.400      32.407
2015    4       12     3  44    4.1487   383.5    7.404      32.406
2015    4       12     3  50    4.1502   383.5    7.408      32.406
2015    4       12     3  56    4.1517   383.4    7.413      32.406
2015    4       12     4   2    4.1532   383.3    7.417      32.406
2015    4       12     4   8    4.1548   383.3    7.422      32.406
2015    4       12     4  14    4.1564   383.2    7.427      32.406
2015    4       12     4  20    4.1580   383.1    7.432      32.406
2015    4       12     4  26    4.1597   383.1    7.437      32.407
2015    4       12     4  32    4.1614   383.0    7.443      32.407
2015    4       12     4  38    4.1631   383.0    7.449      32.408
2015    4       12     4  44    4.1649   382.9    7.454      32.409
2015    4       12     4  50    4.1667   382.8    7.460      32.411
2015    4       12     4  56    4.1686   382.8    7.466      32.412
2015    4       12     5   2    4.1705   382.7    7.473      32.414
2015    4       12     5   8    4.1724   382.6    7.479      32.416
2015    4       12     5  14    4.1744   382.6    7.486      32.418
2015    4       12     5  20    4.1765   382.5    7.493      32.420
2015    4       12     5  26    4.1785   382.4    7.500      32.423
2015    4       12     5  32    4.1807   382.4    7.507      32.426
2015    4       12     5  38    4.1829   382.3    7.515      32.430
2015    4       12     5  44    4.1851   382.3    7.522      32.433
2015    4       12     5  50    4.1874   382.2    7.530      32.438
2015    4       12     5  56    4.1897   382.1    7.539      32.442
2015    4       12     6   2    4.1920   382.1    7.547      32.447
2015    4       12     6   8    4.1944   382.0    7.555      32.452
2015    4       12     6  14    4.1969   382.0    7.564      32.457
2015    4       12     6  20    4.1994   381.9    7.573      32.463
2015    4       12     6  26    4.2019   381.9    7.582      32.469
2015    4       12     6  32    4.2045   381.8    7.591      32.476
2015    4       12     6  38    4.2071   381.7    7.600      32.483
2015    4       12     6  44    4.2097   381.7    7.610      32.491
2015    4       12     6  50    4.2124   381.6    7.619      32.499
2015    4       12     6  56    4.2151   381.6    7.629      32.508
2015    4       12     7   2    4.2177   381.5    7.638      32.516
2015    4       12     7   8    4.2204   381.5    7.648      32.526
2015    4       12     7  14    4.2230   381.4    7.658      32.536
2015    4       12     7  20    4.2257   381.4    7.668      32.546
2015    4       12     7  26    4.2284   381.3    7.677      32.557
2015    4       12     7  32    4.2310   381.3    7.687      32.569
2015    4       12     7  38    4.2337   381.2    7.696      32.581
2015    4       12     7  44    4.2363   381.2    7.705      32.594
2015    4       12     7  50    4.2389   381.1    7.715      32.607
2015    4       12     7  56    4.2416   381.1    7.724      32.620
2015    4       12     8   2    4.2442   381.0    7.733      32.633
2015    4       12     8   8    4.2468   381.0    7.741      32.646
2015    4       12     8  14    4.2494   381.0    7.750      32.659
2015    4       12     8  20    4.2520   380.9    7.759      32.671
2015    4       12     8  26    4.2546   380.9    7.767      32.683
2015    4       12     8  32    4.2572   380.8    7.776      32.696
2015    4       12     8  38    4.2598   380.8    7.784      32.707
2015    4       12     8  44    4.2624   380.7    7.792      32.719
2015    4       12     8  50    4.2650   380.7    7.801      32.731
2015    4       12     8  56    4.2676   380.6    7.809      32.742
2015    4       12     9   2    4.2701   380.6    7.817      32.754
2015    4       12     9   8    4.2727   380.6    7.825      32.765
2015    4       12     9  14    4.2753   380.5    7.833      32.776
2015    4       12     9  20    4.2779   380.5    7.841      32.787
2015    4       12     9  26    4.2805   380.4    7.848      32.798
2015    4       12     9  32    4.2831   380.4    7.856      32.809
2015    4       12     9  38    4.2856   380.3    7.864      32.820
2015    4       12     9  44    4.2882   380.3    7.872      32.831
2015    4       12     9  50    4.2908   380.3    7.880      32.841
2015    4       12     9  56    4.2934   380.2    7.887      32.852
2015    4       12    10   2    4.2960   380.2    7.895      32.862
2015    4       12    10   8    4.2986   380.1    7.903      32.873
2015    4       12    10  14    4.3012   380.1    7.911      32.883
2015    4       12    10  20    4.3039   380.1    7.918      32.894
2015    4       12    10  26    4.3065   380.0    7.926      32.904
2015    4       12    10  32    4.3092   380.0    7.934      32.914
2015    4       12    10  38    4.3118   379.9    7.942      32.925
2015    4       12    10  44    4.3145   379.9    7.950      32.935
2015    4       12    10  50    4.3172   379.9    7.957      32.946
2015    4       12    10  56    4.3199   379.8    7.965      32.956
2015    4       12    11   2    4.3227   379.8    7.974      32.967
2015    4       12    11   8    4.3254   379.7    7.982      32.978
2015    4       12    11  14    4.3282   379.7    7.990      32.989
2015    4       12    11  20    4.3310   379.7    7.998      33.001
2015    4       12    11  26    4.3338   379.6    8.007      33.012
2015    4       12    11  32    4.3366   379.6    8.015      33.024
2015    4       12    11  38    4.3395   379.6    8.024      33.036
2015    4       12    11  44    4.3424   379.5    8.033      33.048
2015    4       12    11  50    4.3454   379.5    8.042      33.061
2015    4       12    11  56    4.3483   379.5    8.051      33.073
2015    4       12    12   2    4.3514   379.5    8.061      33.087
2015    4       12    12   8    4.3544   379.4    8.071      33.100
2015    4       12    12  14    4.3575   379.4    8.081      33.114
2015    4       12    12  20    4.3606   379.4    8.091      33.128
2015    4       12    12  26    4.3638   379.3    8.101      33.143
2015    4       12    12  32    4.3671   379.3    8.112      33.158
2015    4       12    12  38    4.3704   379.3    8.123      33.174
2015    4       12    12  44    4.3737   379.3    8.134      33.190
2015    4       12    12  49    4.3771   379.3    8.146      33.206
2015    4       12    12  55    4.3805   379.2    8.157      33.224
2015    4       12    13   1    4.3840   379.2    8.170      33.241
2015    4       12    13   7    4.3876   379.2    8.182      33.259
2015    4       12    13  13    4.3912   379.2    8.195      33.278
2015    4       12    13  19    4.3949   379.2    8.208      33.297
2015    4       12    13  25    4.3986   379.1    8.222      33.317
2015    4       12    13  31    4.4024   379.1    8.236      33.337
2015    4       12    13  37    4.4063   379.1    8.250      33.359
2015    4       12    13  43    4.4102   379.1    8.264      33.382
2015    4       12    13  49    4.4141   379.1    8.279      33.405
2015    4       12    13  55    4.4182   379.1    8.294      33.429
2015    4       12    14   1    4.4222   379.1    8.310      33.453
2015    4       12    14   7    4.4264   379.1    8.325      33.479
2015    4       12    14  13    4.4305   379.1    8.341      33.506
2015    4       12    14  19    4.4347   379.1    8.357      33.534
2015    4       12    14  25    4.4389   379.1    8.373      33.563
2015    4       12    14  31    4.4431   379.1    8.389      33.594
2015    4       12    14  37    4.4472   379.1    8.404      33.626
2015    4       12    14  43    4.4514   379.1    8.420      33.659
2015    4       12    14  49    4.4554   379.1    8.435      33.693
2015    4       12    14  55    4.4595   379.1    8.451      33.728
2015    4       12    15   1    4.4635   379.2    8.465      33.763
2015    4       12    15   7    4.4674   379.2    8.480      33.798
2015    4       12    15  13    4.4713   379.2    8.494      33.833
2015    4       12    15  19    4.4752   379.2    8.508      33.867
2015    4       12    15  25    4.4790   379.2    8.521      33.902
2015    4       12    15  31    4.4828   379.2    8.534      33.936
2015    4       12    15  37    4.4865   379.3    8.547      33.969
2015    4       12    15  43    4.4902   379.3    8.560      34.002
2015    4       12    15  49    4.4938   379.3    8.572      34.034
2015    4       12    15  55    4.4974   379.3    8.584      34.066
2015    4       12    16   1    4.5010   379.3    8.595      34.097
2015    4       12    16   7    4.5045   379.3    8.607      34.127
2015    4       12    16  13    4.5080   379.4    8.618      34.156
2015    4       12    16  19    4.5115   379.4    8.629      34.185
2015    4       12    16  25    4.5150   379.4    8.639      34.213
2015    4       12    16  31    4.5184   379.4    8.649      34.241
2015    4       12    16  37    4.5218   379.4    8.660      34.268
2015    4       12    16  43    4.5252   379.5    8.669      34.295
2015    4       12    16  49    4.5285   379.5    8.679      34.321
2015    4       12    16  55    4.5318   379.5    8.689      34.346
2015    4       12    17   1    4.5351   379.5    8.698      34.371
2015    4       12    17   7    4.5384   379.6    8.707      34.396
2015    4       12    17  13    4.5417   379.6    8.716      34.420
2015    4       12    17  19    4.5450   379.6    8.725      34.444
2015    4       12    17  25    4.5482   379.6    8.734      34.467
2015    4       12    17  31    4.5514   379.7    8.742      34.490
2015    4       12    17  37    4.5547   379.7    8.751      34.512
2015    4       12    17  43    4.5579   379.7    8.759      34.535
2015    4       12    17  49    4.5611   379.7    8.767      34.556
2015    4       12    17  55    4.5643   379.8    8.776      34.578
2015    4       12    18   1    4.5675   379.8    8.784      34.599
2015    4       12    18   7    4.5706   379.8    8.792      34.621
2015    4       12    18  13    4.5738   379.8    8.800      34.642
2015    4       12    18  19    4.5770   379.9    8.808      34.662
2015    4       12    18  25    4.5802   379.9    8.815      34.683
2015    4       12    18  31    4.5833   379.9    8.823      34.703
2015    4       12    18  37    4.5865   380.0    8.831      34.724
2015    4       12    18  43    4.5897   380.0    8.839      34.744
2015    4       12    18  49    4.5928   380.0    8.847      34.765
2015    4       12    18  55    4.5960   380.0    8.854      34.785
2015    4       12    19   1    4.5992   380.1    8.862      34.805
2015    4       12    19   7    4.6023   380.1    8.870      34.826
2015    4       12    19  13    4.6055   380.1    8.878      34.846
2015    4       12    19  19    4.6087   380.2    8.886      34.866
2015    4       12    19  25    4.6119   380.2    8.894      34.887
2015    4       12    19  31    4.6151   380.2    8.902      34.907
2015    4       12    19  37    4.6183   380.3    8.910      34.928
2015    4       12    19  43    4.6215   380.3    8.918      34.948
2015    4       12    19  49    4.6248   380.4    8.927      34.969
2015    4       12    19  55    4.6280   380.4    8.935      34.990
2015    4       12    20   1    4.6313   380.4    8.944      35.011
2015    4       12    20   7    4.6345   380.5    8.952      35.032
2015    4       12    20  13    4.6379   380.5    8.961      35.054
2015    4       12    20  19    4.6412   380.5    8.970      35.076
2015    4       12    20  25    4.6445   380.6    8.979      35.098
2015    4       12    20  31    4.6479   380.6    8.989      35.120
2015    4       12    20  37    4.6514   380.6    8.998      35.143
2015    4       12    20  43    4.6548   380.7    9.008      35.166
2015    4       12    20  49    4.6583   380.7    9.018      35.190
2015    4       12    20  55    4.6619   380.8    9.029      35.215
2015    4       12    21   1    4.6655   380.8    9.039      35.240
2015    4       12    21   7    4.6691   380.9    9.050      35.266
2015    4       12    21  13    4.6728   380.9    9.061      35.292
2015    4       12    21  19    4.6765   381.0    9.073      35.320
2015    4       12    21  25    4.6802   381.0    9.084      35.348
2015    4       12    21  31    4.6840   381.1    9.096      35.378
2015    4       12    21  37    4.6878   381.1    9.108      35.409
2015    4       12    21  43    4.6917   381.2    9.120      35.441
2015    4       12    21  49    4.6955   381.2    9.132      35.474
2015    4       12    21  55    4.6993   381.3    9.144      35.509
2015    4       12    22   1    4.7031   381.3    9.156      35.545
2015    4       12    22   7    4.7069   381.4    9.168      35.583
2015    4       12    22  13    4.7106   381.5    9.179      35.622
2015    4       12    22  19    4.7143   381.5    9.191      35.662
2015    4       12    22  25    4.7179   381.6    9.202      35.703
2015    4       12    22  31    4.7214   381.7    9.212      35.743
2015    4       12    22  37    4.7249   381.8    9.223      35.784
2015    4       12    22  43    4.7283   381.8    9.233      35.825
2015    4       12    22  49    4.7317   381.9    9.242      35.866
2015    4       12    22  55    4.7350   382.0    9.252      35.906
2015    4       12    23   1    4.7382   382.1    9.260      35.945
2015    4       12    23   7    4.7414   382.2    9.269      35.984
2015    4       12    23  13    4.7445   382.2    9.277      36.022
2015    4       12    23  19    4.7476   382.3    9.285      36.059
2015    4       12    23  25    4.7506   382.4    9.292      36.095
2015    4       12    23  31    4.7535   382.5    9.299      36.130
2015    4       12    23  37    4.7565   382.5    9.306      36.165
2015    4       12    23  43    4.7593   382.6    9.313      36.199
2015    4       12    23  49    4.7621   382.7    9.319      36.233
2015    4       12    23  55    4.7649   382.8    9.325      36.266
2015    4       13     0   1    4.7677   382.9    9.330      36.298
2015    4       13     0   7    4.7704   382.9    9.336      36.329
2015    4       13     0  13    4.7731   383.0    9.341      36.360
2015    4       13     0  19    4.7758   383.1    9.346      36.390
2015    4       13     0  25    4.7784   383.2    9.351      36.420
2015    4       13     0  31    4.7810   383.3    9.355      36.449
2015    4       13     0  37    4.7836   383.4    9.360      36.478
2015    4       13     0  43    4.7862   383.4    9.364      36.506
2015    4       13     0  49    4.7887   383.5    9.368      36.534
2015    4       13     0  55    4.7913   383.6    9.371      36.561
2015    4       13     1   1    4.7938   383.7    9.375      36.588
2015    4       13     1   7    4.7963   383.8    9.379      36.614
2015    4       13     1  13    4.7987   383.9    9.382      36.641
2015    4       13     1  19    4.8012   383.9    9.385      36.666
2015    4       13     1  25    4.8036   384.0    9.388      36.692
2015    4       13     1  31    4.8060   384.1    9.391      36.717
2015    4       13     1  37    4.8084   384.2    9.394      36.741
2015    4       13     1  43    4.8108   384.3    9.396      36.766
2015    4       13     1  49    4.8132   384.4    9.399      36.789
2015    4       13     1  55    4.8155   384.5    9.401      36.813
2015    4       13     2   1    4.8179   384.5    9.404      36.837
2015    4       13     2   7    4.8202   384.6    9.406      36.860
2015    4       13     2  13    4.8225   384.7    9.408      36.883
2015    4       13     2  19    4.8248   384.8    9.410      36.905
2015    4       13     2  25    4.8271   384.9    9.412      36.928
2015    4       13     2  31    4.8294   385.0    9.414      36.950
2015    4       13     2  37    4.8316   385.1    9.416      36.971
2015    4       13     2  43    4.8339   385.1    9.418      36.993
2015    4       13     2  49    4.8361   385.2    9.420      37.014
2015    4       13     2  55    4.8384   385.3    9.422      37.035
2015    4       13     3   1    4.8406   385.4    9.423      37.056
2015    4       13     3   6    4.8428   385.5    9.425      37.077
2015    4       13     3  12    4.8450   385.6    9.427      37.098
2015    4       13     3  18    4.8472   385.7    9.429      37.118
2015    4       13     3  24    4.8494   385.7    9.430      37.138
2015    4       13     3  30    4.8516   385.8    9.432      37.159
2015    4       13     3  36    4.8538   385.9    9.434      37.179
2015    4       13     3  42    4.8559   386.0    9.435      37.199
2015    4       13     3  48    4.8581   386.1    9.437      37.219
2015    4       13     3  54    4.8604   386.1    9.439      37.239
2015    4       13     4   0    4.8626   386.2    9.441      37.259
2015    4       13     4   6    4.8648   386.3    9.443      37.279
2015    4       13     4  12    4.8670   386.4    9.445      37.300
2015    4       13     4  18    4.8693   386.5    9.447      37.320
2015    4       13     4  24    4.8715   386.6    9.449      37.341
2015    4       13     4  30    4.8738   386.6    9.452      37.362
2015    4       13     4  36    4.8760   386.7    9.454      37.384
2015    4       13     4  42    4.8783   386.8    9.457      37.406
2015    4       13     4  48    4.8806   386.9    9.460      37.428
2015    4       13     4  54    4.8829   387.0    9.462      37.451
2015    4       13     5   0    4.8852   387.1    9.465      37.474
2015    4       13     5   6    4.8875   387.2    9.468      37.498
2015    4       13     5  12    4.8898   387.2    9.472      37.522
2015    4       13     5  18    4.8920   387.3    9.475      37.548
2015    4       13     5  24    4.8943   387.4    9.478      37.574
2015    4       13     5  30    4.8965   387.5    9.481      37.601
2015    4       13     5  36    4.8986   387.6    9.484      37.629
2015    4       13     5  42    4.9008   387.7    9.487      37.657
2015    4       13     5  48    4.9029   387.8    9.490      37.686
2015    4       13     5  54    4.9050   387.9    9.493      37.716
2015    4       13     6   0    4.9070   388.0    9.495      37.745
2015    4       13     6   6    4.9090   388.1    9.498      37.774
2015    4       13     6  12    4.9110   388.2    9.501      37.803
2015    4       13     6  18    4.9129   388.3    9.503      37.831
2015    4       13     6  24    4.9149   388.4    9.505      37.860
2015    4       13     6  30    4.9167   388.5    9.508      37.888
2015    4       13     6  36    4.9186   388.6    9.510      37.916
2015    4       13     6  42    4.9204   388.7    9.512      37.944
2015    4       13     6  48    4.9223   388.8    9.514      37.972
2015    4       13     6  54    4.9241   388.9    9.516      38.000
2015    4       13     7   0    4.9259   389.0    9.518      38.027
2015    4       13     7   6    4.9277   389.1    9.519      38.054
2015    4       13     7  12    4.9295   389.2    9.521      38.082
2015    4       13     7  18    4.9313   389.3    9.523      38.109
2015    4       13     7  24    4.9331   389.4    9.524      38.136
2015    4       13     7  30    4.9348   389.5    9.526      38.162
2015    4       13     7  36    4.9366   389.6    9.527      38.189
2015    4       13     7  42    4.9384   389.7    9.529      38.215
2015    4       13     7  48    4.9402   389.8    9.530      38.242
2015    4       13     7  54    4.9420   389.9    9.532      38.268
2015    4       13     8   0    4.9437   390.0    9.533      38.294
2015    4       13     8   6    4.9455   390.1    9.534      38.320
2015    4       13     8  12    4.9473   390.3    9.536      38.345
2015    4       13     8  18    4.9491   390.4    9.537      38.371
2015    4       13     8  24    4.9509   390.5    9.538      38.396
2015    4       13     8  30    4.9527   390.6    9.540      38.421
2015    4       13     8  36    4.9546   390.7    9.541      38.447
2015    4       13     8  42    4.9564   390.8    9.542      38.471
2015    4       13     8  48    4.9583   390.9    9.543      38.496
2015    4       13     8  54    4.9601   391.0    9.545      38.521
2015    4       13     9   0    4.9620   391.1    9.546      38.546
2015    4       13     9   6    4.9639   391.2    9.547      38.571
2015    4       13     9  12    4.9658   391.3    9.549      38.596
2015    4       13     9  18    4.9677   391.5    9.550      38.622
2015    4       13     9  24    4.9696   391.6    9.552      38.648
2015    4       13     9  30    4.9716   391.7    9.553      38.674
2015    4       13     9  36    4.9735   391.8    9.554      38.700
2015    4       13     9  42    4.9754   391.9    9.556      38.727
2015    4       13     9  48    4.9772   392.0    9.557      38.755
2015    4       13     9  54    4.9790   392.2    9.558      38.784
2015    4       13    10   0    4.9808   392.3    9.559      38.813
2015    4       13    10   6    4.9826   392.4    9.560      38.843
2015    4       13    10  12    4.9843   392.5    9.560      38.873
2015    4       13    10  18    4.9859   392.6    9.561      38.904
2015    4       13    10  24    4.9875   392.8    9.561      38.934
2015    4       13    10  30    4.9891   392.9    9.561      38.965
2015    4       13    10  36    4.9906   393.0    9.561      38.994
2015    4       13    10  42    4.9920   393.1    9.561      39.023
2015    4       13    10  48    4.9934   393.3    9.560      39.052
2015    4       13    10  54    4.9948   393.4    9.560      39.080
2015    4       13    11   0    4.9961   393.5    9.559      39.108
2015    4       13    11   6    4.9974   393.6    9.558      39.136
2015    4       13    11  12    4.9987   393.7    9.557      39.163
2015    4       13    11  18    5.0000   393.9    9.556      39.189
2015    4       13    11  24    5.0012   394.0    9.555      39.216
2015    4       13    11  30    5.0023   394.1    9.553      39.242
2015    4       13    11  36    5.0035   394.2    9.552      39.267
2015    4       13    11  42    5.0046   394.3    9.551      39.292
2015    4       13    11  48    5.0058   394.5    9.549      39.317
2015    4       13    11  54    5.0069   394.6    9.547      39.342
2015    4       13    12   0    5.0079   394.7    9.546      39.366
2015    4       13    12   6    5.0090   394.8    9.544      39.389
2015    4       13    12  12    5.0100   394.9    9.542      39.413
2015    4       13    12  18    5.0110   395.1    9.540      39.436
2015    4       13    12  24    5.0120   395.2    9.538      39.459
2015    4       13    12  30    5.0130   395.3    9.537      39.482
2015    4       13    12  36    5.0140   395.4    9.535      39.504
2015    4       13    12  42    5.0149   395.5    9.533      39.527
2015    4       13    12  48    5.0159   395.7    9.531      39.548
2015    4       13    12  54    5.0168   395.8    9.528      39.570
2015    4       13    13   0    5.0177   395.9    9.526      39.592
2015    4       13    13   6    5.0186   396.0    9.524      39.613
2015    4       13    13  12    5.0195   396.1    9.522      39.634
2015    4       13    13  18    5.0204   396.3    9.520      39.655
2015    4       13    13  24    5.0212   396.4    9.518      39.675
2015    4       13    13  30    5.0221   396.5    9.516      39.696
2015    4       13    13  36    5.0229   396.6    9.513      39.716
2015    4       13    13  42    5.0238   396.7    9.511      39.736
2015    4       13    13  48    5.0246   396.9    9.509      39.756
2015    4       13    13  54    5.0255   397.0    9.507      39.776
2015    4       13    14   0    5.0263   397.1    9.504      39.796
2015    4       13    14   6    5.0271   397.2    9.502      39.815
2015    4       13    14  12    5.0279   397.3    9.500      39.835
2015    4       13    14  18    5.0288   397.4    9.498      39.854
2015    4       13    14  24    5.0296   397.6    9.495      39.873
2015    4       13    14  30    5.0304   397.7    9.493      39.892
2015    4       13    14  36    5.0313   397.8    9.491      39.911
2015    4       13    14  42    5.0321   397.9    9.489      39.930
2015    4       13    14  48    5.0330   398.0    9.486      39.948
2015    4       13    14  54    5.0339   398.2    9.484      39.967
2015    4       13    15   0    5.0347   398.3    9.482      39.986
2015    4       13    15   6    5.0356   398.4    9.480      40.004
2015    4       13    15  12    5.0366   398.5    9.478      40.022
2015    4       13    15  18    5.0375   398.6    9.475      40.041
2015    4       13    15  24    5.0385   398.7    9.473      40.059
2015    4       13    15  30    5.0395   398.9    9.471      40.077
2015    4       13    15  36    5.0405   399.0    9.469      40.095
2015    4       13    15  42    5.0415   399.1    9.467      40.113
2015    4       13    15  48    5.0426   399.2    9.466      40.131
2015    4       13    15  54    5.0438   399.3    9.464      40.150
2015    4       13    16   0    5.0449   399.5    9.462      40.168
2015    4       13    16   6    5.0461   399.6    9.460      40.187
2015    4       13    16  12    5.0474   399.7    9.459      40.206
2015    4       13    16  18    5.0487   399.8    9.457      40.226
2015    4       13    16  24    5.0500   399.9    9.456      40.245
2015    4       13    16  30    5.0513   400.1    9.454      40.266
2015    4       13    16  36    5.0526   400.2    9.453      40.286
2015    4       13    16  42    5.0540   400.3    9.451      40.308
2015    4       13    16  48    5.0554   400.4    9.449      40.331
2015    4       13    16  54    5.0567   400.6    9.447      40.354
2015    4       13    17   0    5.0580   400.7    9.445      40.379
2015    4       13    17   6    5.0593   400.8    9.443      40.404
2015    4       13    17  11    5.0605   401.0    9.441      40.429
2015    4       13    17  17    5.0617   401.1    9.438      40.455
2015    4       13    17  23    5.0629   401.2    9.435      40.480
2015    4       13    17  29    5.0640   401.4    9.432      40.505
2015    4       13    17  35    5.0650   401.5    9.428      40.530
2015    4       13    17  41    5.0660   401.7    9.424      40.554
2015    4       13    17  47    5.0669   401.8    9.420      40.578
2015    4       13    17  53    5.0678   401.9    9.416      40.601
2015    4       13    17  59    5.0686   402.1    9.412      40.624
2015    4       13    18   5    5.0694   402.2    9.407      40.647
2015    4       13    18  11    5.0701   402.3    9.403      40.669
2015    4       13    18  17    5.0708   402.5    9.398      40.690
2015    4       13    18  23    5.0714   402.6    9.392      40.711
2015    4       13    18  29    5.0720   402.7    9.387      40.732
2015    4       13    18  35    5.0725   402.9    9.382      40.752
2015    4       13    18  41    5.0731   403.0    9.376      40.772
2015    4       13    18  47    5.0736   403.1    9.370      40.791
2015    4       13    18  53    5.0740   403.3    9.365      40.810
2015    4       13    18  59    5.0744   403.4    9.359      40.828
2015    4       13    19   5    5.0748   403.6    9.353      40.846
2015    4       13    19  11    5.0751   403.7    9.346      40.864
2015    4       13    19  17    5.0754   403.8    9.340      40.881
2015    4       13    19  23    5.0757   404.0    9.334      40.898
2015    4       13    19  29    5.0760   404.1    9.327      40.914
2015    4       13    19  35    5.0762   404.2    9.320      40.930
2015    4       13    19  41    5.0764   404.4    9.314      40.945
2015    4       13    19  47    5.0765   404.5    9.307      40.960
2015    4       13    19  53    5.0767   404.6    9.300      40.974
2015    4       13    19  59    5.0768   404.8    9.293      40.989
2015    4       13    20   5    5.0769   404.9    9.286      41.002
2015    4       13    20  11    5.0769   405.1    9.279      41.015
2015    4       13    20  17    5.0769   405.2    9.271      41.028
2015    4       13    20  23    5.0770   405.3    9.264      41.041
2015    4       13    20  29    5.0769   405.5    9.257      41.053
2015    4       13    20  35    5.0769   405.6    9.249      41.064
2015    4       13    20  41    5.0769   405.7    9.242      41.075
2015    4       13    20  47    5.0768   405.9    9.234      41.086
2015    4       13    20  53    5.0767   406.0    9.226      41.097
2015    4       13    20  59    5.0766   406.1    9.219      41.107
2015    4       13    21   5    5.0765   406.3    9.211      41.117
2015    4       13    21  11    5.0764   406.4    9.203      41.127
2015    4       13    21  17    5.0762   406.6    9.195      41.136
2015    4       13    21  23    5.0761   406.7    9.188      41.145
2015    4       13    21  29    5.0759   406.8    9.180      41.154
2015    4       13    21  35    5.0758   407.0    9.172      41.163
2015    4       13    21  41    5.0756   407.1    9.164      41.171
2015    4       13    21  47    5.0754   407.2    9.156      41.179
2015    4       13    21  53    5.0752   407.4    9.148      41.187
2015    4       13    21  59    5.0751   407.5    9.140      41.195
2015    4       13    22   5    5.0749   407.6    9.132      41.203
2015    4       13    22  11    5.0747   407.8    9.124      41.210
2015    4       13    22  17    5.0745   407.9    9.116      41.217
2015    4       13    22  23    5.0743   408.0    9.108      41.224
2015    4       13    22  29    5.0741   408.2    9.100      41.231
2015    4       13    22  35    5.0739   408.3    9.092      41.238
2015    4       13    22  41    5.0738   408.4    9.083      41.245
2015    4       13    22  47    5.0736   408.5    9.075      41.252
2015    4       13    22  53    5.0734   408.7    9.067      41.258
2015    4       13    22  59    5.0733   408.8    9.059      41.264
2015    4       13    23   5    5.0731   408.9    9.051      41.271
2015    4       13    23  11    5.0730   409.1    9.042      41.277
2015    4       13    23  17    5.0729   409.2    9.034      41.283
2015    4       13    23  23    5.0728   409.3    9.025      41.288
2015    4       13    23  29    5.0726   409.5    9.017      41.294
2015    4       13    23  35    5.0725   409.6    9.009      41.300
2015    4       13    23  41    5.0724   409.7    9.000      41.305
2015    4       13    23  47    5.0723   409.8    8.992      41.311
2015    4       13    23  53    5.0722   410.0    8.983      41.316
2015    4       13    23  59    5.0721   410.1    8.974      41.321
2015    4       14     0   5    5.0720   410.2    8.966      41.326
2015    4       14     0  11    5.0719   410.3    8.957      41.331
2015    4       14     0  17    5.0718   410.5    8.948      41.336
2015    4       14     0  23    5.0717   410.6    8.940      41.341
2015    4       14     0  29    5.0716   410.7    8.931      41.345
2015    4       14     0  35    5.0715   410.8    8.922      41.350
2015    4       14     0  41    5.0713   411.0    8.913      41.354
2015    4       14     0  47    5.0712   411.1    8.905      41.358
2015    4       14     0  53    5.0710   411.2    8.896      41.362
2015    4       14     0  59    5.0709   411.3    8.887      41.366
2015    4       14     1   5    5.0706   411.5    8.878      41.370
2015    4       14     1  11    5.0704   411.6    8.870      41.374
2015    4       14     1  17    5.0702   411.7    8.861      41.378
2015    4       14     1  23    5.0699   411.8    8.852      41.382
2015    4       14     1  29    5.0696   411.9    8.844      41.386
2015    4       14     1  35    5.0694   412.1    8.835      41.389
2015    4       14     1  41    5.0690   412.2    8.827      41.393
2015    4       14     1  47    5.0687   412.3    8.818      41.397
2015    4       14     1  53    5.0683   412.4    8.810      41.400
2015    4       14     1  59    5.0680   412.5    8.801      41.404
2015    4       14     2   5    5.0676   412.7    8.793      41.407
2015    4       14     2  11    5.0672   412.8    8.784      41.411
2015    4       14     2  17    5.0667   412.9    8.776      41.414
2015    4       14     2  23    5.0663   413.0    8.768      41.417
2015    4       14     2  29    5.0658   413.1    8.760      41.419
2015    4       14     2  35    5.0653   413.3    8.751      41.422
2015    4       14     2  41    5.0648   413.4    8.743      41.424
2015    4       14     2  47    5.0643   413.5    8.735      41.426
2015    4       14     2  53    5.0637   413.6    8.727      41.428
2015    4       14     2  59    5.0632   413.7    8.718      41.430
2015    4       14     3   5    5.0626   413.8    8.710      41.432
2015    4       14     3  11    5.0620   414.0    8.702      41.434
2015    4       14     3  17    5.0614   414.1    8.694      41.435
2015    4       14     3  23    5.0607   414.2    8.686      41.436
2015    4       14     3  29    5.0601   414.3    8.678      41.437
2015    4       14     3  35    5.0595   414.4    8.670      41.438
2015    4       14     3  41    5.0588   414.6    8.662      41.438
2015    4       14     3  47    5.0581   414.7    8.654      41.439
2015    4       14     3  53    5.0574   414.8    8.646      41.439
2015    4       14     3  59    5.0567   414.9    8.637      41.440
2015    4       14     4   5    5.0560   415.0    8.629      41.440
2015    4       14     4  11    5.0553   415.1    8.622      41.440
2015    4       14     4  17    5.0546   415.2    8.614      41.440
2015    4       14     4  23    5.0540   415.4    8.606      41.440
2015    4       14     4  29    5.0533   415.5    8.598      41.440
2015    4       14     4  35    5.0526   415.6    8.590      41.441
2015    4       14     4  41    5.0519   415.7    8.582      41.441
2015    4       14     4  47    5.0513   415.8    8.575      41.441
2015    4       14     4  53    5.0506   415.9    8.567      41.441
2015    4       14     4  59    5.0500   416.0    8.560      41.442
2015    4       14     5   5    5.0494   416.1    8.552      41.443
2015    4       14     5  11    5.0488   416.3    8.545      41.444
2015    4       14     5  17    5.0483   416.4    8.538      41.445
2015    4       14     5  23    5.0477   416.5    8.531      41.446
2015    4       14     5  29    5.0472   416.6    8.524      41.448
2015    4       14     5  35    5.0468   416.7    8.518      41.450
2015    4       14     5  41    5.0463   416.8    8.511      41.453
2015    4       14     5  47    5.0459   416.9    8.505      41.456
2015    4       14     5  53    5.0455   417.0    8.498      41.459
2015    4       14     5  59    5.0451   417.1    8.492      41.463
2015    4       14     6   5    5.0448   417.2    8.486      41.467
2015    4       14     6  11    5.0446   417.3    8.481      41.472
2015    4       14     6  17    5.0443   417.5    8.475      41.477
2015    4       14     6  23    5.0441   417.6    8.470      41.483
2015    4       14     6  29    5.0440   417.7    8.465      41.490
2015    4       14     6  35    5.0438   417.8    8.460      41.497
2015    4       14     6  41    5.0438   417.9    8.455      41.505
2015    4       14     6  47    5.0437   418.0    8.450      41.513
2015    4       14     6  53    5.0437   418.1    8.445      41.522
2015    4       14     6  58    5.0437   418.2    8.441      41.532
2015    4       14     7   4    5.0438   418.3    8.437      41.541
2015    4       14     7  10    5.0439   418.4    8.433      41.552
2015    4       14     7  16    5.0440   418.5    8.429      41.563
2015    4       14     7  22    5.0441   418.7    8.425      41.574
2015    4       14     7  28    5.0442   418.8    8.421      41.586
2015    4       14     7  34    5.0444   418.9    8.417      41.599
2015    4       14     7  40    5.0445   419.0    8.413      41.611
2015    4       14     7  46    5.0446   419.1    8.409      41.624
2015    4       14     7  52    5.0448   419.2    8.405      41.637
2015    4       14     7  58    5.0449   419.3    8.401      41.650
2015    4       14     8   4    5.0449   419.5    8.397      41.662
2015    4       14     8  10    5.0450   419.6    8.393      41.674
2015    4       14     8  16    5.0450   419.7    8.388      41.685
2015    4       14     8  22    5.0450   419.8    8.384      41.696
2015    4       14     8  28    5.0450   419.9    8.379      41.706
2015    4       14     8  34    5.0449   420.0    8.375      41.716
2015    4       14     8  40    5.0449   420.1    8.370      41.725
2015    4       14     8  46    5.0448   420.2    8.366      41.735
2015    4       14     8  52    5.0447   420.3    8.361      41.744
2015    4       14     8  58    5.0446   420.4    8.356      41.753
2015    4       14     9   4    5.0444   420.6    8.352      41.761
2015    4       14     9  10    5.0443   420.7    8.347      41.770
2015    4       14     9  16    5.0441   420.8    8.343      41.778
2015    4       14     9  22    5.0440   420.9    8.338      41.786
2015    4       14     9  28    5.0438   421.0    8.334      41.794
2015    4       14     9  34    5.0436   421.1    8.329      41.801
2015    4       14     9  40    5.0434   421.2    8.325      41.809
2015    4       14     9  46    5.0433   421.3    8.320      41.816
2015    4       14     9  52    5.0431   421.4    8.316      41.823
2015    4       14     9  58    5.0429   421.5    8.312      41.830
2015    4       14    10   4    5.0427   421.6    8.307      41.837
2015    4       14    10  10    5.0425   421.7    8.303      41.844
2015    4       14    10  16    5.0423   421.8    8.299      41.851
2015    4       14    10  22    5.0421   421.9    8.295      41.858
2015    4       14    10  28    5.0419   422.0    8.290      41.864
2015    4       14    10  34    5.0417   422.2    8.286      41.871
2015    4       14    10  40    5.0415   422.3    8.282      41.877
2015    4       14    10  46    5.0413   422.4    8.278      41.884
2015    4       14    10  52    5.0412   422.5    8.274      41.890
2015    4       14    10  58    5.0410   422.6    8.271      41.897
2015    4       14    11   4    5.0409   422.7    8.267      41.904
2015    4       14    11  10    5.0407   422.8    8.263      41.910
2015    4       14    11  16    5.0406   422.9    8.259      41.917
2015    4       14    11  22    5.0405   423.0    8.256      41.924
2015    4       14    11  28    5.0405   423.1    8.252      41.931
2015    4       14    11  34    5.0404   423.2    8.249      41.939
2015    4       14    11  40    5.0404   423.3    8.245      41.947
2015    4       14    11  46    5.0404   423.4    8.242      41.955
2015    4       14    11  52    5.0405   423.5    8.239      41.964
2015    4       14    11  58    5.0406   423.6    8.236      41.972
2015    4       14    12   4    5.0407   423.7    8.233      41.982
2015    4       14    12  10    5.0409   423.8    8.230      41.992
2015    4       14    12  16    5.0411   423.9    8.228      42.002
2015    4       14    12  22    5.0414   424.0    8.225      42.014
2015    4       14    12  28    5.0417   424.1    8.223      42.025
2015    4       14    12  34    5.0420   424.2    8.221      42.038
2015    4       14    12  40    5.0424   424.3    8.219      42.051
2015    4       14    12  46    5.0429   424.4    8.218      42.065
2015    4       14    12  52    5.0434   424.5    8.217      42.080
2015    4       14    12  58    5.0440   424.6    8.215      42.095
2015    4       14    13   4    5.0446   424.7    8.215      42.112
2015    4       14    13  10    5.0453   424.8    8.214      42.129
2015    4       14    13  16    5.0461   424.9    8.214      42.148
2015    4       14    13  22    5.0469   425.0    8.214      42.167
2015    4       14    13  28    5.0478   425.1    8.215      42.187
2015    4       14    13  34    5.0487   425.2    8.216      42.209
2015    4       14    13  40    5.0498   425.4    8.217      42.231
2015    4       14    13  46    5.0508   425.5    8.218      42.255
2015    4       14    13  52    5.0520   425.6    8.220      42.279
2015    4       14    13  58    5.0532   425.7    8.222      42.306
2015    4       14    14   4    5.0545   425.8    8.225      42.334
2015    4       14    14  10    5.0559   425.9    8.228      42.364
2015    4       14    14  16    5.0573   426.0    8.231      42.394
2015    4       14    14  22    5.0587   426.2    8.234      42.425
2015    4       14    14  28    5.0603   426.3    8.238      42.458
2015    4       14    14  34    5.0618   426.4    8.242      42.493
2015    4       14    14  40    5.0634   426.5    8.246      42.530
2015    4       14    14  46    5.0650   426.7    8.250      42.568
2015    4       14    14  52    5.0665   426.8    8.253      42.609
2015    4       14    14  58    5.0681   426.9    8.257      42.650
2015    4       14    15   4    5.0696   427.1    8.260      42.693
2015    4       14    15  10    5.0711   427.2    8.263      42.736
2015    4       14    15  16    5.0725   427.4    8.265      42.780
2015    4       14    15  22    5.0739   427.5    8.267      42.822
2015    4       14    15  28    5.0752   427.6    8.269      42.863
2015    4       14    15  34    5.0765   427.8    8.270      42.903
2015    4       14    15  40    5.0777   427.9    8.271      42.943
2015    4       14    15  46    5.0789   428.1    8.272      42.981
2015    4       14    15  52    5.0800   428.2    8.273      43.019
2015    4       14    15  58    5.0811   428.3    8.273      43.056
2015    4       14    16   4    5.0821   428.5    8.273      43.092
2015    4       14    16  10    5.0831   428.6    8.273      43.127
2015    4       14    16  16    5.0841   428.8    8.272      43.162
2015    4       14    16  22    5.0851   428.9    8.271      43.196
2015    4       14    16  28    5.0860   429.1    8.270      43.229
2015    4       14    16  34    5.0870   429.2    8.269      43.262
2015    4       14    16  40    5.0879   429.3    8.268      43.294
2015    4       14    16  46    5.0888   429.5    8.267      43.326
2015    4       14    16  52    5.0897   429.6    8.265      43.357
2015    4       14    16  58    5.0906   429.8    8.263      43.388
2015    4       14    17   4    5.0915   429.9    8.262      43.418
2015    4       14    17  10    5.0924   430.1    8.260      43.448
2015    4       14    17  16    5.0933   430.2    8.258      43.477
2015    4       14    17  22    5.0941   430.4    8.255      43.507
2015    4       14    17  28    5.0950   430.5    8.253      43.535
2015    4       14    17  34    5.0959   430.7    8.251      43.564
2015    4       14    17  40    5.0969   430.8    8.249      43.592
2015    4       14    17  46    5.0978   431.0    8.246      43.620
2015    4       14    17  52    5.0987   431.1    8.244      43.648
2015    4       14    17  58    5.0997   431.2    8.241      43.676
2015    4       14    18   4    5.1006   431.4    8.239      43.703
2015    4       14    18  10    5.1016   431.5    8.236      43.730
2015    4       14    18  16    5.1026   431.7    8.234      43.757
2015    4       14    18  22    5.1036   431.9    8.231      43.784
2015    4       14    18  28    5.1046   432.0    8.229      43.811
2015    4       14    18  34    5.1057   432.2    8.226      43.838
2015    4       14    18  40    5.1067   432.3    8.224      43.865
2015    4       14    18  46    5.1078   432.5    8.221      43.892
2015    4       14    18  52    5.1089   432.6    8.218      43.920
2015    4       14    18  58    5.1100   432.8    8.216      43.947
2015    4       14    19   4    5.1112   432.9    8.214      43.975
2015    4       14    19  10    5.1124   433.1    8.211      44.002
2015    4       14    19  16    5.1136   433.2    8.209      44.031
2015    4       14    19  22    5.1148   433.4    8.207      44.059
2015    4       14    19  28    5.1160   433.5    8.204      44.088
2015    4       14    19  34    5.1173   433.7    8.202      44.117
2015    4       14    19  40    5.1186   433.9    8.200      44.147
2015    4       14    19  46    5.1199   434.0    8.199      44.178
2015    4       14    19  52    5.1212   434.2    8.197      44.209
2015    4       14    19  58    5.1226   434.4    8.195      44.240
2015    4       14    20   4    5.1239   434.5    8.194      44.273
2015    4       14    20  10    5.1254   434.7    8.193      44.306
2015    4       14    20  16    5.1268   434.8    8.192      44.339
2015    4       14    20  22    5.1283   435.0    8.191      44.374
2015    4       14    20  28    5.1297   435.2    8.191      44.409
2015    4       14    20  33    5.1312   435.3    8.190      44.445
2015    4       14    20  39    5.1328   435.5    8.190      44.481
2015    4       14    20  45    5.1344   435.7    8.191      44.519
2015    4       14    20  51    5.1360   435.9    8.191      44.557
2015    4       14    20  57    5.1376   436.0    8.192      44.596
2015    4       14    21   3    5.1393   436.2    8.193      44.636
2015    4       14    21   9    5.1410   436.4    8.194      44.677
2015    4       14    21  15    5.1427   436.5    8.196      44.720
2015    4       14    21  21    5.1444   436.7    8.198      44.764
2015    4       14    21  27    5.1462   436.9    8.200      44.808
2015    4       14    21  33    5.1480   437.1    8.203      44.854
2015    4       14    21  39    5.1498   437.2    8.205      44.901
2015    4       14    21  45    5.1516   437.4    8.208      44.950
2015    4       14    21  51    5.1534   437.6    8.212      45.000
2015    4       14    21  57    5.1552   437.8    8.215      45.052
2015    4       14    22   3    5.1570   437.9    8.218      45.106
2015    4       14    22   9    5.1587   438.1    8.222      45.162
2015    4       14    22  15    5.1604   438.3    8.225      45.221
2015    4       14    22  21    5.1621   438.5    8.229      45.281
2015    4       14    22  27    5.1637   438.7    8.232      45.341
2015    4       14    22  33    5.1654   438.9    8.235      45.402
2015    4       14    22  39    5.1670   439.1    8.238      45.463
2015    4       14    22  45    5.1686   439.2    8.241      45.525
2015    4       14    22  51    5.1701   439.4    8.244      45.587
2015    4       14    22  57    5.1716   439.6    8.247      45.651
2015    4       14    23   3    5.1731   439.8    8.249      45.714
2015    4       14    23   9    5.1746   440.0    8.251      45.778
2015    4       14    23  15    5.1761   440.2    8.253      45.842
2015    4       14    23  21    5.1775   440.4    8.254      45.906
2015    4       14    23  27    5.1790   440.6    8.255      45.969
2015    4       14    23  33    5.1805   440.8    8.256      46.032
2015    4       14    23  39    5.1819   441.0    8.256      46.093
2015    4       14    23  45    5.1833   441.2    8.256      46.153
2015    4       14    23  51    5.1848   441.4    8.256      46.212
2015    4       14    23  57    5.1861   441.6    8.255      46.270
2015    4       15     0   3    5.1876   441.8    8.254      46.327
