year    month   day   hour  minute  B_enl V_enl   n_enl       T_enl
[year] [month] [day] [hour][minute] [nT]  [km/s]  [cm-3]      [kK]
2015    4       14     0   5    4.9616   472.1    6.744      47.441
2015    4       14     0  11    4.9648   472.3    6.748      47.501
2015    4       14     0  17    4.9679   472.5    6.752      47.565
2015    4       14     0  23    4.9710   472.6    6.756      47.631
2015    4       14     0  29    4.9739   472.8    6.761      47.699
2015    4       14     0  35    4.9768   473.1    6.764      47.767
2015    4       14     0  41    4.9796   473.3    6.768      47.837
2015    4       14     0  47    4.9823   473.5    6.771      47.907
2015    4       14     0  53    4.9849   473.7    6.773      47.974
2015    4       14     0  59    4.9874   473.9    6.776      48.040
2015    4       14     1   5    4.9898   474.1    6.778      48.104
2015    4       14     1  11    4.9921   474.3    6.779      48.166
2015    4       14     1  17    4.9943   474.5    6.780      48.226
2015    4       14     1  23    4.9965   474.7    6.781      48.285
2015    4       14     1  30    4.9986   474.9    6.782      48.342
2015    4       14     1  36    5.0007   475.1    6.782      48.398
2015    4       14     1  42    5.0028   475.3    6.782      48.453
2015    4       14     1  48    5.0048   475.6    6.782      48.507
2015    4       14     1  54    5.0068   475.8    6.782      48.560
2015    4       14     2   0    5.0088   476.0    6.781      48.612
2015    4       14     2   6    5.0108   476.2    6.781      48.664
2015    4       14     2  12    5.0127   476.4    6.780      48.715
2015    4       14     2  18    5.0147   476.6    6.779      48.766
2015    4       14     2  24    5.0166   476.8    6.778      48.816
2015    4       14     2  30    5.0185   477.0    6.777      48.865
2015    4       14     2  36    5.0205   477.2    6.776      48.914
2015    4       14     2  42    5.0224   477.4    6.775      48.963
2015    4       14     2  48    5.0242   477.6    6.773      49.011
2015    4       14     2  54    5.0261   477.8    6.771      49.059
2015    4       14     3   0    5.0280   478.0    6.769      49.106
2015    4       14     3   6    5.0298   478.3    6.767      49.153
2015    4       14     3  12    5.0316   478.5    6.765      49.198
2015    4       14     3  18    5.0334   478.7    6.762      49.243
2015    4       14     3  24    5.0352   478.9    6.760      49.287
2015    4       14     3  30    5.0369   479.1    6.757      49.330
2015    4       14     3  36    5.0387   479.3    6.754      49.372
2015    4       14     3  42    5.0404   479.5    6.751      49.414
2015    4       14     3  48    5.0421   479.7    6.748      49.455
2015    4       14     3  54    5.0438   479.9    6.744      49.494
2015    4       14     4   0    5.0455   480.2    6.741      49.534
2015    4       14     4   6    5.0471   480.4    6.737      49.572
2015    4       14     4  12    5.0488   480.6    6.734      49.611
2015    4       14     4  18    5.0504   480.8    6.730      49.648
2015    4       14     4  24    5.0521   481.0    6.726      49.685
2015    4       14     4  30    5.0537   481.2    6.723      49.722
2015    4       14     4  36    5.0553   481.4    6.719      49.758
2015    4       14     4  42    5.0570   481.6    6.715      49.794
2015    4       14     4  48    5.0586   481.8    6.711      49.829
2015    4       14     4  54    5.0602   482.1    6.708      49.864
2015    4       14     5   0    5.0618   482.3    6.704      49.899
2015    4       14     5   6    5.0635   482.5    6.700      49.934
2015    4       14     5  12    5.0651   482.7    6.696      49.968
2015    4       14     5  18    5.0667   482.9    6.693      50.003
2015    4       14     5  24    5.0684   483.1    6.689      50.037
2015    4       14     5  30    5.0700   483.3    6.686      50.072
2015    4       14     5  36    5.0717   483.5    6.682      50.107
2015    4       14     5  42    5.0734   483.7    6.679      50.142
2015    4       14     5  48    5.0751   483.9    6.676      50.178
2015    4       14     5  54    5.0769   484.1    6.674      50.215
2015    4       14     6   0    5.0787   484.3    6.671      50.252
2015    4       14     6   6    5.0805   484.6    6.669      50.290
2015    4       14     6  12    5.0824   484.8    6.667      50.330
2015    4       14     6  18    5.0843   485.0    6.666      50.370
2015    4       14     6  24    5.0863   485.2    6.665      50.413
2015    4       14     6  30    5.0884   485.4    6.664      50.456
2015    4       14     6  36    5.0905   485.6    6.664      50.501
2015    4       14     6  42    5.0927   485.8    6.664      50.548
2015    4       14     6  48    5.0950   486.0    6.665      50.598
2015    4       14     6  54    5.0973   486.2    6.666      50.652
2015    4       14     7   0    5.0997   486.4    6.668      50.708
2015    4       14     7   6    5.1021   486.6    6.670      50.767
2015    4       14     7  12    5.1047   486.9    6.673      50.828
2015    4       14     7  18    5.1072   487.1    6.676      50.892
2015    4       14     7  24    5.1098   487.3    6.679      50.960
2015    4       14     7  30    5.1124   487.5    6.683      51.032
2015    4       14     7  36    5.1149   487.8    6.686      51.107
2015    4       14     7  42    5.1173   488.0    6.689      51.184
2015    4       14     7  48    5.1197   488.3    6.692      51.265
2015    4       14     7  54    5.1219   488.6    6.694      51.346
2015    4       14     8   0    5.1240   488.8    6.696      51.426
2015    4       14     8   6    5.1260   489.1    6.697      51.504
2015    4       14     8  12    5.1280   489.4    6.698      51.578
2015    4       14     8  18    5.1298   489.6    6.698      51.650
2015    4       14     8  24    5.1315   489.9    6.698      51.719
2015    4       14     8  30    5.1331   490.2    6.697      51.786
2015    4       14     8  36    5.1347   490.4    6.696      51.851
2015    4       14     8  42    5.1362   490.7    6.694      51.913
2015    4       14     8  48    5.1376   491.0    6.692      51.974
2015    4       14     8  54    5.1390   491.2    6.689      52.032
2015    4       14     9   0    5.1403   491.5    6.687      52.088
2015    4       14     9   6    5.1416   491.8    6.683      52.143
2015    4       14     9  12    5.1429   492.0    6.680      52.196
2015    4       14     9  18    5.1441   492.3    6.676      52.248
2015    4       14     9  24    5.1453   492.6    6.672      52.297
2015    4       14     9  30    5.1464   492.9    6.668      52.346
2015    4       14     9  36    5.1476   493.1    6.663      52.393
2015    4       14     9  42    5.1486   493.4    6.658      52.439
2015    4       14     9  48    5.1497   493.7    6.653      52.483
2015    4       14     9  54    5.1507   494.0    6.648      52.526
2015    4       14    10   0    5.1517   494.3    6.642      52.569
2015    4       14    10   6    5.1526   494.5    6.637      52.610
2015    4       14    10  12    5.1535   494.8    6.631      52.651
2015    4       14    10  18    5.1543   495.1    6.625      52.690
2015    4       14    10  24    5.1551   495.4    6.618      52.729
2015    4       14    10  30    5.1559   495.7    6.612      52.766
2015    4       14    10  36    5.1566   496.0    6.605      52.803
2015    4       14    10  42    5.1573   496.2    6.599      52.839
2015    4       14    10  48    5.1580   496.5    6.592      52.874
2015    4       14    10  54    5.1586   496.8    6.585      52.908
2015    4       14    11   0    5.1591   497.1    6.577      52.941
2015    4       14    11   6    5.1596   497.4    6.570      52.973
2015    4       14    11  13    5.1601   497.7    6.563      53.005
2015    4       14    11  19    5.1606   497.9    6.555      53.036
2015    4       14    11  25    5.1610   498.2    6.548      53.067
2015    4       14    11  31    5.1614   498.5    6.540      53.097
2015    4       14    11  37    5.1617   498.8    6.532      53.127
2015    4       14    11  43    5.1621   499.1    6.525      53.156
2015    4       14    11  49    5.1624   499.4    6.517      53.185
2015    4       14    11  55    5.1626   499.6    6.509      53.214
2015    4       14    12   1    5.1629   499.9    6.502      53.242
2015    4       14    12   7    5.1631   500.2    6.494      53.270
2015    4       14    12  13    5.1633   500.5    6.486      53.299
2015    4       14    12  19    5.1635   500.8    6.479      53.327
2015    4       14    12  25    5.1636   501.1    6.471      53.354
2015    4       14    12  31    5.1637   501.3    6.463      53.382
2015    4       14    12  37    5.1638   501.6    6.456      53.410
2015    4       14    12  43    5.1638   501.9    6.448      53.438
2015    4       14    12  49    5.1638   502.2    6.441      53.467
2015    4       14    12  55    5.1639   502.5    6.434      53.496
2015    4       14    13   1    5.1639   502.7    6.426      53.525
2015    4       14    13   7    5.1639   503.0    6.419      53.555
2015    4       14    13  13    5.1639   503.3    6.413      53.586
2015    4       14    13  19    5.1639   503.6    6.406      53.617
2015    4       14    13  25    5.1639   503.8    6.400      53.650
2015    4       14    13  31    5.1640   504.1    6.394      53.684
2015    4       14    13  37    5.1640   504.4    6.388      53.720
2015    4       14    13  43    5.1641   504.7    6.382      53.757
2015    4       14    13  49    5.1642   504.9    6.377      53.795
2015    4       14    13  55    5.1643   505.2    6.372      53.835
2015    4       14    14   1    5.1643   505.5    6.368      53.879
2015    4       14    14   7    5.1645   505.8    6.364      53.924
2015    4       14    14  13    5.1646   506.0    6.360      53.972
2015    4       14    14  19    5.1647   506.3    6.356      54.022
2015    4       14    14  25    5.1648   506.6    6.352      54.073
2015    4       14    14  31    5.1650   506.9    6.349      54.127
2015    4       14    14  37    5.1651   507.1    6.346      54.185
2015    4       14    14  43    5.1652   507.4    6.343      54.245
2015    4       14    14  49    5.1653   507.7    6.340      54.306
2015    4       14    14  55    5.1653   508.0    6.336      54.370
2015    4       14    15   1    5.1652   508.3    6.332      54.435
2015    4       14    15   7    5.1651   508.6    6.328      54.500
2015    4       14    15  13    5.1650   508.9    6.324      54.563
2015    4       14    15  19    5.1648   509.2    6.319      54.623
2015    4       14    15  25    5.1645   509.5    6.314      54.681
2015    4       14    15  31    5.1642   509.8    6.309      54.737
2015    4       14    15  37    5.1638   510.1    6.303      54.792
2015    4       14    15  43    5.1634   510.4    6.297      54.845
2015    4       14    15  49    5.1629   510.7    6.291      54.896
2015    4       14    15  55    5.1624   511.0    6.285      54.945
2015    4       14    16   1    5.1619   511.3    6.278      54.992
2015    4       14    16   7    5.1613   511.6    6.271      55.038
2015    4       14    16  13    5.1606   511.9    6.264      55.082
2015    4       14    16  19    5.1599   512.2    6.256      55.125
2015    4       14    16  25    5.1591   512.5    6.249      55.165
2015    4       14    16  31    5.1583   512.8    6.241      55.204
2015    4       14    16  37    5.1574   513.1    6.233      55.242
2015    4       14    16  43    5.1564   513.4    6.225      55.278
2015    4       14    16  49    5.1554   513.7    6.216      55.312
2015    4       14    16  55    5.1543   514.0    6.208      55.345
2015    4       14    17   1    5.1532   514.3    6.199      55.377
2015    4       14    17   7    5.1520   514.6    6.190      55.408
2015    4       14    17  13    5.1507   514.9    6.181      55.437
2015    4       14    17  19    5.1494   515.2    6.172      55.465
2015    4       14    17  25    5.1480   515.5    6.163      55.493
2015    4       14    17  31    5.1466   515.8    6.153      55.519
2015    4       14    17  37    5.1452   516.1    6.144      55.544
2015    4       14    17  43    5.1436   516.4    6.134      55.568
2015    4       14    17  49    5.1421   516.7    6.125      55.592
2015    4       14    17  55    5.1404   517.0    6.115      55.614
2015    4       14    18   1    5.1387   517.3    6.105      55.636
2015    4       14    18   7    5.1370   517.6    6.095      55.656
2015    4       14    18  13    5.1352   517.9    6.085      55.676
2015    4       14    18  19    5.1334   518.2    6.075      55.695
2015    4       14    18  25    5.1315   518.5    6.065      55.713
2015    4       14    18  31    5.1296   518.8    6.055      55.731
2015    4       14    18  37    5.1277   519.1    6.045      55.748
2015    4       14    18  43    5.1257   519.4    6.035      55.764
2015    4       14    18  49    5.1237   519.7    6.025      55.780
2015    4       14    18  55    5.1217   520.0    6.014      55.795
2015    4       14    19   1    5.1196   520.3    6.004      55.809
2015    4       14    19   7    5.1175   520.6    5.994      55.823
2015    4       14    19  13    5.1153   520.9    5.984      55.837
2015    4       14    19  19    5.1132   521.2    5.973      55.850
2015    4       14    19  25    5.1109   521.5    5.963      55.862
2015    4       14    19  31    5.1087   521.8    5.953      55.875
2015    4       14    19  37    5.1064   522.0    5.943      55.886
2015    4       14    19  43    5.1042   522.3    5.932      55.898
2015    4       14    19  49    5.1018   522.6    5.922      55.909
2015    4       14    19  55    5.0995   522.9    5.912      55.920
2015    4       14    20   1    5.0971   523.2    5.902      55.931
2015    4       14    20   7    5.0947   523.5    5.892      55.941
2015    4       14    20  13    5.0923   523.7    5.881      55.951
2015    4       14    20  19    5.0899   524.0    5.871      55.962
2015    4       14    20  25    5.0875   524.3    5.861      55.972
2015    4       14    20  31    5.0850   524.6    5.851      55.983
2015    4       14    20  37    5.0826   524.8    5.842      55.994
2015    4       14    20  43    5.0801   525.1    5.832      56.005
2015    4       14    20  49    5.0776   525.4    5.822      56.016
2015    4       14    20  55    5.0751   525.6    5.813      56.028
2015    4       14    21   2    5.0726   525.9    5.803      56.040
2015    4       14    21   8    5.0701   526.2    5.794      56.053
2015    4       14    21  14    5.0676   526.4    5.784      56.067
2015    4       14    21  20    5.0651   526.7    5.775      56.081
2015    4       14    21  26    5.0625   527.0    5.766      56.096
2015    4       14    21  32    5.0599   527.2    5.757      56.111
2015    4       14    21  38    5.0574   527.5    5.747      56.127
2015    4       14    21  44    5.0548   527.8    5.738      56.143
2015    4       14    21  50    5.0522   528.0    5.729      56.160
2015    4       14    21  56    5.0496   528.3    5.720      56.177
2015    4       14    22   2    5.0470   528.5    5.711      56.195
2015    4       14    22   8    5.0444   528.8    5.702      56.213
2015    4       14    22  14    5.0417   529.0    5.693      56.232
2015    4       14    22  20    5.0391   529.3    5.684      56.250
2015    4       14    22  26    5.0364   529.5    5.674      56.267
2015    4       14    22  32    5.0338   529.8    5.665      56.283
2015    4       14    22  38    5.0311   530.0    5.656      56.299
2015    4       14    22  44    5.0285   530.3    5.647      56.315
2015    4       14    22  50    5.0258   530.5    5.638      56.329
2015    4       14    22  56    5.0231   530.8    5.629      56.343
2015    4       14    23   2    5.0204   531.0    5.619      56.357
2015    4       14    23   8    5.0177   531.3    5.610      56.370
2015    4       14    23  14    5.0150   531.5    5.601      56.382
2015    4       14    23  20    5.0123   531.7    5.592      56.394
2015    4       14    23  26    5.0095   532.0    5.584      56.406
2015    4       14    23  32    5.0067   532.2    5.575      56.417
2015    4       14    23  38    5.0039   532.4    5.566      56.428
2015    4       14    23  44    5.0011   532.6    5.557      56.438
2015    4       14    23  50    4.9982   532.9    5.549      56.448
2015    4       14    23  56    4.9954   533.1    5.540      56.458
2015    4       15     0   2    4.9924   533.3    5.532      56.467
2015    4       15     0   8    4.9895   533.5    5.524      56.477
2015    4       15     0  14    4.9866   533.8    5.516      56.486
2015    4       15     0  20    4.9837   534.0    5.508      56.495
2015    4       15     0  26    4.9807   534.2    5.500      56.504
2015    4       15     0  32    4.9777   534.4    5.492      56.514
2015    4       15     0  38    4.9747   534.6    5.485      56.523
2015    4       15     0  44    4.9717   534.9    5.477      56.533
2015    4       15     0  50    4.9687   535.1    5.470      56.542
2015    4       15     0  56    4.9657   535.3    5.463      56.552
2015    4       15     1   2    4.9627   535.5    5.456      56.563
2015    4       15     1   8    4.9597   535.7    5.449      56.573
2015    4       15     1  14    4.9567   535.9    5.442      56.584
2015    4       15     1  20    4.9537   536.1    5.436      56.595
2015    4       15     1  26    4.9508   536.3    5.429      56.606
2015    4       15     1  32    4.9478   536.5    5.423      56.617
2015    4       15     1  38    4.9448   536.7    5.416      56.629
2015    4       15     1  44    4.9419   536.9    5.410      56.640
2015    4       15     1  50    4.9390   537.1    5.403      56.651
2015    4       15     1  56    4.9360   537.3    5.397      56.662
2015    4       15     2   2    4.9332   537.6    5.390      56.673
2015    4       15     2   8    4.9303   537.8    5.384      56.684
2015    4       15     2  14    4.9274   538.0    5.377      56.693
2015    4       15     2  20    4.9245   538.2    5.370      56.702
2015    4       15     2  26    4.9217   538.4    5.363      56.709
2015    4       15     2  32    4.9188   538.6    5.356      56.716
2015    4       15     2  38    4.9159   538.8    5.349      56.722
2015    4       15     2  44    4.9131   539.0    5.342      56.727
2015    4       15     2  50    4.9102   539.2    5.335      56.732
2015    4       15     2  56    4.9073   539.4    5.327      56.736
2015    4       15     3   2    4.9043   539.6    5.320      56.739
2015    4       15     3   8    4.9014   539.8    5.313      56.742
2015    4       15     3  14    4.8985   540.0    5.305      56.743
2015    4       15     3  20    4.8956   540.2    5.298      56.745
2015    4       15     3  26    4.8926   540.4    5.291      56.746
2015    4       15     3  32    4.8897   540.6    5.283      56.746
2015    4       15     3  38    4.8867   540.8    5.276      56.746
2015    4       15     3  44    4.8838   541.0    5.268      56.745
2015    4       15     3  50    4.8808   541.2    5.261      56.745
2015    4       15     3  56    4.8779   541.4    5.253      56.744
2015    4       15     4   2    4.8750   541.6    5.246      56.742
2015    4       15     4   8    4.8720   541.8    5.238      56.741
2015    4       15     4  14    4.8691   542.0    5.231      56.739
2015    4       15     4  20    4.8662   542.2    5.223      56.737
2015    4       15     4  26    4.8632   542.3    5.216      56.734
2015    4       15     4  32    4.8603   542.5    5.208      56.732
2015    4       15     4  38    4.8574   542.7    5.200      56.730
2015    4       15     4  44    4.8545   542.9    5.193      56.727
2015    4       15     4  50    4.8517   543.1    5.185      56.724
2015    4       15     4  56    4.8488   543.3    5.178      56.722
2015    4       15     5   2    4.8459   543.5    5.171      56.719
2015    4       15     5   8    4.8431   543.7    5.163      56.717
2015    4       15     5  14    4.8402   543.9    5.156      56.714
2015    4       15     5  20    4.8374   544.0    5.148      56.712
2015    4       15     5  26    4.8345   544.2    5.141      56.710
2015    4       15     5  32    4.8317   544.4    5.134      56.707
2015    4       15     5  38    4.8289   544.6    5.127      56.705
2015    4       15     5  44    4.8260   544.8    5.119      56.703
2015    4       15     5  50    4.8232   544.9    5.112      56.702
2015    4       15     5  56    4.8204   545.1    5.105      56.700
2015    4       15     6   2    4.8176   545.3    5.098      56.699
2015    4       15     6   8    4.8147   545.5    5.092      56.698
2015    4       15     6  14    4.8119   545.6    5.085      56.697
2015    4       15     6  20    4.8091   545.8    5.078      56.696
2015    4       15     6  26    4.8062   546.0    5.072      56.695
2015    4       15     6  32    4.8034   546.1    5.065      56.694
2015    4       15     6  38    4.8006   546.3    5.059      56.694
2015    4       15     6  44    4.7977   546.5    5.053      56.694
2015    4       15     6  51    4.7949   546.6    5.047      56.693
2015    4       15     6  57    4.7921   546.8    5.041      56.693
2015    4       15     7   3    4.7893   546.9    5.035      56.693
2015    4       15     7   9    4.7865   547.1    5.029      56.693
2015    4       15     7  15    4.7837   547.2    5.023      56.694
2015    4       15     7  21    4.7809   547.4    5.018      56.694
2015    4       15     7  27    4.7781   547.5    5.013      56.694
2015    4       15     7  33    4.7754   547.7    5.007      56.695
2015    4       15     7  39    4.7726   547.8    5.002      56.696
2015    4       15     7  45    4.7699   547.9    4.997      56.697
2015    4       15     7  51    4.7672   548.1    4.993      56.698
2015    4       15     7  57    4.7645   548.2    4.988      56.700
2015    4       15     8   3    4.7618   548.3    4.984      56.701
2015    4       15     8   9    4.7592   548.5    4.979      56.703
2015    4       15     8  15    4.7566   548.6    4.975      56.706
2015    4       15     8  21    4.7540   548.7    4.971      56.709
2015    4       15     8  26    4.7514   548.9    4.967      56.712
2015    4       15     8  32    4.7489   549.0    4.964      56.716
2015    4       15     8  38    4.7465   549.1    4.960      56.720
2015    4       15     8  44    4.7440   549.2    4.956      56.724
2015    4       15     8  50    4.7416   549.3    4.953      56.728
2015    4       15     8  56    4.7393   549.5    4.949      56.733
2015    4       15     9   2    4.7370   549.6    4.946      56.738
2015    4       15     9   8    4.7347   549.7    4.942      56.743
2015    4       15     9  14    4.7324   549.8    4.939      56.749
2015    4       15     9  20    4.7302   549.9    4.935      56.754
2015    4       15     9  26    4.7280   550.1    4.931      56.759
2015    4       15     9  32    4.7259   550.2    4.927      56.763
2015    4       15     9  38    4.7237   550.3    4.924      56.767
2015    4       15     9  44    4.7216   550.4    4.920      56.770
2015    4       15     9  50    4.7195   550.6    4.916      56.772
2015    4       15     9  56    4.7174   550.7    4.912      56.773
2015    4       15    10   2    4.7153   550.8    4.907      56.775
2015    4       15    10   8    4.7131   550.9    4.903      56.775
2015    4       15    10  14    4.7110   551.1    4.899      56.776
2015    4       15    10  20    4.7088   551.2    4.895      56.776
2015    4       15    10  26    4.7067   551.3    4.891      56.775
2015    4       15    10  32    4.7045   551.5    4.886      56.775
2015    4       15    10  38    4.7024   551.6    4.882      56.774
2015    4       15    10  44    4.7002   551.7    4.878      56.774
2015    4       15    10  50    4.6981   551.8    4.874      56.773
2015    4       15    10  56    4.6959   552.0    4.869      56.772
2015    4       15    11   2    4.6937   552.1    4.865      56.772
2015    4       15    11   8    4.6916   552.2    4.861      56.771
2015    4       15    11  14    4.6894   552.4    4.857      56.771
2015    4       15    11  20    4.6872   552.5    4.853      56.771
2015    4       15    11  26    4.6851   552.6    4.848      56.771
2015    4       15    11  32    4.6829   552.7    4.844      56.772
2015    4       15    11  38    4.6807   552.9    4.840      56.772
2015    4       15    11  44    4.6786   553.0    4.836      56.773
2015    4       15    11  50    4.6764   553.1    4.832      56.775
2015    4       15    11  56    4.6742   553.3    4.828      56.777
2015    4       15    12   2    4.6721   553.4    4.824      56.779
2015    4       15    12   8    4.6699   553.5    4.820      56.782
2015    4       15    12  14    4.6677   553.7    4.816      56.785
2015    4       15    12  20    4.6656   553.8    4.813      56.789
2015    4       15    12  26    4.6634   553.9    4.809      56.794
2015    4       15    12  32    4.6612   554.1    4.805      56.798
2015    4       15    12  38    4.6589   554.2    4.801      56.803
2015    4       15    12  44    4.6567   554.3    4.798      56.809
2015    4       15    12  50    4.6544   554.5    4.794      56.815
2015    4       15    12  56    4.6522   554.6    4.790      56.821
2015    4       15    13   2    4.6499   554.8    4.786      56.827
2015    4       15    13   8    4.6476   554.9    4.783      56.833
2015    4       15    13  14    4.6453   555.0    4.779      56.840
2015    4       15    13  20    4.6430   555.2    4.775      56.846
2015    4       15    13  26    4.6406   555.3    4.771      56.853
2015    4       15    13  32    4.6383   555.4    4.768      56.859
2015    4       15    13  38    4.6359   555.6    4.764      56.865
2015    4       15    13  44    4.6336   555.7    4.760      56.870
2015    4       15    13  50    4.6312   555.8    4.756      56.876
2015    4       15    13  56    4.6288   555.9    4.752      56.881
2015    4       15    14   2    4.6265   556.1    4.749      56.886
2015    4       15    14   7    4.6241   556.2    4.745      56.890
2015    4       15    14  13    4.6217   556.3    4.741      56.894
2015    4       15    14  19    4.6193   556.4    4.737      56.898
2015    4       15    14  25    4.6169   556.6    4.733      56.901
2015    4       15    14  31    4.6145   556.7    4.730      56.903
2015    4       15    14  37    4.6122   556.8    4.726      56.906
2015    4       15    14  43    4.6098   556.9    4.722      56.907
2015    4       15    14  49    4.6074   557.0    4.718      56.908
2015    4       15    14  55    4.6051   557.2    4.715      56.909
2015    4       15    15   1    4.6027   557.3    4.711      56.910
2015    4       15    15   7    4.6004   557.4    4.707      56.909
2015    4       15    15  13    4.5980   557.5    4.703      56.908
2015    4       15    15  19    4.5957   557.6    4.700      56.907
2015    4       15    15  25    4.5934   557.7    4.696      56.905
2015    4       15    15  31    4.5911   557.8    4.692      56.903
2015    4       15    15  37    4.5889   557.9    4.688      56.900
2015    4       15    15  43    4.5866   558.0    4.685      56.896
2015    4       15    15  49    4.5844   558.1    4.681      56.892
2015    4       15    15  55    4.5822   558.2    4.677      56.888
2015    4       15    16   1    4.5800   558.3    4.674      56.882
2015    4       15    16   7    4.5778   558.4    4.670      56.877
2015    4       15    16  13    4.5756   558.5    4.666      56.871
2015    4       15    16  19    4.5735   558.6    4.663      56.864
2015    4       15    16  25    4.5713   558.7    4.659      56.857
2015    4       15    16  31    4.5692   558.8    4.655      56.850
2015    4       15    16  37    4.5671   558.9    4.652      56.842
2015    4       15    16  43    4.5649   559.0    4.648      56.835
2015    4       15    16  49    4.5628   559.1    4.645      56.827
2015    4       15    16  55    4.5607   559.2    4.641      56.819
2015    4       15    17   1    4.5587   559.3    4.637      56.811
2015    4       15    17   7    4.5566   559.4    4.634      56.803
2015    4       15    17  13    4.5545   559.5    4.630      56.795
2015    4       15    17  19    4.5524   559.6    4.627      56.787
2015    4       15    17  25    4.5503   559.7    4.624      56.779
2015    4       15    17  31    4.5483   559.8    4.620      56.771
2015    4       15    17  37    4.5462   559.9    4.617      56.764
2015    4       15    17  43    4.5441   560.0    4.613      56.757
2015    4       15    17  49    4.5420   560.1    4.610      56.750
2015    4       15    17  55    4.5399   560.2    4.607      56.743
2015    4       15    18   1    4.5377   560.3    4.603      56.737
2015    4       15    18   7    4.5356   560.3    4.600      56.731
2015    4       15    18  13    4.5335   560.4    4.597      56.726
2015    4       15    18  19    4.5313   560.5    4.593      56.721
2015    4       15    18  25    4.5292   560.6    4.590      56.717
2015    4       15    18  31    4.5271   560.7    4.587      56.713
2015    4       15    18  37    4.5249   560.8    4.584      56.709
2015    4       15    18  43    4.5228   560.9    4.581      56.706
2015    4       15    18  49    4.5206   561.0    4.578      56.704
2015    4       15    18  55    4.5184   561.1    4.574      56.703
2015    4       15    19   1    4.5163   561.2    4.571      56.702
2015    4       15    19   7    4.5141   561.3    4.568      56.701
2015    4       15    19  13    4.5119   561.4    4.565      56.701
2015    4       15    19  19    4.5097   561.5    4.562      56.702
2015    4       15    19  25    4.5075   561.6    4.559      56.703
2015    4       15    19  31    4.5053   561.7    4.556      56.704
2015    4       15    19  37    4.5031   561.8    4.553      56.706
2015    4       15    19  43    4.5009   561.8    4.550      56.709
2015    4       15    19  49    4.4987   561.9    4.547      56.712
2015    4       15    19  55    4.4964   562.0    4.544      56.715
2015    4       15    20   1    4.4942   562.1    4.541      56.719
2015    4       15    20   7    4.4919   562.2    4.539      56.723
2015    4       15    20  13    4.4897   562.3    4.536      56.727
2015    4       15    20  19    4.4874   562.4    4.533      56.731
2015    4       15    20  25    4.4851   562.5    4.530      56.735
2015    4       15    20  31    4.4828   562.6    4.527      56.739
2015    4       15    20  37    4.4806   562.7    4.524      56.744
2015    4       15    20  43    4.4783   562.8    4.521      56.748
2015    4       15    20  49    4.4760   562.9    4.518      56.752
2015    4       15    20  55    4.4737   563.0    4.514      56.756
2015    4       15    21   1    4.4714   563.1    4.511      56.759
2015    4       15    21   7    4.4691   563.1    4.508      56.762
2015    4       15    21  13    4.4668   563.2    4.505      56.765
2015    4       15    21  19    4.4645   563.3    4.502      56.767
2015    4       15    21  25    4.4622   563.4    4.499      56.769
2015    4       15    21  31    4.4599   563.5    4.496      56.771
2015    4       15    21  37    4.4576   563.6    4.493      56.772
2015    4       15    21  43    4.4553   563.7    4.490      56.772
2015    4       15    21  49    4.4530   563.7    4.487      56.772
2015    4       15    21  55    4.4507   563.8    4.484      56.772
2015    4       15    22   1    4.4485   563.9    4.480      56.771
2015    4       15    22   7    4.4462   564.0    4.477      56.769
2015    4       15    22  13    4.4439   564.1    4.474      56.767
2015    4       15    22  19    4.4416   564.2    4.471      56.764
2015    4       15    22  25    4.4393   564.2    4.468      56.761
2015    4       15    22  31    4.4370   564.3    4.465      56.757
2015    4       15    22  37    4.4347   564.4    4.462      56.752
2015    4       15    22  43    4.4324   564.5    4.459      56.747
2015    4       15    22  49    4.4301   564.5    4.456      56.741
2015    4       15    22  55    4.4279   564.6    4.453      56.735
2015    4       15    23   1    4.4256   564.7    4.450      56.728
2015    4       15    23   7    4.4233   564.8    4.447      56.721
2015    4       15    23  13    4.4210   564.8    4.444      56.713
2015    4       15    23  19    4.4187   564.9    4.441      56.704
2015    4       15    23  25    4.4164   565.0    4.439      56.695
2015    4       15    23  31    4.4141   565.1    4.436      56.686
2015    4       15    23  37    4.4118   565.1    4.433      56.676
2015    4       15    23  43    4.4095   565.2    4.430      56.666
2015    4       15    23  49    4.4072   565.3    4.428      56.656
2015    4       15    23  55    4.4049   565.3    4.425      56.645
2015    4       16     0   1    4.4026   565.4    4.422      56.635
2015    4       16     0   6    4.4003   565.5    4.420      56.624
2015    4       16     0  13    4.3980   565.5    4.417      56.613
2015    4       16     0  18    4.3957   565.6    4.415      56.602
2015    4       16     0  24    4.3934   565.7    4.413      56.591
2015    4       16     0  30    4.3910   565.7    4.410      56.580
2015    4       16     0  36    4.3887   565.8    4.408      56.570
2015    4       16     0  42    4.3864   565.9    4.406      56.560
2015    4       16     0  48    4.3840   565.9    4.403      56.550
2015    4       16     0  54    4.3817   566.0    4.401      56.541
2015    4       16     1   0    4.3793   566.1    4.399      56.533
2015    4       16     1   6    4.3769   566.1    4.397      56.526
2015    4       16     1  12    4.3745   566.2    4.394      56.520
2015    4       16     1  18    4.3721   566.3    4.392      56.516
2015    4       16     1  24    4.3696   566.3    4.389      56.512
2015    4       16     1  30    4.3672   566.4    4.387      56.508
2015    4       16     1  36    4.3647   566.5    4.384      56.506
2015    4       16     1  42    4.3623   566.5    4.381      56.503
2015    4       16     1  48    4.3598   566.6    4.379      56.501
2015    4       16     1  54    4.3573   566.7    4.376      56.499
2015    4       16     2   0    4.3548   566.7    4.373      56.496
2015    4       16     2   6    4.3523   566.8    4.370      56.494
2015    4       16     2  12    4.3497   566.8    4.367      56.492
2015    4       16     2  18    4.3472   566.9    4.364      56.490
2015    4       16     2  24    4.3447   567.0    4.362      56.487
2015    4       16     2  30    4.3421   567.0    4.359      56.485
2015    4       16     2  36    4.3396   567.1    4.356      56.483
2015    4       16     2  42    4.3370   567.2    4.353      56.481
2015    4       16     2  48    4.3345   567.2    4.349      56.478
2015    4       16     2  54    4.3319   567.3    4.346      56.476
2015    4       16     3   0    4.3294   567.3    4.343      56.474
2015    4       16     3   6    4.3268   567.4    4.340      56.471
2015    4       16     3  12    4.3243   567.5    4.337      56.469
2015    4       16     3  18    4.3217   567.5    4.334      56.466
2015    4       16     3  24    4.3191   567.6    4.331      56.463
2015    4       16     3  30    4.3166   567.6    4.328      56.461
2015    4       16     3  36    4.3140   567.7    4.324      56.457
2015    4       16     3  42    4.3115   567.8    4.321      56.454
2015    4       16     3  48    4.3090   567.8    4.318      56.451
2015    4       16     3  54    4.3064   567.9    4.315      56.447
2015    4       16     4   0    4.3039   567.9    4.312      56.443
2015    4       16     4   6    4.3014   568.0    4.308      56.439
2015    4       16     4  12    4.2989   568.1    4.305      56.434
2015    4       16     4  18    4.2964   568.1    4.302      56.429
2015    4       16     4  24    4.2938   568.2    4.299      56.424
2015    4       16     4  30    4.2913   568.2    4.296      56.418
2015    4       16     4  36    4.2888   568.3    4.292      56.412
2015    4       16     4  42    4.2862   568.3    4.289      56.406
2015    4       16     4  48    4.2836   568.4    4.286      56.398
2015    4       16     4  54    4.2810   568.4    4.283      56.391
2015    4       16     5   0    4.2784   568.5    4.279      56.383
2015    4       16     5   6    4.2758   568.5    4.276      56.375
2015    4       16     5  12    4.2732   568.6    4.273      56.366
2015    4       16     5  18    4.2705   568.6    4.270      56.356
2015    4       16     5  24    4.2679   568.7    4.266      56.346
2015    4       16     5  30    4.2652   568.7    4.263      56.336
2015    4       16     5  36    4.2625   568.8    4.260      56.324
2015    4       16     5  42    4.2597   568.8    4.257      56.313
2015    4       16     5  48    4.2570   568.9    4.254      56.300
2015    4       16     5  54    4.2542   568.9    4.251      56.287
2015    4       16     6   0    4.2514   569.0    4.247      56.273
2015    4       16     6   6    4.2486   569.0    4.244      56.259
2015    4       16     6  12    4.2458   569.0    4.241      56.244
2015    4       16     6  18    4.2429   569.1    4.238      56.229
2015    4       16     6  24    4.2401   569.1    4.235      56.213
2015    4       16     6  30    4.2372   569.2    4.232      56.196
2015    4       16     6  36    4.2343   569.2    4.229      56.179
2015    4       16     6  42    4.2313   569.2    4.226      56.161
2015    4       16     6  48    4.2284   569.3    4.223      56.143
2015    4       16     6  54    4.2254   569.3    4.220      56.125
2015    4       16     7   0    4.2224   569.3    4.217      56.106
2015    4       16     7   6    4.2194   569.4    4.214      56.086
2015    4       16     7  12    4.2164   569.4    4.211      56.066
2015    4       16     7  18    4.2134   569.4    4.208      56.046
2015    4       16     7  24    4.2103   569.4    4.205      56.025
2015    4       16     7  30    4.2072   569.5    4.202      56.004
2015    4       16     7  36    4.2041   569.5    4.199      55.982
2015    4       16     7  42    4.2010   569.5    4.197      55.961
2015    4       16     7  48    4.1979   569.5    4.194      55.939
2015    4       16     7  54    4.1948   569.6    4.191      55.917
2015    4       16     8   0    4.1917   569.6    4.188      55.896
2015    4       16     8   6    4.1885   569.6    4.185      55.874
2015    4       16     8  12    4.1853   569.6    4.182      55.853
2015    4       16     8  18    4.1822   569.7    4.180      55.833
2015    4       16     8  24    4.1790   569.7    4.177      55.813
2015    4       16     8  30    4.1758   569.7    4.174      55.794
2015    4       16     8  36    4.1726   569.7    4.170      55.776
2015    4       16     8  42    4.1694   569.7    4.167      55.758
2015    4       16     8  48    4.1662   569.8    4.164      55.741
2015    4       16     8  54    4.1630   569.8    4.161      55.724
2015    4       16     9   0    4.1597   569.8    4.157      55.707
2015    4       16     9   6    4.1565   569.8    4.154      55.690
2015    4       16     9  12    4.1533   569.8    4.150      55.672
2015    4       16     9  18    4.1501   569.9    4.147      55.654
2015    4       16     9  24    4.1468   569.9    4.143      55.636
2015    4       16     9  30    4.1436   569.9    4.140      55.618
2015    4       16     9  36    4.1404   569.9    4.136      55.600
2015    4       16     9  42    4.1371   569.9    4.132      55.581
2015    4       16     9  48    4.1339   569.9    4.129      55.562
2015    4       16     9  54    4.1307   569.9    4.125      55.543
2015    4       16    10   0    4.1275   570.0    4.121      55.524
2015    4       16    10   6    4.1242   570.0    4.117      55.505
2015    4       16    10  12    4.1210   570.0    4.113      55.485
2015    4       16    10  18    4.1178   570.0    4.109      55.465
2015    4       16    10  24    4.1146   570.0    4.105      55.445
2015    4       16    10  30    4.1114   570.0    4.101      55.425
2015    4       16    10  36    4.1082   570.0    4.097      55.404
2015    4       16    10  42    4.1051   570.0    4.094      55.383
2015    4       16    10  48    4.1019   570.0    4.090      55.362
2015    4       16    10  54    4.0987   570.1    4.086      55.341
2015    4       16    11   0    4.0956   570.1    4.082      55.320
2015    4       16    11   6    4.0925   570.1    4.078      55.298
2015    4       16    11  12    4.0893   570.1    4.074      55.277
2015    4       16    11  18    4.0862   570.1    4.070      55.255
2015    4       16    11  24    4.0831   570.1    4.066      55.233
2015    4       16    11  30    4.0800   570.1    4.062      55.210
2015    4       16    11  36    4.0768   570.1    4.058      55.188
2015    4       16    11  42    4.0737   570.1    4.054      55.165
2015    4       16    11  48    4.0706   570.1    4.050      55.142
2015    4       16    11  54    4.0674   570.1    4.047      55.118
2015    4       16    12   0    4.0642   570.1    4.043      55.095
2015    4       16    12   6    4.0610   570.1    4.039      55.071
2015    4       16    12  12    4.0577   570.1    4.035      55.047
2015    4       16    12  18    4.0544   570.1    4.031      55.023
2015    4       16    12  24    4.0511   570.1    4.028      54.998
2015    4       16    12  30    4.0477   570.1    4.024      54.973
2015    4       16    12  36    4.0443   570.1    4.020      54.948
2015    4       16    12  42    4.0409   570.1    4.017      54.923
2015    4       16    12  48    4.0375   570.0    4.013      54.897
2015    4       16    12  54    4.0340   570.0    4.009      54.871
2015    4       16    13   0    4.0305   570.0    4.006      54.844
2015    4       16    13   6    4.0270   570.0    4.002      54.816
2015    4       16    13  12    4.0235   570.0    3.998      54.788
2015    4       16    13  18    4.0199   570.0    3.995      54.759
2015    4       16    13  24    4.0163   569.9    3.991      54.728
2015    4       16    13  30    4.0127   569.9    3.988      54.696
2015    4       16    13  36    4.0091   569.9    3.984      54.663
2015    4       16    13  42    4.0055   569.9    3.981      54.630
2015    4       16    13  48    4.0018   569.8    3.977      54.594
2015    4       16    13  54    3.9981   569.8    3.973      54.559
2015    4       16    14   0    3.9945   569.8    3.970      54.522
2015    4       16    14   6    3.9908   569.7    3.966      54.484
2015    4       16    14  12    3.9871   569.7    3.963      54.446
2015    4       16    14  18    3.9834   569.7    3.959      54.406
2015    4       16    14  24    3.9796   569.6    3.956      54.367
2015    4       16    14  30    3.9759   569.6    3.952      54.326
2015    4       16    14  36    3.9722   569.5    3.948      54.285
2015    4       16    14  42    3.9684   569.5    3.945      54.243
2015    4       16    14  48    3.9647   569.4    3.941      54.201
2015    4       16    14  54    3.9610   569.4    3.938      54.158
2015    4       16    15   0    3.9572   569.3    3.934      54.114
2015    4       16    15   6    3.9535   569.3    3.930      54.070
2015    4       16    15  12    3.9497   569.2    3.927      54.025
2015    4       16    15  18    3.9460   569.2    3.923      53.980
2015    4       16    15  24    3.9423   569.1    3.919      53.934
2015    4       16    15  30    3.9385   569.0    3.916      53.888
2015    4       16    15  36    3.9348   569.0    3.912      53.842
2015    4       16    15  42    3.9311   568.9    3.908      53.794
2015    4       16    15  48    3.9274   568.8    3.904      53.747
2015    4       16    15  54    3.9236   568.8    3.900      53.700
2015    4       16    16   0    3.9199   568.7    3.897      53.652
2015    4       16    16   6    3.9163   568.6    3.893      53.604
2015    4       16    16  12    3.9126   568.6    3.889      53.555
2015    4       16    16  18    3.9089   568.5    3.885      53.507
2015    4       16    16  24    3.9053   568.4    3.881      53.458
2015    4       16    16  30    3.9016   568.3    3.877      53.409
2015    4       16    16  36    3.8980   568.3    3.873      53.360
2015    4       16    16  42    3.8944   568.2    3.869      53.311
2015    4       16    16  48    3.8908   568.1    3.865      53.262
2015    4       16    16  54    3.8872   568.0    3.862      53.213
2015    4       16    17   0    3.8837   567.9    3.858      53.164
2015    4       16    17   6    3.8801   567.8    3.854      53.115
2015    4       16    17  12    3.8766   567.8    3.850      53.066
2015    4       16    17  18    3.8731   567.7    3.846      53.016
2015    4       16    17  24    3.8696   567.6    3.842      52.968
2015    4       16    17  30    3.8661   567.5    3.838      52.919
2015    4       16    17  36    3.8626   567.4    3.834      52.870
2015    4       16    17  42    3.8592   567.3    3.831      52.822
2015    4       16    17  48    3.8557   567.2    3.827      52.774
2015    4       16    17  54    3.8523   567.1    3.823      52.726
2015    4       16    18   0    3.8489   567.0    3.819      52.678
2015    4       16    18   6    3.8455   566.9    3.816      52.631
2015    4       16    18  12    3.8421   566.8    3.812      52.584
2015    4       16    18  18    3.8388   566.7    3.809      52.538
2015    4       16    18  24    3.8354   566.6    3.805      52.492
2015    4       16    18  30    3.8321   566.5    3.802      52.446
2015    4       16    18  36    3.8288   566.4    3.799      52.401
2015    4       16    18  42    3.8255   566.3    3.795      52.356
2015    4       16    18  48    3.8222   566.2    3.792      52.312
2015    4       16    18  54    3.8189   566.1    3.789      52.269
2015    4       16    19   0    3.8156   566.0    3.786      52.226
2015    4       16    19   6    3.8123   565.9    3.783      52.183
2015    4       16    19  12    3.8091   565.8    3.780      52.141
2015    4       16    19  18    3.8058   565.7    3.777      52.100
2015    4       16    19  24    3.8024   565.6    3.775      52.059
2015    4       16    19  30    3.7991   565.5    3.772      52.018
2015    4       16    19  36    3.7957   565.3    3.769      51.978
2015    4       16    19  42    3.7924   565.2    3.767      51.938
2015    4       16    19  48    3.7890   565.1    3.764      51.899
2015    4       16    19  54    3.7856   565.0    3.761      51.860
2015    4       16    20   0    3.7822   564.9    3.759      51.821
2015    4       16    20   6    3.7787   564.8    3.756      51.782
2015    4       16    20  12    3.7753   564.7    3.754      51.743
2015    4       16    20  18    3.7719   564.6    3.751      51.704
2015    4       16    20  24    3.7684   564.4    3.749      51.664
2015    4       16    20  30    3.7649   564.3    3.746      51.624
2015    4       16    20  36    3.7615   564.2    3.743      51.583
2015    4       16    20  42    3.7580   564.1    3.741      51.541
2015    4       16    20  48    3.7545   564.0    3.738      51.498
2015    4       16    20  54    3.7511   563.8    3.736      51.454
2015    4       16    21   0    3.7476   563.7    3.733      51.408
2015    4       16    21   6    3.7441   563.6    3.730      51.362
2015    4       16    21  12    3.7407   563.5    3.728      51.314
2015    4       16    21  18    3.7372   563.3    3.725      51.266
2015    4       16    21  24    3.7338   563.2    3.722      51.216
2015    4       16    21  30    3.7303   563.1    3.720      51.166
2015    4       16    21  36    3.7269   562.9    3.717      51.115
2015    4       16    21  42    3.7235   562.8    3.714      51.064
2015    4       16    21  48    3.7201   562.6    3.712      51.011
2015    4       16    21  54    3.7166   562.5    3.709      50.958
2015    4       16    22   0    3.7132   562.4    3.706      50.905
2015    4       16    22   6    3.7099   562.2    3.703      50.850
2015    4       16    22  12    3.7065   562.1    3.701      50.795
2015    4       16    22  18    3.7031   561.9    3.698      50.739
2015    4       16    22  24    3.6998   561.8    3.695      50.682
2015    4       16    22  30    3.6964   561.6    3.692      50.624
2015    4       16    22  36    3.6931   561.5    3.690      50.566
2015    4       16    22  42    3.6898   561.3    3.687      50.507
2015    4       16    22  48    3.6865   561.2    3.684      50.448
2015    4       16    22  54    3.6832   561.0    3.682      50.388
2015    4       16    23   0    3.6800   560.9    3.679      50.328
2015    4       16    23   6    3.6767   560.7    3.676      50.267
2015    4       16    23  12    3.6735   560.5    3.674      50.206
2015    4       16    23  18    3.6703   560.4    3.671      50.145
2015    4       16    23  24    3.6671   560.2    3.669      50.083
2015    4       16    23  30    3.6640   560.0    3.667      50.022
2015    4       16    23  37    3.6608   559.9    3.664      49.960
2015    4       16    23  43    3.6577   559.7    3.662      49.898
2015    4       16    23  48    3.6546   559.5    3.660      49.836
2015    4       16    23  55    3.6515   559.4    3.658      49.775
2015    4       17     0   1    3.6485   559.2    3.656      49.713
2015    4       17     0   7    3.6454   559.0    3.654      49.651
2015    4       17     0  13    3.6424   558.9    3.652      49.590
2015    4       17     0  19    3.6394   558.7    3.651      49.528
2015    4       17     0  25    3.6365   558.5    3.649      49.467
2015    4       17     0  31    3.6335   558.3    3.647      49.407
2015    4       17     0  37    3.6305   558.1    3.646      49.346
2015    4       17     0  43    3.6276   558.0    3.644      49.285
2015    4       17     0  49    3.6247   557.8    3.643      49.225
2015    4       17     0  55    3.6218   557.6    3.642      49.166
2015    4       17     1   1    3.6189   557.4    3.641      49.106
2015    4       17     1   7    3.6159   557.2    3.639      49.047
2015    4       17     1  13    3.6130   557.1    3.638      48.988
2015    4       17     1  19    3.6101   556.9    3.637      48.929
2015    4       17     1  25    3.6073   556.7    3.636      48.871
2015    4       17     1  31    3.6044   556.5    3.635      48.813
2015    4       17     1  37    3.6015   556.3    3.634      48.755
2015    4       17     1  43    3.5986   556.1    3.633      48.698
2015    4       17     1  49    3.5958   555.9    3.632      48.641
2015    4       17     1  55    3.5929   555.7    3.631      48.585
2015    4       17     2   1    3.5901   555.5    3.630      48.529
2015    4       17     2   7    3.5873   555.4    3.629      48.474
2015    4       17     2  13    3.5845   555.2    3.628      48.419
2015    4       17     2  19    3.5817   555.0    3.627      48.365
2015    4       17     2  25    3.5789   554.8    3.626      48.312
2015    4       17     2  31    3.5761   554.6    3.625      48.259
2015    4       17     2  37    3.5734   554.4    3.624      48.207
2015    4       17     2  43    3.5706   554.2    3.623      48.156
2015    4       17     2  49    3.5679   554.0    3.622      48.105
2015    4       17     2  55    3.5652   553.8    3.621      48.054
2015    4       17     3   1    3.5625   553.6    3.620      48.004
2015    4       17     3   7    3.5597   553.4    3.619      47.954
2015    4       17     3  13    3.5570   553.2    3.618      47.904
2015    4       17     3  19    3.5543   553.0    3.617      47.853
2015    4       17     3  25    3.5516   552.9    3.616      47.803
2015    4       17     3  31    3.5489   552.7    3.615      47.753
2015    4       17     3  37    3.5462   552.5    3.614      47.703
2015    4       17     3  43    3.5436   552.3    3.613      47.653
2015    4       17     3  49    3.5409   552.1    3.611      47.602
2015    4       17     3  55    3.5382   551.9    3.610      47.551
2015    4       17     4   1    3.5356   551.7    3.609      47.499
2015    4       17     4   7    3.5330   551.5    3.608      47.447
2015    4       17     4  13    3.5303   551.3    3.606      47.395
2015    4       17     4  19    3.5277   551.1    3.605      47.342
2015    4       17     4  25    3.5251   550.9    3.603      47.289
2015    4       17     4  31    3.5225   550.7    3.602      47.236
2015    4       17     4  37    3.5199   550.5    3.601      47.182
2015    4       17     4  43    3.5174   550.3    3.599      47.128
2015    4       17     4  49    3.5148   550.1    3.598      47.074
2015    4       17     4  55    3.5122   549.9    3.596      47.019
2015    4       17     5   1    3.5097   549.7    3.595      46.963
2015    4       17     5   7    3.5072   549.5    3.593      46.908
2015    4       17     5  13    3.5046   549.3    3.592      46.852
2015    4       17     5  19    3.5021   549.1    3.590      46.795
2015    4       17     5  25    3.4996   548.9    3.589      46.738
2015    4       17     5  31    3.4971   548.7    3.587      46.681
2015    4       17     5  37    3.4946   548.5    3.586      46.623
2015    4       17     5  43    3.4921   548.2    3.584      46.565
2015    4       17     5  49    3.4897   548.0    3.582      46.506
2015    4       17     5  55    3.4872   547.8    3.581      46.447
2015    4       17     6   1    3.4847   547.6    3.579      46.388
2015    4       17     6   7    3.4823   547.4    3.578      46.328
2015    4       17     6  13    3.4798   547.2    3.576      46.269
2015    4       17     6  19    3.4774   547.0    3.575      46.209
2015    4       17     6  25    3.4750   546.8    3.574      46.148
2015    4       17     6  31    3.4726   546.6    3.572      46.088
2015    4       17     6  37    3.4702   546.4    3.571      46.028
2015    4       17     6  43    3.4678   546.1    3.570      45.967
2015    4       17     6  49    3.4655   545.9    3.568      45.907
2015    4       17     6  55    3.4631   545.7    3.567      45.847
2015    4       17     7   1    3.4608   545.5    3.566      45.786
2015    4       17     7   7    3.4585   545.3    3.565      45.727
2015    4       17     7  13    3.4562   545.1    3.564      45.667
2015    4       17     7  19    3.4539   544.8    3.564      45.608
2015    4       17     7  25    3.4516   544.6    3.563      45.548
2015    4       17     7  31    3.4494   544.4    3.562      45.490
2015    4       17     7  37    3.4471   544.2    3.562      45.431
2015    4       17     7  43    3.4449   544.0    3.562      45.373
2015    4       17     7  49    3.4427   543.8    3.561      45.316
2015    4       17     7  55    3.4405   543.5    3.561      45.258
2015    4       17     8   1    3.4383   543.3    3.561      45.201
2015    4       17     8   7    3.4362   543.1    3.561      45.145
2015    4       17     8  13    3.4340   542.9    3.561      45.088
2015    4       17     8  19    3.4318   542.7    3.561      45.032
2015    4       17     8  25    3.4296   542.4    3.561      44.976
2015    4       17     8  31    3.4275   542.2    3.561      44.920
2015    4       17     8  37    3.4253   542.0    3.561      44.865
2015    4       17     8  43    3.4231   541.8    3.561      44.809
2015    4       17     8  49    3.4210   541.5    3.562      44.754
2015    4       17     8  55    3.4188   541.3    3.562      44.698
2015    4       17     9   1    3.4167   541.1    3.562      44.643
2015    4       17     9   7    3.4146   540.8    3.562      44.588
2015    4       17     9  13    3.4125   540.6    3.563      44.534
2015    4       17     9  19    3.4104   540.4    3.563      44.479
2015    4       17     9  25    3.4083   540.1    3.563      44.425
2015    4       17     9  31    3.4062   539.9    3.564      44.371
2015    4       17     9  37    3.4042   539.7    3.564      44.317
2015    4       17     9  43    3.4021   539.4    3.564      44.263
2015    4       17     9  49    3.4001   539.2    3.565      44.209
2015    4       17     9  55    3.3981   539.0    3.565      44.155
2015    4       17    10   1    3.3961   538.7    3.566      44.101
2015    4       17    10   7    3.3942   538.5    3.566      44.048
2015    4       17    10  13    3.3922   538.3    3.567      43.994
2015    4       17    10  19    3.3903   538.0    3.567      43.940
2015    4       17    10  25    3.3884   537.8    3.568      43.886
2015    4       17    10  31    3.3865   537.5    3.568      43.832
2015    4       17    10  37    3.3846   537.3    3.569      43.778
2015    4       17    10  43    3.3827   537.1    3.569      43.724
2015    4       17    10  49    3.3809   536.8    3.570      43.670
2015    4       17    10  55    3.3790   536.6    3.570      43.616
2015    4       17    11   1    3.3772   536.3    3.571      43.562
2015    4       17    11   7    3.3753   536.1    3.571      43.508
2015    4       17    11  13    3.3735   535.9    3.572      43.454
2015    4       17    11  19    3.3717   535.6    3.572      43.400
2015    4       17    11  25    3.3699   535.4    3.573      43.346
2015    4       17    11  31    3.3681   535.1    3.573      43.292
2015    4       17    11  37    3.3664   534.9    3.574      43.238
2015    4       17    11  43    3.3646   534.7    3.574      43.184
2015    4       17    11  49    3.3628   534.4    3.575      43.130
2015    4       17    11  55    3.3611   534.2    3.575      43.076
2015    4       17    12   1    3.3593   533.9    3.576      43.022
2015    4       17    12   7    3.3576   533.7    3.576      42.968
2015    4       17    12  13    3.3559   533.4    3.576      42.915
2015    4       17    12  19    3.3542   533.2    3.576      42.861
2015    4       17    12  25    3.3525   533.0    3.577      42.807
2015    4       17    12  31    3.3508   532.7    3.577      42.754
2015    4       17    12  37    3.3491   532.5    3.577      42.701
2015    4       17    12  43    3.3474   532.2    3.577      42.647
2015    4       17    12  49    3.3458   532.0    3.577      42.594
2015    4       17    12  55    3.3441   531.7    3.577      42.541
2015    4       17    13   1    3.3425   531.5    3.577      42.488
2015    4       17    13   7    3.3409   531.2    3.577      42.436
2015    4       17    13  13    3.3393   531.0    3.577      42.383
2015    4       17    13  19    3.3376   530.7    3.577      42.331
2015    4       17    13  25    3.3361   530.5    3.577      42.278
2015    4       17    13  31    3.3344   530.2    3.577      42.225
2015    4       17    13  37    3.3329   530.0    3.577      42.172
2015    4       17    13  43    3.3313   529.7    3.577      42.119
2015    4       17    13  49    3.3297   529.5    3.577      42.066
2015    4       17    13  55    3.3281   529.2    3.576      42.012
2015    4       17    14   1    3.3265   529.0    3.576      41.958
2015    4       17    14   7    3.3249   528.7    3.576      41.904
2015    4       17    14  13    3.3234   528.5    3.576      41.849
2015    4       17    14  19    3.3218   528.2    3.575      41.794
2015    4       17    14  25    3.3203   528.0    3.575      41.739
2015    4       17    14  31    3.3187   527.7    3.575      41.684
2015    4       17    14  37    3.3172   527.5    3.574      41.629
2015    4       17    14  43    3.3156   527.2    3.574      41.573
2015    4       17    14  49    3.3141   526.9    3.573      41.517
2015    4       17    14  55    3.3126   526.7    3.573      41.462
2015    4       17    15   1    3.3111   526.4    3.573      41.406
2015    4       17    15   7    3.3096   526.2    3.572      41.350
2015    4       17    15  13    3.3081   525.9    3.572      41.294
2015    4       17    15  19    3.3066   525.6    3.572      41.238
2015    4       17    15  25    3.3051   525.4    3.571      41.182
2015    4       17    15  31    3.3036   525.1    3.571      41.126
2015    4       17    15  37    3.3021   524.8    3.571      41.070
2015    4       17    15  43    3.3007   524.6    3.570      41.014
2015    4       17    15  49    3.2992   524.3    3.570      40.958
2015    4       17    15  55    3.2978   524.0    3.570      40.902
2015    4       17    16   1    3.2964   523.8    3.570      40.847
2015    4       17    16   7    3.2950   523.5    3.570      40.791
2015    4       17    16  13    3.2935   523.2    3.570      40.736
2015    4       17    16  19    3.2921   523.0    3.570      40.681
2015    4       17    16  25    3.2907   522.7    3.570      40.626
2015    4       17    16  31    3.2894   522.4    3.570      40.571
2015    4       17    16  37    3.2880   522.2    3.570      40.516
2015    4       17    16  43    3.2866   521.9    3.570      40.461
2015    4       17    16  49    3.2852   521.6    3.570      40.406
2015    4       17    16  55    3.2839   521.3    3.570      40.352
2015    4       17    17   1    3.2825   521.1    3.570      40.297
2015    4       17    17   7    3.2811   520.8    3.571      40.242
2015    4       17    17  13    3.2798   520.5    3.571      40.188
2015    4       17    17  19    3.2784   520.2    3.571      40.133
2015    4       17    17  25    3.2771   519.9    3.572      40.078
2015    4       17    17  31    3.2757   519.7    3.572      40.023
2015    4       17    17  37    3.2744   519.4    3.573      39.968
2015    4       17    17  43    3.2731   519.1    3.573      39.913
2015    4       17    17  49    3.2718   518.8    3.574      39.858
2015    4       17    17  55    3.2704   518.5    3.575      39.803
2015    4       17    18   2    3.2691   518.2    3.575      39.748
2015    4       17    18   8    3.2678   517.9    3.576      39.693
2015    4       17    18  14    3.2666   517.6    3.577      39.639
2015    4       17    18  20    3.2653   517.3    3.578      39.584
2015    4       17    18  26    3.2640   517.0    3.579      39.530
2015    4       17    18  32    3.2628   516.7    3.580      39.476
2015    4       17    18  38    3.2616   516.4    3.581      39.422
2015    4       17    18  44    3.2603   516.1    3.583      39.369
2015    4       17    18  50    3.2592   515.8    3.584      39.317
2015    4       17    18  56    3.2580   515.5    3.586      39.264
2015    4       17    19   2    3.2569   515.2    3.587      39.213
2015    4       17    19   8    3.2557   514.9    3.589      39.162
2015    4       17    19  14    3.2547   514.6    3.591      39.112
2015    4       17    19  20    3.2536   514.2    3.593      39.062
2015    4       17    19  26    3.2525   513.9    3.595      39.013
2015    4       17    19  32    3.2515   513.6    3.597      38.965
2015    4       17    19  38    3.2505   513.3    3.600      38.917
2015    4       17    19  44    3.2496   513.0    3.602      38.870
2015    4       17    19  50    3.2486   512.7    3.604      38.823
2015    4       17    19  56    3.2477   512.4    3.607      38.777
2015    4       17    20   2    3.2468   512.1    3.609      38.731
2015    4       17    20   8    3.2458   511.8    3.612      38.686
2015    4       17    20  14    3.2449   511.5    3.614      38.641
2015    4       17    20  20    3.2440   511.2    3.617      38.596
2015    4       17    20  26    3.2431   510.9    3.619      38.551
2015    4       17    20  32    3.2423   510.5    3.622      38.507
2015    4       17    20  38    3.2414   510.2    3.624      38.461
2015    4       17    20  44    3.2405   509.9    3.626      38.416
2015    4       17    20  50    3.2397   509.6    3.629      38.370
2015    4       17    20  56    3.2388   509.3    3.631      38.324
2015    4       17    21   2    3.2379   509.0    3.633      38.277
2015    4       17    21   8    3.2371   508.6    3.635      38.230
2015    4       17    21  14    3.2363   508.3    3.638      38.184
2015    4       17    21  20    3.2354   508.0    3.640      38.136
2015    4       17    21  26    3.2346   507.7    3.642      38.089
2015    4       17    21  32    3.2338   507.3    3.644      38.042
2015    4       17    21  38    3.2330   507.0    3.646      37.994
2015    4       17    21  44    3.2323   506.7    3.648      37.946
2015    4       17    21  50    3.2315   506.4    3.650      37.899
2015    4       17    21  56    3.2308   506.0    3.652      37.851
2015    4       17    22   2    3.2301   505.7    3.654      37.803
2015    4       17    22   8    3.2295   505.4    3.656      37.756
2015    4       17    22  14    3.2289   505.1    3.658      37.708
2015    4       17    22  20    3.2283   504.7    3.660      37.661
2015    4       17    22  26    3.2277   504.4    3.662      37.614
2015    4       17    22  32    3.2272   504.1    3.665      37.567
2015    4       17    22  38    3.2267   503.7    3.667      37.520
2015    4       17    22  44    3.2262   503.4    3.669      37.474
2015    4       17    22  50    3.2258   503.1    3.671      37.428
2015    4       17    22  56    3.2254   502.7    3.674      37.382
2015    4       17    23   2    3.2251   502.4    3.676      37.337
2015    4       17    23   8    3.2248   502.1    3.679      37.292
2015    4       17    23  14    3.2245   501.7    3.681      37.247
2015    4       17    23  20    3.2243   501.4    3.684      37.203
2015    4       17    23  26    3.2241   501.1    3.687      37.160
2015    4       17    23  32    3.2239   500.7    3.689      37.116
2015    4       17    23  38    3.2238   500.4    3.692      37.074
2015    4       17    23  44    3.2237   500.0    3.695      37.031
2015    4       17    23  50    3.2237   499.7    3.698      36.989
2015    4       17    23  56    3.2237   499.4    3.701      36.948
2015    4       18     0   2    3.2237   499.0    3.704      36.907
2015    4       18     0   8    3.2237   498.7    3.708      36.866
2015    4       18     0  14    3.2238   498.4    3.711      36.826
2015    4       18     0  20    3.2239   498.0    3.714      36.786
2015    4       18     0  26    3.2241   497.7    3.718      36.747
2015    4       18     0  32    3.2242   497.4    3.721      36.708
2015    4       18     0  38    3.2244   497.0    3.725      36.669
2015    4       18     0  44    3.2245   496.7    3.728      36.631
2015    4       18     0  50    3.2248   496.4    3.732      36.593
2015    4       18     0  56    3.2250   496.0    3.736      36.555
2015    4       18     1   2    3.2253   495.7    3.739      36.517
2015    4       18     1   8    3.2255   495.4    3.743      36.480
2015    4       18     1  14    3.2258   495.0    3.747      36.443
2015    4       18     1  20    3.2261   494.7    3.751      36.406
2015    4       18     1  26    3.2265   494.4    3.755      36.370
2015    4       18     1  32    3.2268   494.0    3.759      36.334
2015    4       18     1  38    3.2272   493.7    3.763      36.299
2015    4       18     1  44    3.2276   493.3    3.767      36.263
2015    4       18     1  50    3.2281   493.0    3.771      36.228
2015    4       18     1  56    3.2286   492.7    3.776      36.193
2015    4       18     2   2    3.2291   492.3    3.780      36.159
2015    4       18     2   8    3.2297   492.0    3.785      36.125
2015    4       18     2  14    3.2303   491.6    3.790      36.091
2015    4       18     2  20    3.2310   491.3    3.795      36.058
2015    4       18     2  26    3.2317   490.9    3.800      36.026
2015    4       18     2  32    3.2325   490.6    3.805      35.994
2015    4       18     2  38    3.2333   490.2    3.810      35.963
2015    4       18     2  44    3.2342   489.9    3.816      35.933
2015    4       18     2  50    3.2352   489.6    3.822      35.903
2015    4       18     2  56    3.2362   489.2    3.828      35.874
2015    4       18     3   2    3.2373   488.9    3.834      35.847
2015    4       18     3   8    3.2384   488.5    3.840      35.820
2015    4       18     3  14    3.2397   488.2    3.847      35.794
2015    4       18     3  20    3.2409   487.9    3.854      35.769
2015    4       18     3  26    3.2423   487.5    3.861      35.744
2015    4       18     3  32    3.2437   487.2    3.868      35.720
2015    4       18     3  38    3.2452   486.9    3.875      35.697
2015    4       18     3  44    3.2467   486.5    3.882      35.673
2015    4       18     3  50    3.2483   486.2    3.890      35.651
2015    4       18     3  56    3.2499   485.9    3.897      35.628
2015    4       18     4   2    3.2516   485.6    3.904      35.606
2015    4       18     4   8    3.2532   485.3    3.912      35.583
2015    4       18     4  14    3.2550   484.9    3.919      35.559
2015    4       18     4  20    3.2567   484.6    3.926      35.536
2015    4       18     4  26    3.2585   484.3    3.934      35.512
2015    4       18     4  32    3.2603   484.0    3.941      35.487
2015    4       18     4  38    3.2622   483.6    3.948      35.461
2015    4       18     4  44    3.2640   483.3    3.955      35.435
2015    4       18     4  50    3.2659   483.0    3.962      35.409
2015    4       18     4  56    3.2678   482.7    3.969      35.382
2015    4       18     5   2    3.2698   482.4    3.975      35.355
2015    4       18     5   8    3.2717   482.0    3.982      35.328
2015    4       18     5  14    3.2738   481.7    3.989      35.301
2015    4       18     5  20    3.2758   481.4    3.995      35.274
2015    4       18     5  26    3.2779   481.1    4.002      35.247
2015    4       18     5  32    3.2800   480.8    4.009      35.220
2015    4       18     5  38    3.2822   480.5    4.016      35.193
2015    4       18     5  44    3.2843   480.2    4.022      35.166
2015    4       18     5  50    3.2866   479.9    4.029      35.139
2015    4       18     5  56    3.2889   479.6    4.036      35.112
2015    4       18     6   2    3.2912   479.2    4.042      35.086
2015    4       18     6   8    3.2935   478.9    4.049      35.060
2015    4       18     6  14    3.2959   478.6    4.056      35.034
2015    4       18     6  20    3.2984   478.3    4.063      35.009
2015    4       18     6  26    3.3009   478.0    4.070      34.984
2015    4       18     6  33    3.3034   477.7    4.077      34.959
2015    4       18     6  39    3.3060   477.4    4.084      34.935
2015    4       18     6  45    3.3085   477.1    4.092      34.912
2015    4       18     6  51    3.3112   476.8    4.099      34.889
2015    4       18     6  57    3.3139   476.6    4.106      34.867
2015    4       18     7   3    3.3167   476.3    4.114      34.845
2015    4       18     7   9    3.3194   476.0    4.122      34.824
2015    4       18     7  15    3.3223   475.7    4.130      34.804
2015    4       18     7  21    3.3252   475.4    4.138      34.784
2015    4       18     7  27    3.3281   475.1    4.146      34.766
2015    4       18     7  33    3.3312   474.8    4.155      34.749
2015    4       18     7  39    3.3342   474.5    4.163      34.732
2015    4       18     7  45    3.3373   474.3    4.172      34.717
2015    4       18     7  51    3.3405   474.0    4.182      34.703
2015    4       18     7  57    3.3437   473.7    4.191      34.691
2015    4       18     8   3    3.3470   473.5    4.201      34.680
2015    4       18     8   9    3.3504   473.2    4.211      34.670
2015    4       18     8  15    3.3538   472.9    4.221      34.662
2015    4       18     8  21    3.3573   472.7    4.232      34.656
2015    4       18     8  27    3.3608   472.4    4.243      34.651
2015    4       18     8  33    3.3644   472.2    4.254      34.647
2015    4       18     8  39    3.3681   471.9    4.266      34.646
2015    4       18     8  45    3.3717   471.7    4.278      34.647
2015    4       18     8  51    3.3755   471.4    4.291      34.649
2015    4       18     8  57    3.3793   471.2    4.303      34.653
2015    4       18     9   3    3.3831   471.0    4.316      34.660
2015    4       18     9   9    3.3870   470.7    4.330      34.668
2015    4       18     9  15    3.3909   470.5    4.343      34.678
2015    4       18     9  21    3.3949   470.3    4.357      34.690
2015    4       18     9  27    3.3989   470.1    4.372      34.703
2015    4       18     9  33    3.4030   469.8    4.387      34.718
2015    4       18     9  39    3.4071   469.6    4.402      34.735
2015    4       18     9  45    3.4112   469.4    4.417      34.753
2015    4       18     9  51    3.4155   469.2    4.433      34.774
2015    4       18     9  57    3.4197   469.0    4.449      34.797
2015    4       18    10   3    3.4241   468.8    4.465      34.822
2015    4       18    10   9    3.4284   468.6    4.482      34.848
2015    4       18    10  15    3.4328   468.4    4.499      34.876
2015    4       18    10  21    3.4373   468.2    4.517      34.905
2015    4       18    10  27    3.4417   468.0    4.534      34.937
2015    4       18    10  33    3.4462   467.8    4.552      34.972
2015    4       18    10  39    3.4507   467.7    4.569      35.008
2015    4       18    10  45    3.4552   467.5    4.587      35.047
2015    4       18    10  51    3.4597   467.3    4.604      35.088
2015    4       18    10  57    3.4642   467.2    4.622      35.131
2015    4       18    11   3    3.4687   467.0    4.639      35.174
2015    4       18    11   9    3.4733   466.8    4.656      35.217
2015    4       18    11  15    3.4778   466.7    4.673      35.258
2015    4       18    11  21    3.4824   466.5    4.690      35.300
2015    4       18    11  27    3.4870   466.4    4.707      35.340
2015    4       18    11  33    3.4915   466.3    4.723      35.379
2015    4       18    11  39    3.4961   466.1    4.739      35.418
2015    4       18    11  45    3.5006   466.0    4.755      35.457
2015    4       18    11  51    3.5051   465.9    4.771      35.495
2015    4       18    11  57    3.5096   465.7    4.787      35.532
2015    4       18    12   3    3.5141   465.6    4.802      35.569
2015    4       18    12   9    3.5185   465.5    4.817      35.605
2015    4       18    12  15    3.5229   465.4    4.831      35.640
2015    4       18    12  21    3.5273   465.2    4.845      35.674
2015    4       18    12  27    3.5317   465.1    4.859      35.706
2015    4       18    12  33    3.5360   465.0    4.872      35.737
2015    4       18    12  39    3.5404   464.9    4.885      35.766
2015    4       18    12  45    3.5447   464.8    4.898      35.793
2015    4       18    12  51    3.5490   464.7    4.911      35.819
2015    4       18    12  57    3.5533   464.6    4.924      35.844
2015    4       18    13   3    3.5575   464.5    4.936      35.868
2015    4       18    13   9    3.5618   464.4    4.948      35.891
2015    4       18    13  15    3.5661   464.3    4.960      35.913
2015    4       18    13  21    3.5703   464.2    4.971      35.934
2015    4       18    13  27    3.5745   464.1    4.983      35.953
2015    4       18    13  33    3.5788   464.0    4.994      35.973
2015    4       18    13  39    3.5830   463.9    5.005      35.991
2015    4       18    13  45    3.5873   463.8    5.016      36.009
2015    4       18    13  51    3.5915   463.7    5.028      36.026
2015    4       18    13  57    3.5957   463.6    5.038      36.043
2015    4       18    14   3    3.6000   463.5    5.049      36.059
2015    4       18    14   9    3.6042   463.4    5.060      36.075
2015    4       18    14  15    3.6085   463.3    5.071      36.090
2015    4       18    14  21    3.6127   463.2    5.082      36.105
2015    4       18    14  27    3.6170   463.1    5.092      36.120
2015    4       18    14  33    3.6213   463.0    5.103      36.135
2015    4       18    14  39    3.6256   463.0    5.113      36.149
2015    4       18    14  45    3.6299   462.9    5.124      36.163
2015    4       18    14  51    3.6342   462.8    5.135      36.178
2015    4       18    14  57    3.6386   462.7    5.146      36.192
2015    4       18    15   3    3.6429   462.6    5.156      36.207
2015    4       18    15   9    3.6474   462.6    5.167      36.221
2015    4       18    15  15    3.6518   462.5    5.178      36.236
2015    4       18    15  21    3.6562   462.4    5.189      36.252
2015    4       18    15  27    3.6607   462.3    5.201      36.268
2015    4       18    15  33    3.6653   462.3    5.212      36.285
2015    4       18    15  39    3.6698   462.2    5.224      36.302
2015    4       18    15  45    3.6744   462.1    5.236      36.320
2015    4       18    15  51    3.6791   462.1    5.248      36.340
2015    4       18    15  57    3.6838   462.0    5.260      36.361
2015    4       18    16   3    3.6886   462.0    5.273      36.382
2015    4       18    16   9    3.6934   461.9    5.286      36.406
2015    4       18    16  15    3.6983   461.9    5.299      36.431
2015    4       18    16  21    3.7032   461.8    5.312      36.458
2015    4       18    16  27    3.7082   461.8    5.326      36.486
2015    4       18    16  33    3.7132   461.8    5.340      36.517
2015    4       18    16  39    3.7184   461.7    5.355      36.550
2015    4       18    16  45    3.7235   461.7    5.369      36.586
2015    4       18    16  51    3.7288   461.7    5.384      36.624
2015    4       18    16  57    3.7341   461.7    5.399      36.664
2015    4       18    17   3    3.7394   461.7    5.415      36.707
2015    4       18    17   9    3.7448   461.7    5.430      36.753
2015    4       18    17  15    3.7503   461.7    5.446      36.801
2015    4       18    17  22    3.7558   461.7    5.462      36.853
2015    4       18    17  28    3.7613   461.7    5.478      36.907
2015    4       18    17  34    3.7668   461.7    5.494      36.964
2015    4       18    17  40    3.7724   461.8    5.510      37.024
2015    4       18    17  46    3.7780   461.8    5.526      37.086
2015    4       18    17  52    3.7836   461.8    5.542      37.150
2015    4       18    17  58    3.7892   461.8    5.558      37.215
2015    4       18    18   4    3.7947   461.9    5.574      37.282
2015    4       18    18  10    3.8002   461.9    5.590      37.351
2015    4       18    18  16    3.8057   461.9    5.606      37.421
2015    4       18    18  22    3.8112   462.0    5.621      37.493
2015    4       18    18  28    3.8165   462.0    5.636      37.566
2015    4       18    18  34    3.8219   462.1    5.651      37.639
2015    4       18    18  40    3.8272   462.1    5.666      37.712
2015    4       18    18  46    3.8325   462.2    5.681      37.785
2015    4       18    18  52    3.8378   462.2    5.695      37.857
2015    4       18    18  58    3.8430   462.2    5.710      37.927
2015    4       18    19   4    3.8482   462.3    5.724      37.996
2015    4       18    19  10    3.8534   462.3    5.738      38.065
2015    4       18    19  16    3.8585   462.4    5.752      38.132
2015    4       18    19  22    3.8636   462.4    5.766      38.199
2015    4       18    19  28    3.8687   462.5    5.780      38.265
2015    4       18    19  34    3.8738   462.5    5.794      38.330
2015    4       18    19  40    3.8788   462.6    5.808      38.396
2015    4       18    19  46    3.8838   462.6    5.822      38.461
2015    4       18    19  52    3.8887   462.7    5.836      38.525
2015    4       18    19  58    3.8936   462.8    5.850      38.590
2015    4       18    20   4    3.8984   462.8    5.863      38.654
2015    4       18    20  10    3.9031   462.9    5.877      38.719
2015    4       18    20  16    3.9078   463.0    5.891      38.784
2015    4       18    20  22    3.9123   463.0    5.904      38.848
2015    4       18    20  28    3.9167   463.1    5.917      38.911
2015    4       18    20  34    3.9211   463.2    5.930      38.975
2015    4       18    20  40    3.9253   463.3    5.942      39.036
2015    4       18    20  46    3.9295   463.4    5.954      39.096
2015    4       18    20  52    3.9336   463.5    5.965      39.154
2015    4       18    20  58    3.9375   463.5    5.976      39.210
2015    4       18    21   4    3.9414   463.6    5.987      39.264
2015    4       18    21  10    3.9452   463.7    5.997      39.317
2015    4       18    21  16    3.9489   463.8    6.007      39.368
2015    4       18    21  22    3.9526   463.9    6.016      39.418
2015    4       18    21  28    3.9561   464.0    6.026      39.466
2015    4       18    21  34    3.9596   464.1    6.035      39.513
2015    4       18    21  40    3.9630   464.1    6.043      39.559
2015    4       18    21  46    3.9664   464.2    6.052      39.603
2015    4       18    21  52    3.9698   464.3    6.060      39.647
2015    4       18    21  58    3.9731   464.4    6.067      39.689
2015    4       18    22   4    3.9763   464.5    6.075      39.729
2015    4       18    22  10    3.9795   464.5    6.082      39.769
2015    4       18    22  16    3.9826   464.6    6.090      39.807
2015    4       18    22  22    3.9858   464.7    6.096      39.844
2015    4       18    22  28    3.9889   464.8    6.103      39.879
2015    4       18    22  34    3.9919   464.8    6.110      39.914
2015    4       18    22  40    3.9950   464.9    6.116      39.948
2015    4       18    22  46    3.9980   465.0    6.123      39.981
2015    4       18    22  52    4.0010   465.0    6.129      40.014
2015    4       18    22  58    4.0040   465.1    6.135      40.045
2015    4       18    23   4    4.0070   465.2    6.142      40.077
2015    4       18    23  10    4.0100   465.2    6.148      40.108
2015    4       18    23  16    4.0130   465.3    6.154      40.138
2015    4       18    23  22    4.0160   465.4    6.160      40.169
2015    4       18    23  28    4.0189   465.4    6.166      40.200
2015    4       18    23  34    4.0219   465.5    6.172      40.231
2015    4       18    23  40    4.0249   465.6    6.178      40.262
2015    4       18    23  46    4.0278   465.6    6.184      40.294
2015    4       18    23  52    4.0308   465.7    6.190      40.327
2015    4       18    23  58    4.0338   465.8    6.196      40.360
2015    4       19     0   4    4.0368   465.9    6.201      40.395
2015    4       19     0  10    4.0398   465.9    6.207      40.431
2015    4       19     0  16    4.0427   466.0    6.212      40.468
2015    4       19     0  22    4.0457   466.1    6.217      40.507
2015    4       19     0  28    4.0487   466.2    6.222      40.547
2015    4       19     0  34    4.0516   466.3    6.227      40.587
2015    4       19     0  40    4.0545   466.3    6.232      40.627
2015    4       19     0  46    4.0575   466.4    6.236      40.668
2015    4       19     0  52    4.0604   466.5    6.240      40.707
2015    4       19     0  58    4.0633   466.6    6.244      40.746
2015    4       19     1   4    4.0662   466.7    6.248      40.783
2015    4       19     1  10    4.0692   466.8    6.251      40.820
2015    4       19     1  16    4.0721   466.8    6.255      40.857
2015    4       19     1  22    4.0751   466.9    6.258      40.893
2015    4       19     1  28    4.0780   467.0    6.262      40.928
2015    4       19     1  34    4.0810   467.1    6.265      40.963
2015    4       19     1  40    4.0840   467.2    6.268      40.998
2015    4       19     1  46    4.0870   467.2    6.271      41.032
2015    4       19     1  52    4.0900   467.3    6.274      41.066
2015    4       19     1  58    4.0931   467.4    6.277      41.100
2015    4       19     2   4    4.0962   467.5    6.280      41.133
2015    4       19     2  10    4.0994   467.6    6.283      41.167
2015    4       19     2  16    4.1025   467.7    6.286      41.201
2015    4       19     2  22    4.1058   467.7    6.289      41.234
2015    4       19     2  28    4.1090   467.8    6.292      41.268
2015    4       19     2  34    4.1124   467.9    6.295      41.302
2015    4       19     2  40    4.1157   468.0    6.298      41.337
2015    4       19     2  46    4.1191   468.1    6.301      41.371
2015    4       19     2  52    4.1226   468.2    6.304      41.406
2015    4       19     2  58    4.1261   468.3    6.307      41.442
2015    4       19     3   4    4.1297   468.4    6.310      41.477
2015    4       19     3  10    4.1334   468.5    6.313      41.514
2015    4       19     3  16    4.1371   468.6    6.316      41.551
2015    4       19     3  22    4.1408   468.7    6.320      41.588
2015    4       19     3  28    4.1447   468.8    6.323      41.627
2015    4       19     3  35    4.1486   468.9    6.326      41.666
2015    4       19     3  41    4.1525   469.0    6.330      41.706
2015    4       19     3  47    4.1565   469.1    6.334      41.747
2015    4       19     3  53    4.1605   469.2    6.338      41.789
2015    4       19     3  59    4.1646   469.3    6.342      41.832
2015    4       19     4   5    4.1688   469.4    6.346      41.876
2015    4       19     4  11    4.1729   469.5    6.351      41.922
2015    4       19     4  17    4.1771   469.6    6.356      41.971
2015    4       19     4  23    4.1813   469.8    6.361      42.022
2015    4       19     4  29    4.1855   469.9    6.366      42.074
2015    4       19     4  35    4.1897   470.0    6.371      42.127
2015    4       19     4  41    4.1939   470.1    6.377      42.183
2015    4       19     4  47    4.1981   470.2    6.382      42.241
2015    4       19     4  53    4.2023   470.4    6.388      42.303
2015    4       19     4  59    4.2065   470.5    6.393      42.366
2015    4       19     5   5    4.2106   470.6    6.399      42.433
2015    4       19     5  11    4.2147   470.7    6.404      42.502
2015    4       19     5  17    4.2187   470.9    6.409      42.573
2015    4       19     5  23    4.2226   471.0    6.414      42.645
2015    4       19     5  29    4.2265   471.1    6.419      42.716
2015    4       19     5  35    4.2304   471.3    6.423      42.785
2015    4       19     5  41    4.2342   471.4    6.428      42.854
2015    4       19     5  47    4.2379   471.5    6.432      42.922
2015    4       19     5  53    4.2415   471.7    6.435      42.989
2015    4       19     5  59    4.2451   471.8    6.439      43.055
2015    4       19     6   5    4.2486   471.9    6.442      43.119
2015    4       19     6  11    4.2521   472.1    6.444      43.183
2015    4       19     6  17    4.2555   472.2    6.447      43.245
2015    4       19     6  23    4.2588   472.4    6.449      43.305
2015    4       19     6  29    4.2621   472.5    6.450      43.363
2015    4       19     6  35    4.2653   472.6    6.451      43.418
2015    4       19     6  41    4.2685   472.8    6.452      43.472
2015    4       19     6  47    4.2716   472.9    6.453      43.523
2015    4       19     6  53    4.2746   473.1    6.453      43.572
2015    4       19     6  59    4.2777   473.2    6.452      43.619
2015    4       19     7   5    4.2806   473.4    6.452      43.665
2015    4       19     7  11    4.2836   473.5    6.451      43.708
2015    4       19     7  17    4.2865   473.6    6.450      43.750
2015    4       19     7  23    4.2894   473.8    6.449      43.791
2015    4       19     7  29    4.2923   473.9    6.447      43.830
2015    4       19     7  35    4.2951   474.1    6.445      43.868
2015    4       19     7  41    4.2980   474.2    6.443      43.904
2015    4       19     7  47    4.3008   474.4    6.441      43.940
2015    4       19     7  53    4.3036   474.5    6.439      43.974
2015    4       19     7  59    4.3064   474.6    6.437      44.008
2015    4       19     8   5    4.3092   474.8    6.434      44.040
2015    4       19     8  11    4.3120   474.9    6.431      44.072
2015    4       19     8  17    4.3148   475.1    6.429      44.103
2015    4       19     8  23    4.3176   475.2    6.426      44.134
2015    4       19     8  29    4.3204   475.4    6.423      44.164
2015    4       19     8  35    4.3232   475.5    6.419      44.193
2015    4       19     8  41    4.3260   475.6    6.416      44.222
2015    4       19     8  47    4.3288   475.8    6.413      44.250
2015    4       19     8  53    4.3316   475.9    6.410      44.278
2015    4       19     8  59    4.3343   476.1    6.406      44.306
2015    4       19     9   5    4.3371   476.2    6.403      44.333
2015    4       19     9  11    4.3399   476.4    6.399      44.360
2015    4       19     9  17    4.3427   476.5    6.396      44.387
2015    4       19     9  23    4.3455   476.6    6.392      44.413
2015    4       19     9  29    4.3482   476.8    6.389      44.440
2015    4       19     9  35    4.3510   476.9    6.385      44.466
2015    4       19     9  41    4.3538   477.1    6.382      44.492
2015    4       19     9  47    4.3566   477.2    6.378      44.518
2015    4       19     9  53    4.3594   477.4    6.375      44.544
2015    4       19     9  59    4.3622   477.5    6.371      44.570
2015    4       19    10   5    4.3650   477.6    6.368      44.595
2015    4       19    10  11    4.3678   477.8    6.364      44.621
2015    4       19    10  17    4.3706   477.9    6.361      44.646
2015    4       19    10  23    4.3734   478.1    6.358      44.672
2015    4       19    10  29    4.3762   478.2    6.355      44.697
2015    4       19    10  35    4.3790   478.4    6.352      44.723
2015    4       19    10  41    4.3818   478.5    6.349      44.749
2015    4       19    10  47    4.3847   478.6    6.346      44.775
2015    4       19    10  53    4.3875   478.8    6.343      44.801
2015    4       19    10  59    4.3904   478.9    6.341      44.828
2015    4       19    11   5    4.3932   479.1    6.339      44.854
2015    4       19    11  11    4.3961   479.2    6.337      44.882
2015    4       19    11  17    4.3990   479.3    6.335      44.910
2015    4       19    11  23    4.4020   479.5    6.334      44.939
2015    4       19    11  29    4.4049   479.6    6.333      44.968
2015    4       19    11  35    4.4079   479.8    6.332      44.998
2015    4       19    11  41    4.4108   479.9    6.332      45.029
2015    4       19    11  47    4.4139   480.0    6.332      45.062
2015    4       19    11  53    4.4169   480.2    6.333      45.097
2015    4       19    11  59    4.4199   480.3    6.334      45.135
2015    4       19    12   5    4.4229   480.5    6.335      45.174
2015    4       19    12  11    4.4260   480.6    6.337      45.215
2015    4       19    12  17    4.4290   480.7    6.340      45.257
2015    4       19    12  23    4.4319   480.9    6.343      45.303
2015    4       19    12  29    4.4349   481.0    6.346      45.353
2015    4       19    12  35    4.4378   481.2    6.349      45.407
2015    4       19    12  41    4.4406   481.4    6.353      45.464
2015    4       19    12  47    4.4434   481.5    6.356      45.525
2015    4       19    12  53    4.4461   481.7    6.360      45.588
2015    4       19    12  59    4.4488   481.9    6.363      45.653
2015    4       19    13   5    4.4513   482.1    6.367      45.719
2015    4       19    13  11    4.4539   482.2    6.370      45.787
2015    4       19    13  17    4.4563   482.4    6.373      45.854
2015    4       19    13  23    4.4587   482.6    6.375      45.922
2015    4       19    13  30    4.4610   482.8    6.377      45.990
2015    4       19    13  36    4.4632   483.0    6.379      46.059
2015    4       19    13  42    4.4653   483.2    6.380      46.126
2015    4       19    13  48    4.4673   483.4    6.381      46.192
2015    4       19    13  54    4.4693   483.6    6.381      46.255
2015    4       19    14   0    4.4712   483.8    6.380      46.316
2015    4       19    14   6    4.4731   484.0    6.380      46.375
2015    4       19    14  12    4.4749   484.2    6.378      46.431
2015    4       19    14  18    4.4766   484.4    6.377      46.486
2015    4       19    14  24    4.4783   484.6    6.375      46.538
2015    4       19    14  30    4.4800   484.8    6.372      46.587
2015    4       19    14  36    4.4816   485.0    6.370      46.636
2015    4       19    14  42    4.4832   485.2    6.367      46.682
2015    4       19    14  48    4.4848   485.4    6.363      46.726
2015    4       19    14  54    4.4864   485.6    6.360      46.769
2015    4       19    15   0    4.4879   485.9    6.356      46.810
2015    4       19    15   6    4.4894   486.1    6.352      46.850
2015    4       19    15  12    4.4909   486.3    6.348      46.889
2015    4       19    15  18    4.4924   486.5    6.344      46.926
2015    4       19    15  24    4.4939   486.7    6.339      46.962
2015    4       19    15  30    4.4953   486.9    6.335      46.997
2015    4       19    15  36    4.4967   487.1    6.330      47.031
2015    4       19    15  42    4.4982   487.3    6.325      47.064
2015    4       19    15  48    4.4996   487.5    6.320      47.096
2015    4       19    15  54    4.5010   487.7    6.315      47.127
2015    4       19    16   0    4.5023   487.9    6.310      47.157
2015    4       19    16   6    4.5037   488.1    6.304      47.187
2015    4       19    16  12    4.5051   488.4    6.299      47.216
2015    4       19    16  18    4.5064   488.6    6.293      47.245
2015    4       19    16  24    4.5078   488.8    6.288      47.273
2015    4       19    16  30    4.5091   489.0    6.282      47.300
2015    4       19    16  36    4.5104   489.2    6.277      47.327
2015    4       19    16  42    4.5117   489.4    6.271      47.353
2015    4       19    16  48    4.5130   489.6    6.266      47.379
2015    4       19    16  54    4.5143   489.8    6.260      47.405
2015    4       19    17   0    4.5156   490.0    6.255      47.430
2015    4       19    17   6    4.5169   490.2    6.249      47.456
2015    4       19    17  12    4.5182   490.4    6.243      47.480
2015    4       19    17  18    4.5195   490.6    6.238      47.505
2015    4       19    17  24    4.5208   490.8    6.232      47.530
2015    4       19    17  30    4.5221   491.1    6.227      47.554
2015    4       19    17  36    4.5234   491.3    6.221      47.578
2015    4       19    17  42    4.5246   491.5    6.216      47.603
2015    4       19    17  48    4.5259   491.7    6.211      47.628
2015    4       19    17  54    4.5272   491.9    6.206      47.653
2015    4       19    18   0    4.5285   492.1    6.201      47.678
2015    4       19    18   6    4.5298   492.3    6.196      47.703
2015    4       19    18  12    4.5312   492.5    6.192      47.729
2015    4       19    18  18    4.5325   492.7    6.187      47.756
2015    4       19    18  24    4.5338   492.9    6.183      47.784
2015    4       19    18  30    4.5352   493.1    6.179      47.812
2015    4       19    18  36    4.5365   493.3    6.175      47.841
2015    4       19    18  42    4.5379   493.5    6.172      47.871
2015    4       19    18  48    4.5393   493.7    6.169      47.903
2015    4       19    18  54    4.5408   493.9    6.166      47.936
2015    4       19    19   0    4.5422   494.1    6.163      47.970
2015    4       19    19   6    4.5437   494.3    6.160      48.006
2015    4       19    19  12    4.5451   494.5    6.158      48.044
2015    4       19    19  18    4.5467   494.7    6.156      48.084
2015    4       19    19  24    4.5482   494.9    6.155      48.125
2015    4       19    19  30    4.5498   495.1    6.153      48.169
2015    4       19    19  36    4.5513   495.3    6.152      48.216
2015    4       19    19  42    4.5529   495.5    6.151      48.265
2015    4       19    19  48    4.5546   495.7    6.150      48.316
2015    4       19    19  54    4.5562   495.9    6.149      48.368
2015    4       19    20   0    4.5579   496.1    6.148      48.423
2015    4       19    20   6    4.5596   496.3    6.147      48.480
2015    4       19    20  12    4.5614   496.5    6.147      48.537
2015    4       19    20  18    4.5632   496.7    6.147      48.596
2015    4       19    20  24    4.5650   496.9    6.146      48.656
2015    4       19    20  30    4.5668   497.1    6.146      48.716
2015    4       19    20  36    4.5687   497.3    6.146      48.777
2015    4       19    20  42    4.5705   497.5    6.146      48.839
2015    4       19    20  48    4.5724   497.7    6.146      48.902
2015    4       19    20  54    4.5743   497.9    6.146      48.966
2015    4       19    21   0    4.5762   498.1    6.146      49.030
2015    4       19    21   6    4.5781   498.3    6.146      49.094
2015    4       19    21  12    4.5800   498.5    6.145      49.159
2015    4       19    21  18    4.5818   498.8    6.144      49.223
2015    4       19    21  24    4.5836   499.0    6.142      49.284
2015    4       19    21  30    4.5854   499.2    6.140      49.344
2015    4       19    21  36    4.5871   499.4    6.138      49.401
2015    4       19    21  42    4.5887   499.7    6.135      49.456
2015    4       19    21  48    4.5902   499.9    6.132      49.510
2015    4       19    21  54    4.5917   500.1    6.129      49.562
2015    4       19    22   0    4.5931   500.4    6.125      49.612
2015    4       19    22   6    4.5945   500.6    6.121      49.660
2015    4       19    22  12    4.5958   500.8    6.117      49.706
2015    4       19    22  18    4.5971   501.1    6.113      49.752
2015    4       19    22  24    4.5983   501.3    6.108      49.795
2015    4       19    22  30    4.5994   501.6    6.103      49.838
2015    4       19    22  36    4.6005   501.8    6.098      49.879
2015    4       19    22  42    4.6015   502.0    6.092      49.919
2015    4       19    22  48    4.6024   502.3    6.087      49.957
2015    4       19    22  54    4.6033   502.5    6.081      49.995
2015    4       19    23   0    4.6042   502.8    6.075      50.031
2015    4       19    23   6    4.6050   503.0    6.069      50.067
2015    4       19    23  12    4.6057   503.3    6.063      50.101
2015    4       19    23  19    4.6064   503.5    6.056      50.135
2015    4       19    23  25    4.6071   503.8    6.050      50.168
2015    4       19    23  31    4.6076   504.0    6.043      50.200
2015    4       19    23  37    4.6082   504.3    6.036      50.231
2015    4       19    23  43    4.6087   504.5    6.030      50.262
2015    4       19    23  49    4.6091   504.8    6.023      50.292
2015    4       19    23  55    4.6095   505.0    6.016      50.321
2015    4       20     0   1    4.6098   505.3    6.009      50.350
2015    4       20     0   7    4.6102   505.6    6.002      50.378
2015    4       20     0  13    4.6105   505.8    5.995      50.405
2015    4       20     0  19    4.6107   506.1    5.987      50.432
2015    4       20     0  25    4.6109   506.3    5.980      50.459
2015    4       20     0  31    4.6111   506.5    5.973      50.486
2015    4       20     0  37    4.6113   506.8    5.966      50.512
2015    4       20     0  43    4.6114   507.0    5.959      50.537
2015    4       20     0  49    4.6115   507.3    5.952      50.563
2015    4       20     0  55    4.6116   507.5    5.945      50.587
2015    4       20     1   1    4.6117   507.8    5.937      50.612
2015    4       20     1   7    4.6117   508.0    5.930      50.637
2015    4       20     1  13    4.6118   508.3    5.923      50.661
2015    4       20     1  19    4.6118   508.5    5.916      50.685
2015    4       20     1  25    4.6118   508.7    5.910      50.710
2015    4       20     1  31    4.6118   509.0    5.903      50.734
2015    4       20     1  37    4.6118   509.2    5.896      50.759
2015    4       20     1  43    4.6117   509.4    5.890      50.784
2015    4       20     1  49    4.6117   509.7    5.883      50.809
2015    4       20     1  55    4.6117   509.9    5.877      50.834
2015    4       20     2   1    4.6116   510.1    5.871      50.861
2015    4       20     2   7    4.6116   510.4    5.865      50.888
2015    4       20     2  13    4.6116   510.6    5.860      50.917
2015    4       20     2  19    4.6115   510.8    5.854      50.946
2015    4       20     2  25    4.6115   511.1    5.849      50.976
2015    4       20     2  31    4.6115   511.3    5.843      51.008
2015    4       20     2  37    4.6114   511.6    5.838      51.040
2015    4       20     2  43    4.6113   511.8    5.832      51.074
2015    4       20     2  49    4.6113   512.0    5.827      51.110
2015    4       20     2  55    4.6112   512.3    5.821      51.147
2015    4       20     3   1    4.6111   512.5    5.816      51.184
2015    4       20     3   7    4.6109   512.8    5.810      51.222
2015    4       20     3  13    4.6108   513.0    5.804      51.260
2015    4       20     3  19    4.6106   513.3    5.797      51.297
2015    4       20     3  25    4.6104   513.5    5.791      51.333
2015    4       20     3  31    4.6102   513.8    5.784      51.367
2015    4       20     3  37    4.6099   514.0    5.778      51.401
2015    4       20     3  43    4.6096   514.2    5.771      51.433
2015    4       20     3  49    4.6093   514.5    5.764      51.465
2015    4       20     3  55    4.6089   514.7    5.757      51.495
2015    4       20     4   1    4.6085   515.0    5.750      51.525
2015    4       20     4   7    4.6081   515.2    5.742      51.554
2015    4       20     4  13    4.6077   515.5    5.735      51.582
2015    4       20     4  19    4.6073   515.7    5.728      51.610
2015    4       20     4  25    4.6068   515.9    5.720      51.637
2015    4       20     4  31    4.6063   516.2    5.713      51.663
2015    4       20     4  37    4.6058   516.4    5.706      51.688
2015    4       20     4  43    4.6053   516.7    5.698      51.713
2015    4       20     4  49    4.6048   516.9    5.691      51.737
2015    4       20     4  55    4.6042   517.1    5.683      51.761
2015    4       20     5   1    4.6036   517.4    5.675      51.784
2015    4       20     5   7    4.6030   517.6    5.668      51.806
2015    4       20     5  13    4.6024   517.9    5.660      51.828
2015    4       20     5  19    4.6017   518.1    5.652      51.849
2015    4       20     5  25    4.6010   518.3    5.645      51.870
2015    4       20     5  31    4.6002   518.6    5.637      51.890
2015    4       20     5  37    4.5994   518.8    5.629      51.909
2015    4       20     5  43    4.5985   519.1    5.621      51.928
2015    4       20     5  49    4.5976   519.3    5.613      51.947
2015    4       20     5  55    4.5967   519.5    5.605      51.965
2015    4       20     6   1    4.5957   519.8    5.597      51.982
2015    4       20     6   7    4.5947   520.0    5.589      51.999
2015    4       20     6  13    4.5937   520.3    5.581      52.015
2015    4       20     6  19    4.5925   520.5    5.573      52.031
2015    4       20     6  25    4.5914   520.7    5.565      52.046
2015    4       20     6  31    4.5902   521.0    5.557      52.060
2015    4       20     6  37    4.5890   521.2    5.549      52.074
2015    4       20     6  43    4.5877   521.4    5.541      52.088
2015    4       20     6  49    4.5864   521.7    5.533      52.101
2015    4       20     6  55    4.5850   521.9    5.524      52.113
2015    4       20     7   1    4.5837   522.1    5.516      52.125
2015    4       20     7   7    4.5822   522.4    5.508      52.137
2015    4       20     7  13    4.5808   522.6    5.500      52.148
2015    4       20     7  19    4.5793   522.8    5.491      52.159
2015    4       20     7  25    4.5777   523.0    5.483      52.169
2015    4       20     7  31    4.5762   523.3    5.475      52.179
2015    4       20     7  37    4.5746   523.5    5.466      52.188
2015    4       20     7  43    4.5730   523.7    5.458      52.197
2015    4       20     7  49    4.5713   523.9    5.450      52.206
2015    4       20     7  55    4.5696   524.2    5.441      52.214
2015    4       20     8   1    4.5679   524.4    5.433      52.221
2015    4       20     8   7    4.5661   524.6    5.424      52.228
2015    4       20     8  13    4.5644   524.8    5.416      52.235
2015    4       20     8  19    4.5625   525.0    5.407      52.241
2015    4       20     8  25    4.5607   525.2    5.399      52.246
2015    4       20     8  31    4.5587   525.5    5.390      52.251
2015    4       20     8  37    4.5568   525.7    5.382      52.255
2015    4       20     8  43    4.5549   525.9    5.373      52.258
2015    4       20     8  49    4.5529   526.1    5.365      52.261
2015    4       20     8  55    4.5508   526.3    5.356      52.263
2015    4       20     9   2    4.5488   526.5    5.347      52.264
2015    4       20     9   8    4.5467   526.7    5.339      52.266
2015    4       20     9  14    4.5446   526.9    5.330      52.267
2015    4       20     9  20    4.5425   527.1    5.321      52.267
2015    4       20     9  26    4.5404   527.3    5.313      52.267
2015    4       20     9  32    4.5382   527.5    5.304      52.267
2015    4       20     9  38    4.5361   527.7    5.296      52.267
2015    4       20     9  44    4.5339   527.8    5.287      52.266
2015    4       20     9  50    4.5317   528.0    5.279      52.265
2015    4       20     9  56    4.5295   528.2    5.271      52.264
2015    4       20    10   2    4.5273   528.4    5.262      52.263
2015    4       20    10   8    4.5250   528.6    5.254      52.261
2015    4       20    10  14    4.5228   528.8    5.246      52.260
2015    4       20    10  20    4.5205   528.9    5.238      52.258
2015    4       20    10  26    4.5183   529.1    5.229      52.255
2015    4       20    10  32    4.5160   529.3    5.221      52.252
2015    4       20    10  38    4.5137   529.5    5.213      52.249
2015    4       20    10  44    4.5114   529.7    5.205      52.245
2015    4       20    10  50    4.5091   529.8    5.197      52.241
2015    4       20    10  56    4.5068   530.0    5.188      52.236
2015    4       20    11   2    4.5044   530.2    5.180      52.230
2015    4       20    11   8    4.5021   530.3    5.172      52.224
2015    4       20    11  14    4.4997   530.5    5.164      52.217
2015    4       20    11  20    4.4973   530.7    5.156      52.210
2015    4       20    11  26    4.4950   530.8    5.148      52.203
2015    4       20    11  32    4.4926   531.0    5.140      52.195
2015    4       20    11  38    4.4902   531.1    5.132      52.187
2015    4       20    11  44    4.4878   531.3    5.125      52.179
2015    4       20    11  50    4.4854   531.4    5.117      52.171
2015    4       20    11  56    4.4829   531.6    5.110      52.164
2015    4       20    12   2    4.4805   531.7    5.102      52.156
2015    4       20    12   8    4.4781   531.9    5.095      52.149
2015    4       20    12  14    4.4757   532.0    5.088      52.141
2015    4       20    12  20    4.4733   532.1    5.081      52.135
2015    4       20    12  26    4.4710   532.3    5.075      52.128
2015    4       20    12  32    4.4686   532.4    5.068      52.122
2015    4       20    12  38    4.4662   532.5    5.062      52.116
2015    4       20    12  44    4.4639   532.7    5.055      52.110
2015    4       20    12  50    4.4615   532.8    5.049      52.104
2015    4       20    12  56    4.4592   532.9    5.043      52.099
2015    4       20    13   2    4.4569   533.1    5.037      52.094
2015    4       20    13   8    4.4546   533.2    5.031      52.088
2015    4       20    13  14    4.4523   533.3    5.026      52.083
2015    4       20    13  20    4.4500   533.4    5.020      52.078
2015    4       20    13  26    4.4477   533.5    5.014      52.073
2015    4       20    13  32    4.4454   533.7    5.009      52.067
2015    4       20    13  38    4.4431   533.8    5.003      52.061
2015    4       20    13  44    4.4408   533.9    4.998      52.055
2015    4       20    13  50    4.4385   534.0    4.993      52.049
2015    4       20    13  56    4.4362   534.1    4.987      52.041
2015    4       20    14   2    4.4339   534.2    4.982      52.034
2015    4       20    14   8    4.4315   534.3    4.977      52.026
2015    4       20    14  14    4.4292   534.4    4.971      52.017
2015    4       20    14  20    4.4268   534.5    4.966      52.008
2015    4       20    14  26    4.4245   534.6    4.961      51.999
2015    4       20    14  32    4.4221   534.7    4.955      51.989
2015    4       20    14  38    4.4197   534.9    4.950      51.979
2015    4       20    14  44    4.4173   535.0    4.945      51.969
2015    4       20    14  50    4.4149   535.1    4.939      51.958
2015    4       20    14  56    4.4125   535.2    4.934      51.946
2015    4       20    15   2    4.4101   535.3    4.929      51.935
2015    4       20    15   8    4.4077   535.4    4.923      51.923
2015    4       20    15  14    4.4052   535.5    4.918      51.910
2015    4       20    15  20    4.4028   535.6    4.913      51.898
2015    4       20    15  26    4.4003   535.7    4.907      51.885
2015    4       20    15  32    4.3978   535.8    4.902      51.871
2015    4       20    15  38    4.3953   535.9    4.896      51.856
2015    4       20    15  44    4.3927   536.0    4.891      51.842
2015    4       20    15  50    4.3902   536.1    4.885      51.826
2015    4       20    15  56    4.3876   536.1    4.879      51.809
2015    4       20    16   2    4.3850   536.2    4.874      51.792
2015    4       20    16   8    4.3823   536.3    4.868      51.775
2015    4       20    16  14    4.3797   536.4    4.862      51.757
2015    4       20    16  20    4.3770   536.5    4.856      51.737
2015    4       20    16  26    4.3744   536.6    4.851      51.718
2015    4       20    16  32    4.3717   536.7    4.845      51.698
2015    4       20    16  38    4.3690   536.8    4.839      51.677
2015    4       20    16  44    4.3662   536.9    4.833      51.656
2015    4       20    16  50    4.3635   537.0    4.827      51.634
2015    4       20    16  56    4.3608   537.1    4.821      51.612
2015    4       20    17   2    4.3580   537.1    4.815      51.589
2015    4       20    17   8    4.3553   537.2    4.809      51.566
2015    4       20    17  14    4.3525   537.3    4.803      51.542
2015    4       20    17  20    4.3497   537.4    4.797      51.518
2015    4       20    17  26    4.3469   537.5    4.791      51.494
2015    4       20    17  32    4.3441   537.5    4.785      51.469
2015    4       20    17  38    4.3413   537.6    4.778      51.444
2015    4       20    17  44    4.3385   537.7    4.772      51.418
2015    4       20    17  50    4.3357   537.8    4.766      51.392
2015    4       20    17  56    4.3329   537.8    4.760      51.366
2015    4       20    18   2    4.3301   537.9    4.754      51.339
2015    4       20    18   8    4.3273   538.0    4.748      51.313
2015    4       20    18  14    4.3246   538.0    4.743      51.286
2015    4       20    18  20    4.3218   538.1    4.737      51.259
2015    4       20    18  26    4.3190   538.1    4.731      51.232
2015    4       20    18  32    4.3163   538.2    4.725      51.205
2015    4       20    18  38    4.3136   538.2    4.720      51.178
2015    4       20    18  44    4.3109   538.3    4.714      51.151
2015    4       20    18  50    4.3082   538.3    4.709      51.124
2015    4       20    18  57    4.3055   538.4    4.704      51.098
2015    4       20    19   3    4.3029   538.4    4.698      51.072
2015    4       20    19   9    4.3002   538.4    4.693      51.047
2015    4       20    19  15    4.2976   538.5    4.689      51.022
2015    4       20    19  21    4.2950   538.5    4.684      50.998
2015    4       20    19  27    4.2925   538.5    4.679      50.974
2015    4       20    19  33    4.2900   538.5    4.675      50.952
2015    4       20    19  39    4.2875   538.6    4.671      50.930
2015    4       20    19  45    4.2850   538.6    4.667      50.908
2015    4       20    19  51    4.2826   538.6    4.663      50.888
2015    4       20    19  57    4.2802   538.6    4.659      50.869
2015    4       20    20   3    4.2779   538.6    4.656      50.850
2015    4       20    20   9    4.2756   538.6    4.653      50.832
2015    4       20    20  15    4.2733   538.6    4.650      50.815
2015    4       20    20  21    4.2711   538.7    4.647      50.799
2015    4       20    20  27    4.2689   538.7    4.644      50.783
2015    4       20    20  33    4.2668   538.7    4.641      50.767
2015    4       20    20  39    4.2647   538.7    4.639      50.753
2015    4       20    20  45    4.2627   538.7    4.636      50.739
2015    4       20    20  51    4.2607   538.7    4.634      50.725
2015    4       20    20  57    4.2587   538.7    4.632      50.712
2015    4       20    21   3    4.2567   538.7    4.629      50.698
2015    4       20    21   9    4.2547   538.7    4.627      50.684
2015    4       20    21  15    4.2528   538.7    4.625      50.671
2015    4       20    21  21    4.2509   538.7    4.623      50.657
2015    4       20    21  27    4.2490   538.7    4.621      50.642
2015    4       20    21  33    4.2471   538.7    4.619      50.628
2015    4       20    21  39    4.2452   538.7    4.617      50.613
2015    4       20    21  45    4.2433   538.7    4.615      50.598
2015    4       20    21  51    4.2413   538.7    4.612      50.582
2015    4       20    21  57    4.2394   538.7    4.610      50.567
2015    4       20    22   3    4.2375   538.7    4.608      50.551
2015    4       20    22   9    4.2356   538.7    4.606      50.534
2015    4       20    22  15    4.2336   538.8    4.604      50.517
2015    4       20    22  21    4.2317   538.8    4.602      50.500
2015    4       20    22  27    4.2297   538.8    4.599      50.483
2015    4       20    22  33    4.2278   538.8    4.597      50.464
2015    4       20    22  39    4.2258   538.8    4.595      50.446
2015    4       20    22  45    4.2238   538.8    4.592      50.426
2015    4       20    22  51    4.2218   538.8    4.590      50.407
2015    4       20    22  57    4.2199   538.8    4.587      50.386
2015    4       20    23   3    4.2179   538.8    4.585      50.366
2015    4       20    23   9    4.2158   538.8    4.582      50.345
2015    4       20    23  15    4.2138   538.8    4.580      50.323
2015    4       20    23  21    4.2118   538.8    4.577      50.301
2015    4       20    23  27    4.2098   538.8    4.574      50.279
2015    4       20    23  33    4.2078   538.8    4.572      50.256
2015    4       20    23  39    4.2058   538.8    4.569      50.233
2015    4       20    23  45    4.2037   538.8    4.566      50.210
2015    4       20    23  51    4.2017   538.8    4.563      50.186
2015    4       20    23  57    4.1997   538.8    4.561      50.162
2015    4       21     0   3    4.1975   538.8    4.558      50.136
2015    4       21     0   9    4.1952   538.8    4.555      50.110
2015    4       21     0  15    4.1929   538.8    4.551      50.084
2015    4       21     0  21    4.1906   538.8    4.548      50.057
2015    4       21     0  27    4.1883   538.8    4.545      50.030
2015    4       21     0  33    4.1860   538.8    4.542      50.002
2015    4       21     0  39    4.1837   538.8    4.539      49.975
2015    4       21     0  45    4.1814   538.8    4.535      49.947
2015    4       21     0  51    4.1791   538.8    4.532      49.919
2015    4       21     0  57    4.1768   538.8    4.529      49.890
2015    4       21     1   3    4.1746   538.8    4.525      49.862
2015    4       21     1   9    4.1723   538.8    4.522      49.833
2015    4       21     1  15    4.1700   538.8    4.519      49.804
2015    4       21     1  21    4.1677   538.7    4.516      49.775
2015    4       21     1  27    4.1654   538.7    4.512      49.745
2015    4       21     1  33    4.1631   538.7    4.509      49.716
2015    4       21     1  39    4.1609   538.7    4.506      49.687
2015    4       21     1  45    4.1586   538.7    4.502      49.657
2015    4       21     1  51    4.1563   538.7    4.499      49.627
2015    4       21     1  57    4.1541   538.6    4.496      49.598
2015    4       21     2   3    4.1518   538.6    4.493      49.568
2015    4       21     2   9    4.1496   538.6    4.490      49.539
2015    4       21     2  15    4.1474   538.6    4.486      49.510
2015    4       21     2  21    4.1452   538.6    4.483      49.481
2015    4       21     2  27    4.1430   538.5    4.480      49.452
2015    4       21     2  33    4.1408   538.5    4.477      49.423
2015    4       21     2  39    4.1386   538.5    4.474      49.395
2015    4       21     2  45    4.1365   538.5    4.471      49.367
2015    4       21     2  51    4.1343   538.4    4.468      49.339
2015    4       21     2  57    4.1322   538.4    4.465      49.311
2015    4       21     3   3    4.1301   538.4    4.463      49.283
2015    4       21     3   9    4.1280   538.3    4.460      49.256
2015    4       21     3  15    4.1259   538.3    4.457      49.229
2015    4       21     3  21    4.1239   538.3    4.454      49.202
2015    4       21     3  27    4.1218   538.2    4.452      49.175
2015    4       21     3  33    4.1198   538.2    4.449      49.149
2015    4       21     3  39    4.1178   538.2    4.446      49.123
2015    4       21     3  45    4.1158   538.1    4.444      49.097
2015    4       21     3  51    4.1138   538.1    4.441      49.071
2015    4       21     3  57    4.1119   538.0    4.439      49.046
2015    4       21     4   3    4.1100   538.0    4.437      49.020
2015    4       21     4   9    4.1080   538.0    4.434      48.995
2015    4       21     4  15    4.1062   537.9    4.432      48.971
2015    4       21     4  21    4.1043   537.9    4.430      48.946
2015    4       21     4  27    4.1025   537.8    4.428      48.922
2015    4       21     4  33    4.1006   537.8    4.426      48.898
2015    4       21     4  39    4.0988   537.8    4.424      48.874
2015    4       21     4  45    4.0971   537.7    4.422      48.851
2015    4       21     4  52    4.0953   537.7    4.420      48.828
2015    4       21     4  58    4.0935   537.6    4.418      48.805
2015    4       21     5   4    4.0918   537.6    4.416      48.783
2015    4       21     5  10    4.0901   537.5    4.415      48.761
2015    4       21     5  16    4.0884   537.5    4.413      48.739
2015    4       21     5  22    4.0866   537.5    4.412      48.717
2015    4       21     5  28    4.0849   537.4    4.410      48.696
2015    4       21     5  34    4.0832   537.4    4.409      48.674
2015    4       21     5  40    4.0815   537.3    4.408      48.653
2015    4       21     5  46    4.0797   537.3    4.406      48.631
2015    4       21     5  52    4.0781   537.3    4.405      48.610
2015    4       21     5  58    4.0763   537.2    4.404      48.588
2015    4       21     6   4    4.0747   537.2    4.403      48.567
2015    4       21     6  10    4.0730   537.1    4.401      48.546
2015    4       21     6  16    4.0713   537.1    4.400      48.525
2015    4       21     6  22    4.0696   537.1    4.399      48.504
2015    4       21     6  28    4.0679   537.0    4.398      48.482
2015    4       21     6  34    4.0662   537.0    4.397      48.461
2015    4       21     6  40    4.0645   536.9    4.396      48.440
2015    4       21     6  46    4.0628   536.9    4.395      48.419
2015    4       21     6  52    4.0611   536.9    4.394      48.397
2015    4       21     6  58    4.0594   536.8    4.393      48.376
2015    4       21     7   4    4.0576   536.8    4.392      48.354
2015    4       21     7  10    4.0559   536.7    4.391      48.333
2015    4       21     7  16    4.0541   536.7    4.390      48.310
2015    4       21     7  22    4.0523   536.6    4.389      48.288
2015    4       21     7  28    4.0505   536.6    4.388      48.266
2015    4       21     7  34    4.0488   536.6    4.387      48.243
2015    4       21     7  40    4.0469   536.5    4.386      48.221
2015    4       21     7  46    4.0451   536.5    4.384      48.197
2015    4       21     7  52    4.0433   536.4    4.383      48.174
2015    4       21     7  58    4.0415   536.4    4.382      48.150
2015    4       21     8   4    4.0397   536.3    4.381      48.126
2015    4       21     8  10    4.0379   536.3    4.379      48.101
2015    4       21     8  16    4.0360   536.2    4.378      48.077
2015    4       21     8  22    4.0342   536.2    4.377      48.052
2015    4       21     8  28    4.0324   536.1    4.375      48.026
2015    4       21     8  34    4.0306   536.1    4.374      48.001
2015    4       21     8  40    4.0287   536.0    4.372      47.975
2015    4       21     8  46    4.0269   536.0    4.371      47.948
2015    4       21     8  52    4.0251   535.9    4.369      47.922
2015    4       21     8  58    4.0233   535.9    4.367      47.895
2015    4       21     9   4    4.0215   535.8    4.366      47.868
2015    4       21     9  10    4.0197   535.8    4.364      47.841
2015    4       21     9  16    4.0179   535.7    4.362      47.814
2015    4       21     9  22    4.0161   535.7    4.361      47.786
2015    4       21     9  28    4.0143   535.6    4.359      47.758
2015    4       21     9  34    4.0125   535.6    4.357      47.730
2015    4       21     9  40    4.0107   535.5    4.356      47.702
2015    4       21     9  46    4.0090   535.4    4.354      47.674
2015    4       21     9  52    4.0072   535.4    4.352      47.646
2015    4       21     9  58    4.0055   535.3    4.350      47.617
2015    4       21    10   4    4.0037   535.3    4.348      47.589
2015    4       21    10  10    4.0020   535.2    4.347      47.560
2015    4       21    10  16    4.0002   535.1    4.345      47.532
2015    4       21    10  22    3.9985   535.1    4.343      47.503
2015    4       21    10  28    3.9968   535.0    4.341      47.474
2015    4       21    10  34    3.9951   535.0    4.339      47.445
2015    4       21    10  40    3.9934   534.9    4.337      47.416
2015    4       21    10  46    3.9917   534.8    4.335      47.386
2015    4       21    10  52    3.9900   534.8    4.333      47.357
2015    4       21    10  58    3.9883   534.7    4.332      47.328
2015    4       21    11   4    3.9866   534.6    4.330      47.298
2015    4       21    11  10    3.9850   534.6    4.328      47.269
2015    4       21    11  16    3.9833   534.5    4.326      47.239
2015    4       21    11  22    3.9816   534.4    4.324      47.209
2015    4       21    11  28    3.9800   534.4    4.322      47.179
2015    4       21    11  34    3.9783   534.3    4.320      47.149
2015    4       21    11  40    3.9767   534.2    4.318      47.118
2015    4       21    11  46    3.9750   534.2    4.316      47.088
2015    4       21    11  52    3.9734   534.1    4.314      47.057
2015    4       21    11  58    3.9718   534.0    4.312      47.027
2015    4       21    12   4    3.9702   533.9    4.310      46.996
2015    4       21    12  10    3.9686   533.9    4.308      46.966
2015    4       21    12  16    3.9669   533.8    4.306      46.935
2015    4       21    12  22    3.9653   533.7    4.304      46.905
2015    4       21    12  28    3.9638   533.6    4.302      46.874
2015    4       21    12  34    3.9622   533.6    4.300      46.844
2015    4       21    12  40    3.9606   533.5    4.298      46.813
2015    4       21    12  46    3.9590   533.4    4.297      46.783
2015    4       21    12  52    3.9575   533.3    4.295      46.753
2015    4       21    12  58    3.9559   533.3    4.293      46.724
2015    4       21    13   4    3.9544   533.2    4.292      46.694
2015    4       21    13  10    3.9528   533.1    4.290      46.665
2015    4       21    13  16    3.9513   533.0    4.289      46.636
2015    4       21    13  22    3.9498   532.9    4.287      46.607
2015    4       21    13  28    3.9483   532.9    4.286      46.579
2015    4       21    13  34    3.9468   532.8    4.285      46.551
2015    4       21    13  40    3.9453   532.7    4.284      46.523
2015    4       21    13  46    3.9439   532.6    4.283      46.496
2015    4       21    13  52    3.9424   532.6    4.282      46.469
2015    4       21    13  58    3.9409   532.5    4.281      46.442
2015    4       21    14   4    3.9395   532.4    4.280      46.416
2015    4       21    14  10    3.9380   532.3    4.279      46.390
2015    4       21    14  16    3.9366   532.3    4.278      46.364
2015    4       21    14  22    3.9351   532.2    4.277      46.338
2015    4       21    14  28    3.9337   532.1    4.277      46.313
2015    4       21    14  34    3.9322   532.0    4.276      46.288
2015    4       21    14  40    3.9307   532.0    4.275      46.263
2015    4       21    14  47    3.9292   531.9    4.275      46.237
2015    4       21    14  53    3.9278   531.8    4.274      46.212
2015    4       21    14  59    3.9263   531.7    4.273      46.187
2015    4       21    15   5    3.9247   531.6    4.273      46.162
2015    4       21    15  11    3.9232   531.6    4.272      46.137
2015    4       21    15  17    3.9217   531.5    4.272      46.111
2015    4       21    15  23    3.9202   531.4    4.271      46.086
2015    4       21    15  29    3.9186   531.3    4.271      46.060
2015    4       21    15  35    3.9171   531.2    4.270      46.034
2015    4       21    15  41    3.9156   531.2    4.269      46.008
2015    4       21    15  47    3.9141   531.1    4.269      45.982
2015    4       21    15  53    3.9125   531.0    4.268      45.955
2015    4       21    15  59    3.9110   530.9    4.267      45.929
2015    4       21    16   5    3.9095   530.8    4.267      45.902
2015    4       21    16  11    3.9080   530.7    4.266      45.875
2015    4       21    16  17    3.9064   530.6    4.265      45.847
2015    4       21    16  23    3.9049   530.6    4.265      45.820
2015    4       21    16  29    3.9034   530.5    4.264      45.793
2015    4       21    16  35    3.9020   530.4    4.263      45.765
2015    4       21    16  41    3.9005   530.3    4.263      45.738
2015    4       21    16  47    3.8991   530.2    4.262      45.710
2015    4       21    16  53    3.8976   530.1    4.261      45.683
2015    4       21    16  59    3.8962   530.0    4.261      45.655
2015    4       21    17   5    3.8948   529.9    4.260      45.628
2015    4       21    17  11    3.8934   529.8    4.260      45.600
2015    4       21    17  17    3.8920   529.7    4.259      45.573
2015    4       21    17  23    3.8906   529.7    4.259      45.545
2015    4       21    17  29    3.8893   529.6    4.259      45.518
2015    4       21    17  35    3.8880   529.5    4.258      45.491
2015    4       21    17  41    3.8866   529.4    4.258      45.464
2015    4       21    17  47    3.8853   529.3    4.258      45.437
2015    4       21    17  53    3.8840   529.2    4.257      45.410
2015    4       21    17  59    3.8828   529.1    4.257      45.384
2015    4       21    18   5    3.8815   529.0    4.257      45.357
2015    4       21    18  11    3.8803   528.9    4.257      45.331
2015    4       21    18  17    3.8790   528.8    4.257      45.304
2015    4       21    18  23    3.8778   528.7    4.257      45.278
2015    4       21    18  29    3.8766   528.6    4.257      45.252
2015    4       21    18  35    3.8753   528.5    4.256      45.226
2015    4       21    18  41    3.8741   528.4    4.256      45.200
2015    4       21    18  47    3.8729   528.3    4.256      45.175
2015    4       21    18  53    3.8716   528.2    4.256      45.150
2015    4       21    18  59    3.8704   528.1    4.256      45.125
2015    4       21    19   5    3.8691   528.0    4.256      45.100
2015    4       21    19  11    3.8678   527.9    4.256      45.075
2015    4       21    19  17    3.8665   527.9    4.255      45.051
2015    4       21    19  23    3.8653   527.8    4.255      45.026
2015    4       21    19  29    3.8639   527.7    4.254      45.000
2015    4       21    19  35    3.8627   527.6    4.254      44.974
2015    4       21    19  41    3.8613   527.5    4.253      44.948
2015    4       21    19  47    3.8600   527.4    4.253      44.921
2015    4       21    19  53    3.8587   527.3    4.252      44.894
2015    4       21    19  59    3.8574   527.2    4.251      44.867
2015    4       21    20   5    3.8561   527.1    4.250      44.839
2015    4       21    20  11    3.8548   527.0    4.250      44.811
2015    4       21    20  17    3.8535   526.9    4.249      44.783
2015    4       21    20  23    3.8521   526.8    4.248      44.754
2015    4       21    20  29    3.8508   526.6    4.247      44.725
2015    4       21    20  35    3.8495   526.5    4.246      44.696
2015    4       21    20  41    3.8481   526.4    4.245      44.666
2015    4       21    20  47    3.8468   526.3    4.244      44.637
2015    4       21    20  53    3.8455   526.2    4.243      44.607
2015    4       21    20  59    3.8442   526.1    4.242      44.577
2015    4       21    21   5    3.8429   526.0    4.241      44.547
2015    4       21    21  11    3.8415   525.9    4.240      44.516
2015    4       21    21  17    3.8402   525.8    4.239      44.486
2015    4       21    21  23    3.8389   525.7    4.238      44.455
2015    4       21    21  29    3.8376   525.6    4.237      44.425
2015    4       21    21  35    3.8363   525.5    4.236      44.394
2015    4       21    21  41    3.8350   525.4    4.235      44.363
2015    4       21    21  47    3.8337   525.3    4.234      44.332
2015    4       21    21  53    3.8324   525.2    4.232      44.301
2015    4       21    21  59    3.8311   525.1    4.231      44.269
2015    4       21    22   5    3.8298   525.0    4.230      44.238
2015    4       21    22  11    3.8285   524.9    4.229      44.207
2015    4       21    22  17    3.8272   524.8    4.228      44.175
2015    4       21    22  23    3.8259   524.7    4.227      44.143
2015    4       21    22  29    3.8246   524.6    4.226      44.111
2015    4       21    22  35    3.8233   524.4    4.225      44.079
2015    4       21    22  41    3.8220   524.3    4.224      44.047
2015    4       21    22  47    3.8208   524.2    4.223      44.015
2015    4       21    22  53    3.8195   524.1    4.222      43.982
2015    4       21    22  59    3.8182   524.0    4.221      43.949
2015    4       21    23   5    3.8169   523.9    4.220      43.916
2015    4       21    23  11    3.8157   523.8    4.218      43.883
2015    4       21    23  17    3.8144   523.7    4.217      43.850
2015    4       21    23  23    3.8131   523.6    4.216      43.817
2015    4       21    23  29    3.8119   523.5    4.215      43.783
2015    4       21    23  35    3.8106   523.4    4.214      43.750
2015    4       21    23  41    3.8093   523.3    4.213      43.716
2015    4       21    23  47    3.8081   523.1    4.212      43.682
2015    4       21    23  53    3.8069   523.0    4.211      43.649
2015    4       21    23  59    3.8057   522.9    4.210      43.615
2015    4       22     0   5    3.8047   522.8    4.209      43.582
2015    4       22     0  11    3.8038   522.7    4.209      43.550
2015    4       22     0  17    3.8028   522.6    4.208      43.517
2015    4       22     0  23    3.8019   522.5    4.208      43.485
2015    4       22     0  29    3.8010   522.3    4.208      43.453
2015    4       22     0  35    3.8001   522.2    4.207      43.421
2015    4       22     0  42    3.7992   522.1    4.207      43.389
2015    4       22     0  48    3.7984   522.0    4.207      43.358
2015    4       22     0  54    3.7975   521.9    4.207      43.327
2015    4       22     1   0    3.7967   521.8    4.207      43.296
2015    4       22     1   6    3.7959   521.6    4.207      43.266
2015    4       22     1  12    3.7951   521.5    4.207      43.237
2015    4       22     1  18    3.7943   521.4    4.207      43.208
2015    4       22     1  24    3.7935   521.3    4.208      43.179
2015    4       22     1  30    3.7928   521.2    4.208      43.151
2015    4       22     1  36    3.7920   521.0    4.209      43.123
2015    4       22     1  42    3.7913   520.9    4.210      43.096
2015    4       22     1  48    3.7906   520.8    4.210      43.069
2015    4       22     1  54    3.7899   520.7    4.211      43.043
2015    4       22     2   0    3.7892   520.6    4.212      43.017
2015    4       22     2   6    3.7885   520.4    4.213      42.992
2015    4       22     2  12    3.7877   520.3    4.214      42.968
2015    4       22     2  18    3.7870   520.2    4.216      42.945
2015    4       22     2  24    3.7863   520.1    4.217      42.923
2015    4       22     2  30    3.7855   520.0    4.218      42.901
2015    4       22     2  36    3.7848   519.9    4.219      42.880
2015    4       22     2  42    3.7840   519.7    4.220      42.859
2015    4       22     2  48    3.7833   519.6    4.222      42.837
2015    4       22     2  54    3.7825   519.5    4.223      42.816
2015    4       22     3   0    3.7817   519.4    4.224      42.794
2015    4       22     3   6    3.7809   519.3    4.225      42.773
2015    4       22     3  12    3.7801   519.1    4.226      42.751
2015    4       22     3  18    3.7793   519.0    4.227      42.729
2015    4       22     3  24    3.7785   518.9    4.229      42.707
2015    4       22     3  30    3.7777   518.8    4.230      42.684
2015    4       22     3  36    3.7769   518.6    4.231      42.662
2015    4       22     3  42    3.7761   518.5    4.232      42.639
2015    4       22     3  48    3.7752   518.4    4.233      42.616
2015    4       22     3  54    3.7744   518.3    4.234      42.592
2015    4       22     4   0    3.7736   518.1    4.234      42.569
2015    4       22     4   6    3.7727   518.0    4.235      42.545
2015    4       22     4  12    3.7719   517.9    4.236      42.521
2015    4       22     4  18    3.7711   517.8    4.237      42.497
2015    4       22     4  24    3.7702   517.6    4.238      42.472
2015    4       22     4  30    3.7694   517.5    4.238      42.447
2015    4       22     4  36    3.7686   517.4    4.239      42.422
2015    4       22     4  42    3.7677   517.2    4.239      42.397
2015    4       22     4  48    3.7669   517.1    4.240      42.371
2015    4       22     4  54    3.7661   517.0    4.240      42.345
2015    4       22     5   0    3.7653   516.8    4.241      42.319
2015    4       22     5   6    3.7645   516.7    4.241      42.292
2015    4       22     5  12    3.7637   516.6    4.241      42.265
2015    4       22     5  18    3.7629   516.4    4.242      42.238
2015    4       22     5  24    3.7621   516.3    4.242      42.211
2015    4       22     5  30    3.7614   516.2    4.242      42.184
2015    4       22     5  36    3.7606   516.0    4.242      42.156
2015    4       22     5  42    3.7599   515.9    4.243      42.128
2015    4       22     5  48    3.7592   515.8    4.243      42.100
2015    4       22     5  54    3.7584   515.6    4.243      42.072
2015    4       22     6   0    3.7578   515.5    4.243      42.044
2015    4       22     6   6    3.7571   515.4    4.243      42.015
2015    4       22     6  12    3.7564   515.2    4.243      41.986
2015    4       22     6  18    3.7557   515.1    4.243      41.957
2015    4       22     6  24    3.7550   515.0    4.243      41.928
2015    4       22     6  30    3.7543   514.8    4.243      41.899
2015    4       22     6  36    3.7536   514.7    4.243      41.870
2015    4       22     6  42    3.7529   514.6    4.242      41.840
2015    4       22     6  48    3.7523   514.4    4.242      41.811
2015    4       22     6  54    3.7515   514.3    4.242      41.781
2015    4       22     7   0    3.7509   514.1    4.242      41.751
2015    4       22     7   6    3.7502   514.0    4.242      41.721
2015    4       22     7  12    3.7495   513.9    4.241      41.691
2015    4       22     7  18    3.7488   513.7    4.241      41.661
2015    4       22     7  24    3.7481   513.6    4.241      41.631
2015    4       22     7  30    3.7474   513.5    4.241      41.600
2015    4       22     7  36    3.7467   513.3    4.240      41.570
2015    4       22     7  42    3.7460   513.2    4.240      41.539
2015    4       22     7  48    3.7453   513.0    4.240      41.507
2015    4       22     7  54    3.7446   512.9    4.239      41.476
2015    4       22     8   0    3.7439   512.8    4.239      41.444
2015    4       22     8   6    3.7432   512.6    4.239      41.413
2015    4       22     8  12    3.7425   512.5    4.239      41.381
2015    4       22     8  18    3.7418   512.3    4.238      41.349
2015    4       22     8  24    3.7412   512.2    4.238      41.317
2015    4       22     8  30    3.7405   512.1    4.238      41.285
2015    4       22     8  36    3.7398   511.9    4.238      41.253
2015    4       22     8  42    3.7391   511.8    4.238      41.221
2015    4       22     8  48    3.7384   511.6    4.237      41.189
2015    4       22     8  54    3.7378   511.5    4.237      41.157
2015    4       22     9   0    3.7371   511.4    4.237      41.125
2015    4       22     9   6    3.7365   511.2    4.238      41.093
2015    4       22     9  12    3.7358   511.1    4.238      41.062
2015    4       22     9  18    3.7351   510.9    4.238      41.030
2015    4       22     9  24    3.7345   510.8    4.238      40.999
2015    4       22     9  30    3.7338   510.6    4.238      40.968
2015    4       22     9  36    3.7332   510.5    4.239      40.937
2015    4       22     9  42    3.7325   510.3    4.239      40.907
2015    4       22     9  48    3.7319   510.2    4.240      40.877
2015    4       22     9  54    3.7313   510.0    4.241      40.847
2015    4       22    10   0    3.7307   509.9    4.242      40.817
2015    4       22    10   6    3.7301   509.7    4.242      40.788
2015    4       22    10  12    3.7294   509.6    4.243      40.759
2015    4       22    10  18    3.7288   509.4    4.245      40.731
2015    4       22    10  24    3.7283   509.3    4.246      40.703
2015    4       22    10  30    3.7277   509.1    4.247      40.675
2015    4       22    10  36    3.7271   509.0    4.248      40.648
2015    4       22    10  43    3.7265   508.8    4.250      40.621
2015    4       22    10  49    3.7260   508.7    4.252      40.595
2015    4       22    10  55    3.7254   508.5    4.253      40.569
2015    4       22    11   1    3.7249   508.3    4.255      40.544
2015    4       22    11   7    3.7244   508.2    4.257      40.519
2015    4       22    11  13    3.7239   508.0    4.259      40.495
2015    4       22    11  19    3.7235   507.9    4.261      40.471
2015    4       22    11  25    3.7230   507.7    4.263      40.448
2015    4       22    11  31    3.7226   507.6    4.266      40.425
2015    4       22    11  37    3.7221   507.4    4.268      40.403
2015    4       22    11  43    3.7217   507.3    4.270      40.381
2015    4       22    11  49    3.7214   507.1    4.273      40.360
2015    4       22    11  55    3.7210   506.9    4.275      40.338
2015    4       22    12   1    3.7206   506.8    4.278      40.317
2015    4       22    12   7    3.7203   506.6    4.280      40.297
2015    4       22    12  13    3.7200   506.5    4.283      40.276
2015    4       22    12  19    3.7197   506.3    4.285      40.255
2015    4       22    12  25    3.7194   506.2    4.288      40.235
2015    4       22    12  31    3.7191   506.0    4.290      40.215
2015    4       22    12  37    3.7189   505.8    4.293      40.195
2015    4       22    12  43    3.7186   505.7    4.295      40.175
2015    4       22    12  49    3.7184   505.5    4.298      40.155
2015    4       22    12  55    3.7182   505.4    4.300      40.135
2015    4       22    13   1    3.7180   505.2    4.302      40.115
2015    4       22    13   7    3.7178   505.0    4.305      40.095
2015    4       22    13  13    3.7176   504.9    4.307      40.075
2015    4       22    13  19    3.7174   504.7    4.309      40.055
2015    4       22    13  25    3.7172   504.6    4.312      40.035
2015    4       22    13  31    3.7171   504.4    4.314      40.015
2015    4       22    13  37    3.7169   504.2    4.316      39.995
2015    4       22    13  43    3.7167   504.1    4.318      39.975
2015    4       22    13  49    3.7166   503.9    4.320      39.955
2015    4       22    13  55    3.7164   503.7    4.322      39.935
2015    4       22    14   1    3.7163   503.6    4.324      39.915
2015    4       22    14   7    3.7161   503.4    4.326      39.895
2015    4       22    14  13    3.7160   503.3    4.328      39.875
2015    4       22    14  19    3.7159   503.1    4.330      39.855
2015    4       22    14  25    3.7158   502.9    4.332      39.835
2015    4       22    14  31    3.7156   502.8    4.334      39.815
2015    4       22    14  37    3.7155   502.6    4.336      39.795
2015    4       22    14  43    3.7154   502.4    4.338      39.774
2015    4       22    14  49    3.7153   502.3    4.339      39.754
2015    4       22    14  55    3.7152   502.1    4.341      39.734
2015    4       22    15   1    3.7152   501.9    4.343      39.713
2015    4       22    15   7    3.7151   501.8    4.345      39.693
2015    4       22    15  13    3.7151   501.6    4.347      39.672
2015    4       22    15  19    3.7150   501.5    4.349      39.652
2015    4       22    15  25    3.7150   501.3    4.351      39.632
2015    4       22    15  31    3.7150   501.1    4.353      39.611
2015    4       22    15  37    3.7150   501.0    4.355      39.591
2015    4       22    15  43    3.7151   500.8    4.357      39.571
2015    4       22    15  49    3.7151   500.6    4.360      39.551
2015    4       22    15  55    3.7151   500.5    4.362      39.531
2015    4       22    16   1    3.7152   500.3    4.364      39.511
2015    4       22    16   7    3.7153   500.2    4.366      39.492
2015    4       22    16  13    3.7154   500.0    4.369      39.472
2015    4       22    16  19    3.7154   499.8    4.371      39.454
2015    4       22    16  25    3.7155   499.7    4.373      39.435
2015    4       22    16  31    3.7156   499.5    4.376      39.417
2015    4       22    16  37    3.7157   499.4    4.378      39.399
2015    4       22    16  43    3.7158   499.2    4.380      39.381
2015    4       22    16  49    3.7159   499.1    4.383      39.363
2015    4       22    16  55    3.7159   498.9    4.385      39.344
2015    4       22    17   1    3.7161   498.8    4.387      39.325
2015    4       22    17   7    3.7162   498.6    4.389      39.306
2015    4       22    17  13    3.7163   498.5    4.391      39.287
2015    4       22    17  19    3.7164   498.3    4.394      39.268
2015    4       22    17  25    3.7165   498.2    4.396      39.249
2015    4       22    17  31    3.7167   498.0    4.398      39.229
2015    4       22    17  37    3.7169   497.9    4.401      39.210
2015    4       22    17  43    3.7171   497.7    4.403      39.191
2015    4       22    17  49    3.7173   497.6    4.405      39.171
2015    4       22    17  55    3.7175   497.4    4.408      39.152
2015    4       22    18   1    3.7178   497.3    4.410      39.133
2015    4       22    18   7    3.7180   497.1    4.413      39.115
2015    4       22    18  13    3.7183   497.0    4.416      39.096
2015    4       22    18  19    3.7187   496.8    4.419      39.078
2015    4       22    18  25    3.7190   496.7    4.421      39.061
2015    4       22    18  31    3.7194   496.5    4.424      39.043
2015    4       22    18  37    3.7198   496.4    4.427      39.026
2015    4       22    18  43    3.7202   496.2    4.430      39.009
2015    4       22    18  49    3.7206   496.1    4.434      38.993
2015    4       22    18  55    3.7211   495.9    4.437      38.977
2015    4       22    19   1    3.7216   495.8    4.440      38.961
2015    4       22    19   7    3.7221   495.6    4.443      38.945
2015    4       22    19  13    3.7226   495.5    4.447      38.930
2015    4       22    19  19    3.7232   495.3    4.450      38.914
2015    4       22    19  25    3.7237   495.2    4.454      38.899
2015    4       22    19  31    3.7243   495.1    4.457      38.884
2015    4       22    19  37    3.7249   494.9    4.460      38.869
2015    4       22    19  43    3.7255   494.8    4.464      38.855
2015    4       22    19  49    3.7262   494.6    4.467      38.840
2015    4       22    19  55    3.7268   494.5    4.471      38.825
2015    4       22    20   1    3.7275   494.3    4.474      38.811
2015    4       22    20   7    3.7282   494.2    4.478      38.797
2015    4       22    20  13    3.7289   494.1    4.481      38.782
2015    4       22    20  19    3.7296   493.9    4.484      38.768
2015    4       22    20  25    3.7304   493.8    4.488      38.754
2015    4       22    20  31    3.7312   493.6    4.491      38.740
2015    4       22    20  37    3.7320   493.5    4.495      38.727
2015    4       22    20  43    3.7328   493.3    4.498      38.713
2015    4       22    20  50    3.7336   493.2    4.502      38.700
2015    4       22    20  56    3.7345   493.1    4.505      38.687
2015    4       22    21   2    3.7354   492.9    4.509      38.673
2015    4       22    21   8    3.7363   492.8    4.512      38.661
2015    4       22    21  14    3.7373   492.6    4.516      38.648
2015    4       22    21  20    3.7383   492.5    4.519      38.636
2015    4       22    21  26    3.7393   492.4    4.523      38.623
2015    4       22    21  32    3.7402   492.2    4.526      38.611
2015    4       22    21  38    3.7413   492.1    4.530      38.599
2015    4       22    21  44    3.7423   492.0    4.533      38.588
2015    4       22    21  50    3.7434   491.8    4.537      38.576
2015    4       22    21  56    3.7444   491.7    4.540      38.565
2015    4       22    22   2    3.7455   491.6    4.544      38.554
2015    4       22    22   8    3.7466   491.4    4.548      38.543
2015    4       22    22  14    3.7478   491.3    4.551      38.533
2015    4       22    22  20    3.7489   491.2    4.555      38.523
2015    4       22    22  26    3.7501   491.1    4.559      38.513
2015    4       22    22  32    3.7513   490.9    4.563      38.504
2015    4       22    22  38    3.7525   490.8    4.567      38.495
2015    4       22    22  44    3.7537   490.7    4.571      38.486
2015    4       22    22  50    3.7549   490.6    4.575      38.478
2015    4       22    22  56    3.7562   490.4    4.579      38.470
2015    4       22    23   2    3.7575   490.3    4.583      38.463
2015    4       22    23   8    3.7588   490.2    4.587      38.457
2015    4       22    23  14    3.7601   490.1    4.591      38.450
2015    4       22    23  20    3.7614   490.0    4.596      38.444
2015    4       22    23  26    3.7627   489.9    4.600      38.439
2015    4       22    23  32    3.7640   489.7    4.605      38.435
2015    4       22    23  38    3.7652   489.6    4.609      38.432
2015    4       22    23  44    3.7665   489.5    4.614      38.429
2015    4       22    23  50    3.7678   489.4    4.618      38.428
2015    4       22    23  56    3.7691   489.3    4.622      38.427
2015    4       23     0   2    3.7703   489.2    4.627      38.427
2015    4       23     0   8    3.7715   489.1    4.631      38.427
2015    4       23     0  14    3.7728   489.0    4.635      38.426
2015    4       23     0  20    3.7740   488.9    4.639      38.426
2015    4       23     0  26    3.7753   488.9    4.642      38.425
2015    4       23     0  32    3.7765   488.8    4.646      38.424
2015    4       23     0  38    3.7777   488.7    4.650      38.422
2015    4       23     0  44    3.7790   488.6    4.653      38.420
2015    4       23     0  50    3.7802   488.5    4.657      38.418
2015    4       23     0  56    3.7814   488.4    4.660      38.416
2015    4       23     1   2    3.7827   488.3    4.664      38.413
2015    4       23     1   8    3.7839   488.2    4.667      38.409
2015    4       23     1  14    3.7852   488.1    4.671      38.406
2015    4       23     1  20    3.7864   488.0    4.674      38.401
2015    4       23     1  26    3.7877   487.9    4.677      38.397
2015    4       23     1  32    3.7890   487.8    4.680      38.393
2015    4       23     1  38    3.7903   487.7    4.684      38.388
2015    4       23     1  44    3.7916   487.6    4.687      38.383
2015    4       23     1  50    3.7929   487.6    4.690      38.378
2015    4       23     1  56    3.7942   487.5    4.693      38.373
2015    4       23     2   2    3.7955   487.4    4.696      38.368
2015    4       23     2   8    3.7968   487.3    4.699      38.362
2015    4       23     2  14    3.7981   487.2    4.702      38.357
2015    4       23     2  20    3.7995   487.1    4.705      38.351
2015    4       23     2  26    3.8009   487.0    4.708      38.345
2015    4       23     2  32    3.8022   486.9    4.711      38.339
2015    4       23     2  38    3.8036   486.8    4.714      38.332
2015    4       23     2  44    3.8050   486.8    4.717      38.326
2015    4       23     2  50    3.8065   486.7    4.720      38.319
2015    4       23     2  56    3.8079   486.6    4.722      38.313
2015    4       23     3   2    3.8094   486.5    4.725      38.306
2015    4       23     3   8    3.8109   486.4    4.728      38.300
2015    4       23     3  14    3.8124   486.3    4.731      38.294
2015    4       23     3  20    3.8140   486.3    4.734      38.287
2015    4       23     3  26    3.8155   486.2    4.737      38.281
2015    4       23     3  32    3.8171   486.1    4.740      38.275
2015    4       23     3  38    3.8188   486.0    4.743      38.269
2015    4       23     3  44    3.8204   485.9    4.746      38.263
2015    4       23     3  50    3.8221   485.9    4.749      38.258
2015    4       23     3  56    3.8238   485.8    4.752      38.253
2015    4       23     4   2    3.8255   485.7    4.755      38.248
2015    4       23     4   8    3.8273   485.6    4.758      38.243
2015    4       23     4  14    3.8291   485.6    4.761      38.238
2015    4       23     4  20    3.8309   485.5    4.764      38.234
2015    4       23     4  26    3.8327   485.4    4.767      38.230
2015    4       23     4  32    3.8346   485.4    4.771      38.226
2015    4       23     4  38    3.8365   485.3    4.774      38.223
2015    4       23     4  44    3.8384   485.3    4.777      38.220
2015    4       23     4  50    3.8403   485.2    4.780      38.217
2015    4       23     4  56    3.8422   485.1    4.783      38.214
2015    4       23     5   2    3.8441   485.1    4.787      38.212
2015    4       23     5   8    3.8461   485.0    4.790      38.210
2015    4       23     5  14    3.8480   485.0    4.793      38.208
2015    4       23     5  20    3.8499   484.9    4.797      38.206
2015    4       23     5  26    3.8519   484.9    4.800      38.205
2015    4       23     5  32    3.8538   484.8    4.804      38.204
2015    4       23     5  38    3.8557   484.8    4.807      38.204
2015    4       23     5  44    3.8576   484.8    4.810      38.204
2015    4       23     5  50    3.8595   484.7    4.814      38.205
2015    4       23     5  56    3.8614   484.7    4.817      38.205
2015    4       23     6   2    3.8633   484.6    4.820      38.206
2015    4       23     6   8    3.8652   484.6    4.823      38.207
2015    4       23     6  14    3.8671   484.5    4.827      38.209
2015    4       23     6  20    3.8689   484.5    4.830      38.210
2015    4       23     6  26    3.8708   484.5    4.833      38.212
2015    4       23     6  32    3.8726   484.4    4.836      38.214
2015    4       23     6  38    3.8744   484.4    4.840      38.216
2015    4       23     6  44    3.8762   484.3    4.843      38.218
2015    4       23     6  50    3.8779   484.3    4.846      38.221
2015    4       23     6  56    3.8797   484.3    4.849      38.224
2015    4       23     7   3    3.8815   484.2    4.853      38.228
2015    4       23     7   9    3.8832   484.2    4.856      38.232
2015    4       23     7  15    3.8849   484.1    4.859      38.237
2015    4       23     7  21    3.8866   484.1    4.862      38.243
2015    4       23     7  27    3.8883   484.1    4.865      38.249
2015    4       23     7  33    3.8900   484.0    4.868      38.255
2015    4       23     7  39    3.8917   484.0    4.871      38.261
2015    4       23     7  45    3.8934   484.0    4.874      38.268
2015    4       23     7  51    3.8950   483.9    4.877      38.275
2015    4       23     7  57    3.8967   483.9    4.880      38.281
2015    4       23     8   3    3.8983   483.9    4.883      38.288
2015    4       23     8   9    3.9000   483.8    4.885      38.295
2015    4       23     8  15    3.9016   483.8    4.888      38.303
2015    4       23     8  21    3.9033   483.8    4.891      38.310
2015    4       23     8  27    3.9049   483.7    4.893      38.317
2015    4       23     8  33    3.9066   483.7    4.896      38.324
2015    4       23     8  39    3.9082   483.7    4.899      38.331
2015    4       23     8  45    3.9098   483.6    4.901      38.338
2015    4       23     8  51    3.9115   483.6    4.904      38.345
2015    4       23     8  57    3.9131   483.6    4.906      38.352
2015    4       23     9   3    3.9148   483.5    4.909      38.359
2015    4       23     9   9    3.9164   483.5    4.911      38.366
2015    4       23     9  15    3.9181   483.5    4.914      38.373
2015    4       23     9  21    3.9197   483.5    4.916      38.379
2015    4       23     9  27    3.9214   483.4    4.918      38.386
2015    4       23     9  33    3.9230   483.4    4.921      38.393
2015    4       23     9  39    3.9247   483.4    4.923      38.399
2015    4       23     9  45    3.9264   483.4    4.925      38.406
2015    4       23     9  51    3.9280   483.4    4.927      38.412
2015    4       23     9  57    3.9297   483.3    4.929      38.418
2015    4       23    10   3    3.9314   483.3    4.932      38.424
2015    4       23    10   9    3.9331   483.3    4.934      38.430
2015    4       23    10  15    3.9348   483.3    4.936      38.435
2015    4       23    10  21    3.9365   483.3    4.938      38.441
2015    4       23    10  27    3.9382   483.3    4.940      38.446
2015    4       23    10  33    3.9399   483.2    4.942      38.451
2015    4       23    10  39    3.9417   483.2    4.944      38.456
2015    4       23    10  45    3.9434   483.2    4.946      38.461
2015    4       23    10  51    3.9451   483.2    4.947      38.466
2015    4       23    10  57    3.9468   483.2    4.949      38.471
2015    4       23    11   3    3.9486   483.2    4.951      38.477
2015    4       23    11   9    3.9503   483.2    4.953      38.482
2015    4       23    11  15    3.9521   483.1    4.955      38.487
2015    4       23    11  21    3.9539   483.1    4.957      38.493
2015    4       23    11  27    3.9556   483.1    4.959      38.499
2015    4       23    11  33    3.9574   483.1    4.961      38.505
2015    4       23    11  39    3.9592   483.1    4.963      38.511
2015    4       23    11  45    3.9611   483.1    4.965      38.518
2015    4       23    11  51    3.9629   483.1    4.968      38.525
2015    4       23    11  57    3.9647   483.1    4.970      38.533
2015    4       23    12   3    3.9666   483.1    4.972      38.541
2015    4       23    12   9    3.9685   483.1    4.975      38.550
2015    4       23    12  15    3.9704   483.1    4.978      38.559
2015    4       23    12  21    3.9723   483.1    4.980      38.569
2015    4       23    12  27    3.9743   483.1    4.983      38.581
2015    4       23    12  33    3.9762   483.1    4.986      38.593
2015    4       23    12  39    3.9781   483.1    4.989      38.607
2015    4       23    12  45    3.9800   483.1    4.992      38.623
2015    4       23    12  51    3.9818   483.1    4.995      38.639
2015    4       23    12  57    3.9837   483.2    4.998      38.656
2015    4       23    13   3    3.9854   483.2    5.001      38.674
2015    4       23    13   9    3.9872   483.2    5.003      38.691
2015    4       23    13  15    3.9889   483.3    5.006      38.708
2015    4       23    13  21    3.9905   483.3    5.008      38.724
2015    4       23    13  27    3.9921   483.3    5.010      38.739
2015    4       23    13  33    3.9937   483.3    5.012      38.755
2015    4       23    13  39    3.9952   483.4    5.014      38.769
2015    4       23    13  45    3.9967   483.4    5.016      38.784
2015    4       23    13  51    3.9981   483.4    5.017      38.797
2015    4       23    13  57    3.9995   483.5    5.019      38.810
2015    4       23    14   3    4.0009   483.5    5.020      38.823
2015    4       23    14   9    4.0023   483.5    5.021      38.835
2015    4       23    14  15    4.0036   483.6    5.022      38.847
2015    4       23    14  21    4.0049   483.6    5.023      38.859
2015    4       23    14  27    4.0062   483.6    5.025      38.871
2015    4       23    14  33    4.0075   483.6    5.025      38.883
2015    4       23    14  39    4.0088   483.7    5.026      38.895
2015    4       23    14  45    4.0100   483.7    5.027      38.907
2015    4       23    14  51    4.0113   483.7    5.028      38.918
2015    4       23    14  57    4.0125   483.7    5.029      38.930
2015    4       23    15   3    4.0138   483.8    5.030      38.942
2015    4       23    15   9    4.0150   483.8    5.030      38.954
2015    4       23    15  15    4.0163   483.8    5.031      38.967
2015    4       23    15  21    4.0175   483.9    5.032      38.979
2015    4       23    15  27    4.0188   483.9    5.032      38.992
2015    4       23    15  33    4.0200   483.9    5.033      39.005
2015    4       23    15  39    4.0213   483.9    5.034      39.017
2015    4       23    15  45    4.0225   484.0    5.034      39.030
2015    4       23    15  51    4.0238   484.0    5.035      39.043
2015    4       23    15  57    4.0250   484.0    5.035      39.056
2015    4       23    16   3    4.0263   484.1    5.036      39.069
2015    4       23    16   9    4.0275   484.1    5.036      39.083
2015    4       23    16  15    4.0288   484.1    5.037      39.096
2015    4       23    16  21    4.0301   484.2    5.037      39.109
2015    4       23    16  27    4.0314   484.2    5.038      39.123
2015    4       23    16  33    4.0327   484.3    5.038      39.136
2015    4       23    16  39    4.0339   484.3    5.039      39.150
2015    4       23    16  45    4.0352   484.3    5.039      39.164
2015    4       23    16  51    4.0365   484.4    5.040      39.178
2015    4       23    16  57    4.0378   484.4    5.040      39.192
2015    4       23    17   3    4.0391   484.4    5.041      39.207
2015    4       23    17  10    4.0403   484.5    5.041      39.221
2015    4       23    17  16    4.0416   484.5    5.042      39.236
2015    4       23    17  22    4.0428   484.6    5.042      39.251
2015    4       23    17  28    4.0440   484.6    5.043      39.266
2015    4       23    17  34    4.0452   484.7    5.043      39.282
2015    4       23    17  40    4.0464   484.7    5.044      39.297
2015    4       23    17  46    4.0476   484.7    5.045      39.312
2015    4       23    17  52    4.0487   484.8    5.045      39.328
2015    4       23    17  58    4.0498   484.8    5.046      39.343
2015    4       23    18   4    4.0509   484.9    5.046      39.359
2015    4       23    18  10    4.0520   484.9    5.047      39.374
2015    4       23    18  16    4.0531   484.9    5.048      39.390
2015    4       23    18  22    4.0541   485.0    5.048      39.406
2015    4       23    18  28    4.0552   485.0    5.049      39.422
2015    4       23    18  34    4.0562   485.1    5.049      39.438
2015    4       23    18  40    4.0572   485.1    5.050      39.455
2015    4       23    18  46    4.0582   485.1    5.051      39.472
2015    4       23    18  52    4.0592   485.2    5.051      39.489
2015    4       23    18  58    4.0602   485.2    5.052      39.506
2015    4       23    19   4    4.0611   485.3    5.053      39.524
2015    4       23    19  10    4.0621   485.3    5.054      39.541
2015    4       23    19  16    4.0631   485.3    5.054      39.560
2015    4       23    19  22    4.0641   485.3    5.055      39.578
2015    4       23    19  28    4.0651   485.4    5.056      39.597
2015    4       23    19  34    4.0661   485.4    5.058      39.616
2015    4       23    19  40    4.0671   485.4    5.059      39.636
2015    4       23    19  46    4.0681   485.5    5.060      39.658
2015    4       23    19  52    4.0690   485.5    5.061      39.680
2015    4       23    19  58    4.0700   485.5    5.062      39.703
2015    4       23    20   4    4.0710   485.6    5.064      39.727
2015    4       23    20  10    4.0719   485.6    5.065      39.751
2015    4       23    20  16    4.0728   485.7    5.066      39.775
2015    4       23    20  22    4.0737   485.7    5.066      39.798
2015    4       23    20  28    4.0745   485.8    5.067      39.820
2015    4       23    20  34    4.0754   485.8    5.068      39.842
2015    4       23    20  40    4.0761   485.9    5.068      39.863
2015    4       23    20  46    4.0769   485.9    5.068      39.883
2015    4       23    20  52    4.0776   486.0    5.068      39.902
2015    4       23    20  58    4.0783   486.0    5.068      39.921
2015    4       23    21   4    4.0790   486.1    5.068      39.939
2015    4       23    21  10    4.0797   486.1    5.068      39.957
2015    4       23    21  16    4.0803   486.2    5.068      39.974
2015    4       23    21  22    4.0810   486.2    5.067      39.990
2015    4       23    21  28    4.0816   486.3    5.067      40.006
2015    4       23    21  34    4.0822   486.3    5.066      40.022
2015    4       23    21  40    4.0828   486.4    5.065      40.037
2015    4       23    21  46    4.0835   486.4    5.065      40.053
2015    4       23    21  52    4.0841   486.5    5.064      40.067
2015    4       23    21  58    4.0847   486.5    5.063      40.082
2015    4       23    22   4    4.0853   486.6    5.062      40.097
2015    4       23    22  10    4.0859   486.6    5.061      40.111
2015    4       23    22  16    4.0865   486.7    5.061      40.126
2015    4       23    22  22    4.0871   486.7    5.060      40.141
2015    4       23    22  28    4.0877   486.8    5.059      40.156
2015    4       23    22  34    4.0884   486.9    5.058      40.171
2015    4       23    22  40    4.0890   486.9    5.058      40.187
2015    4       23    22  46    4.0896   487.0    5.057      40.203
2015    4       23    22  52    4.0903   487.0    5.057      40.220
2015    4       23    22  58    4.0911   487.1    5.057      40.237
2015    4       23    23   4    4.0918   487.1    5.057      40.255
2015    4       23    23  10    4.0926   487.2    5.057      40.275
2015    4       23    23  16    4.0934   487.2    5.057      40.295
2015    4       23    23  22    4.0941   487.3    5.057      40.317
2015    4       23    23  28    4.0949   487.4    5.057      40.339
2015    4       23    23  34    4.0957   487.5    5.057      40.362
2015    4       23    23  40    4.0964   487.6    5.058      40.386
2015    4       23    23  46    4.0971   487.6    5.058      40.409
2015    4       23    23  52    4.0977   487.7    5.058      40.431
2015    4       23    23  58    4.0983   487.8    5.058      40.453
2015    4       24     0   4    4.0989   487.9    5.057      40.474
