year    month   day   hour  minute  B_enl V_enl   n_enl       T_enl
[year] [month] [day] [hour][minute] [nT]  [km/s]  [cm-3]      [kK]
2015    4        5     0   2    3.7475   666.9    2.594      64.219
2015    4        5     0   8    3.7458   666.7    2.594      64.186
2015    4        5     0  14    3.7441   666.6    2.594      64.155
2015    4        5     0  20    3.7425   666.5    2.594      64.124
2015    4        5     0  26    3.7408   666.4    2.594      64.093
2015    4        5     0  32    3.7392   666.2    2.594      64.064
2015    4        5     0  38    3.7376   666.1    2.594      64.034
2015    4        5     0  44    3.7360   666.0    2.595      64.005
2015    4        5     0  50    3.7344   665.8    2.595      63.976
2015    4        5     0  56    3.7328   665.7    2.595      63.948
2015    4        5     1   2    3.7312   665.6    2.595      63.919
2015    4        5     1   8    3.7296   665.4    2.595      63.891
2015    4        5     1  14    3.7281   665.3    2.595      63.862
2015    4        5     1  20    3.7265   665.2    2.595      63.832
2015    4        5     1  26    3.7249   665.1    2.595      63.802
2015    4        5     1  32    3.7234   664.9    2.596      63.771
2015    4        5     1  38    3.7218   664.8    2.596      63.740
2015    4        5     1  44    3.7202   664.7    2.595      63.708
2015    4        5     1  50    3.7187   664.5    2.595      63.675
2015    4        5     1  56    3.7171   664.4    2.595      63.643
2015    4        5     2   2    3.7156   664.3    2.595      63.609
2015    4        5     2   9    3.7140   664.1    2.595      63.575
2015    4        5     2  15    3.7125   664.0    2.595      63.541
2015    4        5     2  21    3.7109   663.9    2.595      63.506
2015    4        5     2  27    3.7094   663.7    2.595      63.471
2015    4        5     2  33    3.7079   663.6    2.594      63.435
2015    4        5     2  39    3.7063   663.5    2.594      63.399
2015    4        5     2  45    3.7047   663.4    2.594      63.362
2015    4        5     2  51    3.7032   663.2    2.594      63.325
2015    4        5     2  57    3.7016   663.1    2.593      63.288
2015    4        5     3   3    3.7000   663.0    2.593      63.250
2015    4        5     3   9    3.6985   662.8    2.593      63.212
2015    4        5     3  15    3.6969   662.7    2.592      63.174
2015    4        5     3  21    3.6953   662.6    2.592      63.136
2015    4        5     3  27    3.6937   662.4    2.592      63.097
2015    4        5     3  33    3.6921   662.3    2.591      63.058
2015    4        5     3  39    3.6905   662.2    2.591      63.018
2015    4        5     3  45    3.6890   662.0    2.591      62.979
2015    4        5     3  51    3.6873   661.9    2.590      62.939
2015    4        5     3  57    3.6857   661.8    2.590      62.899
2015    4        5     4   3    3.6841   661.6    2.589      62.859
2015    4        5     4   9    3.6825   661.5    2.589      62.819
2015    4        5     4  15    3.6809   661.4    2.588      62.778
2015    4        5     4  21    3.6793   661.2    2.588      62.737
2015    4        5     4  27    3.6776   661.1    2.587      62.697
2015    4        5     4  33    3.6760   660.9    2.587      62.656
2015    4        5     4  39    3.6744   660.8    2.587      62.615
2015    4        5     4  45    3.6727   660.6    2.586      62.575
2015    4        5     4  51    3.6711   660.5    2.586      62.534
2015    4        5     4  57    3.6695   660.3    2.585      62.493
2015    4        5     5   3    3.6679   660.2    2.585      62.453
2015    4        5     5  10    3.6662   660.0    2.585      62.413
2015    4        5     5  16    3.6646   659.9    2.585      62.373
2015    4        5     5  22    3.6630   659.7    2.584      62.334
2015    4        5     5  28    3.6614   659.6    2.584      62.294
2015    4        5     5  34    3.6598   659.4    2.584      62.256
2015    4        5     5  40    3.6582   659.3    2.584      62.217
2015    4        5     5  46    3.6566   659.1    2.584      62.178
2015    4        5     5  52    3.6550   659.0    2.584      62.140
2015    4        5     5  58    3.6534   658.8    2.584      62.102
2015    4        5     6   4    3.6518   658.7    2.583      62.064
2015    4        5     6  10    3.6502   658.5    2.583      62.026
2015    4        5     6  16    3.6486   658.3    2.583      61.987
2015    4        5     6  22    3.6469   658.2    2.583      61.948
2015    4        5     6  28    3.6453   658.0    2.583      61.908
2015    4        5     6  34    3.6437   657.9    2.583      61.867
2015    4        5     6  40    3.6420   657.7    2.583      61.826
2015    4        5     6  46    3.6403   657.6    2.582      61.785
2015    4        5     6  52    3.6387   657.4    2.582      61.744
2015    4        5     6  58    3.6370   657.2    2.582      61.703
2015    4        5     7   4    3.6354   657.1    2.582      61.662
2015    4        5     7  10    3.6337   656.9    2.582      61.621
2015    4        5     7  16    3.6321   656.8    2.582      61.581
2015    4        5     7  22    3.6304   656.6    2.582      61.541
2015    4        5     7  28    3.6288   656.4    2.582      61.502
2015    4        5     7  34    3.6272   656.3    2.582      61.463
2015    4        5     7  40    3.6255   656.1    2.582      61.424
2015    4        5     7  46    3.6239   656.0    2.582      61.386
2015    4        5     7  52    3.6223   655.8    2.582      61.349
2015    4        5     7  58    3.6207   655.6    2.582      61.312
2015    4        5     8   4    3.6191   655.5    2.582      61.275
2015    4        5     8  10    3.6175   655.3    2.582      61.238
2015    4        5     8  16    3.6159   655.2    2.583      61.202
2015    4        5     8  23    3.6143   655.0    2.583      61.166
2015    4        5     8  29    3.6128   654.8    2.583      61.130
2015    4        5     8  35    3.6112   654.7    2.583      61.093
2015    4        5     8  41    3.6096   654.5    2.583      61.057
2015    4        5     8  47    3.6080   654.3    2.584      61.021
2015    4        5     8  53    3.6064   654.2    2.584      60.984
2015    4        5     8  59    3.6049   654.0    2.584      60.947
2015    4        5     9   5    3.6033   653.8    2.584      60.909
2015    4        5     9  11    3.6017   653.7    2.584      60.872
2015    4        5     9  17    3.6002   653.5    2.585      60.834
2015    4        5     9  23    3.5986   653.3    2.585      60.797
2015    4        5     9  29    3.5971   653.1    2.585      60.759
2015    4        5     9  35    3.5956   653.0    2.585      60.721
2015    4        5     9  41    3.5940   652.8    2.585      60.683
2015    4        5     9  47    3.5925   652.6    2.586      60.644
2015    4        5     9  53    3.5910   652.5    2.586      60.606
2015    4        5     9  59    3.5894   652.3    2.586      60.566
2015    4        5    10   5    3.5879   652.1    2.586      60.527
2015    4        5    10  11    3.5863   652.0    2.586      60.486
2015    4        5    10  17    3.5847   651.8    2.586      60.444
2015    4        5    10  23    3.5831   651.6    2.586      60.401
2015    4        5    10  29    3.5816   651.4    2.585      60.357
2015    4        5    10  35    3.5799   651.3    2.585      60.312
2015    4        5    10  41    3.5783   651.1    2.585      60.266
2015    4        5    10  47    3.5767   650.9    2.585      60.219
2015    4        5    10  53    3.5750   650.8    2.584      60.172
2015    4        5    10  59    3.5734   650.6    2.584      60.124
2015    4        5    11   5    3.5717   650.4    2.583      60.075
2015    4        5    11  11    3.5701   650.2    2.583      60.025
2015    4        5    11  17    3.5684   650.0    2.582      59.975
2015    4        5    11  24    3.5667   649.9    2.582      59.924
2015    4        5    11  30    3.5650   649.7    2.581      59.873
2015    4        5    11  36    3.5633   649.5    2.581      59.822
2015    4        5    11  42    3.5617   649.3    2.581      59.771
2015    4        5    11  48    3.5600   649.1    2.580      59.719
2015    4        5    11  54    3.5583   649.0    2.580      59.668
2015    4        5    12   0    3.5566   648.8    2.579      59.616
2015    4        5    12   6    3.5549   648.6    2.579      59.566
2015    4        5    12  12    3.5533   648.4    2.578      59.515
2015    4        5    12  18    3.5516   648.2    2.578      59.465
2015    4        5    12  24    3.5500   648.0    2.578      59.416
2015    4        5    12  30    3.5484   647.8    2.578      59.367
2015    4        5    12  36    3.5468   647.6    2.578      59.319
2015    4        5    12  42    3.5452   647.4    2.577      59.273
2015    4        5    12  48    3.5436   647.2    2.578      59.227
2015    4        5    12  54    3.5420   647.0    2.578      59.183
2015    4        5    13   0    3.5404   646.8    2.578      59.139
2015    4        5    13   6    3.5389   646.6    2.578      59.097
2015    4        5    13  12    3.5374   646.4    2.578      59.056
2015    4        5    13  18    3.5358   646.3    2.579      59.017
2015    4        5    13  24    3.5343   646.1    2.579      58.978
2015    4        5    13  30    3.5328   645.9    2.580      58.940
2015    4        5    13  36    3.5312   645.7    2.580      58.903
2015    4        5    13  42    3.5297   645.5    2.581      58.865
2015    4        5    13  48    3.5282   645.3    2.581      58.828
2015    4        5    13  54    3.5267   645.1    2.582      58.791
2015    4        5    14   0    3.5252   644.9    2.582      58.755
2015    4        5    14   6    3.5236   644.7    2.583      58.718
2015    4        5    14  12    3.5221   644.5    2.584      58.682
2015    4        5    14  18    3.5206   644.3    2.584      58.646
2015    4        5    14  24    3.5191   644.1    2.585      58.610
2015    4        5    14  31    3.5176   643.9    2.586      58.573
2015    4        5    14  37    3.5161   643.7    2.586      58.537
2015    4        5    14  43    3.5146   643.5    2.587      58.501
2015    4        5    14  49    3.5130   643.3    2.587      58.464
2015    4        5    14  55    3.5115   643.1    2.588      58.428
2015    4        5    15   1    3.5100   642.9    2.588      58.390
2015    4        5    15   7    3.5084   642.7    2.589      58.352
2015    4        5    15  13    3.5069   642.5    2.589      58.313
2015    4        5    15  19    3.5053   642.3    2.589      58.273
2015    4        5    15  25    3.5037   642.1    2.590      58.232
2015    4        5    15  31    3.5022   641.9    2.590      58.191
2015    4        5    15  37    3.5006   641.7    2.590      58.149
2015    4        5    15  43    3.4990   641.5    2.590      58.106
2015    4        5    15  49    3.4975   641.4    2.591      58.063
2015    4        5    15  55    3.4959   641.2    2.591      58.020
2015    4        5    16   1    3.4943   641.0    2.591      57.976
2015    4        5    16   7    3.4927   640.8    2.591      57.932
2015    4        5    16  13    3.4912   640.6    2.591      57.888
2015    4        5    16  19    3.4896   640.4    2.592      57.844
2015    4        5    16  25    3.4881   640.1    2.592      57.800
2015    4        5    16  31    3.4865   639.9    2.592      57.757
2015    4        5    16  37    3.4850   639.7    2.592      57.713
2015    4        5    16  43    3.4834   639.5    2.593      57.670
2015    4        5    16  49    3.4819   639.3    2.593      57.627
2015    4        5    16  55    3.4804   639.1    2.593      57.585
2015    4        5    17   1    3.4789   638.9    2.594      57.543
2015    4        5    17   7    3.4774   638.7    2.594      57.500
2015    4        5    17  13    3.4759   638.5    2.595      57.458
2015    4        5    17  19    3.4745   638.3    2.595      57.416
2015    4        5    17  25    3.4730   638.1    2.595      57.374
2015    4        5    17  31    3.4715   637.9    2.596      57.332
2015    4        5    17  38    3.4700   637.7    2.596      57.290
2015    4        5    17  44    3.4685   637.5    2.597      57.247
2015    4        5    17  50    3.4670   637.3    2.597      57.203
2015    4        5    17  56    3.4654   637.1    2.597      57.159
2015    4        5    18   2    3.4639   636.9    2.598      57.115
2015    4        5    18   8    3.4624   636.6    2.598      57.070
2015    4        5    18  14    3.4609   636.4    2.598      57.025
2015    4        5    18  20    3.4593   636.2    2.599      56.980
2015    4        5    18  26    3.4578   636.0    2.599      56.936
2015    4        5    18  32    3.4563   635.8    2.599      56.891
2015    4        5    18  38    3.4548   635.6    2.600      56.847
2015    4        5    18  44    3.4533   635.4    2.600      56.802
2015    4        5    18  50    3.4518   635.2    2.600      56.757
2015    4        5    18  56    3.4503   634.9    2.601      56.713
2015    4        5    19   2    3.4487   634.7    2.601      56.668
2015    4        5    19   8    3.4472   634.5    2.601      56.623
2015    4        5    19  14    3.4457   634.3    2.601      56.578
2015    4        5    19  20    3.4441   634.1    2.601      56.532
2015    4        5    19  26    3.4426   633.9    2.601      56.485
2015    4        5    19  32    3.4410   633.6    2.601      56.438
2015    4        5    19  38    3.4394   633.4    2.601      56.389
2015    4        5    19  44    3.4379   633.2    2.601      56.340
2015    4        5    19  50    3.4363   633.0    2.601      56.290
2015    4        5    19  56    3.4347   632.8    2.601      56.240
2015    4        5    20   2    3.4332   632.5    2.601      56.189
2015    4        5    20   8    3.4316   632.3    2.601      56.138
2015    4        5    20  14    3.4300   632.1    2.601      56.087
2015    4        5    20  20    3.4285   631.9    2.601      56.036
2015    4        5    20  26    3.4269   631.6    2.601      55.984
2015    4        5    20  32    3.4253   631.4    2.601      55.933
2015    4        5    20  38    3.4238   631.2    2.601      55.883
2015    4        5    20  45    3.4223   630.9    2.601      55.832
2015    4        5    20  51    3.4207   630.7    2.601      55.782
2015    4        5    20  57    3.4192   630.5    2.601      55.733
2015    4        5    21   3    3.4177   630.2    2.601      55.684
2015    4        5    21   9    3.4162   630.0    2.601      55.637
2015    4        5    21  15    3.4147   629.8    2.601      55.589
2015    4        5    21  21    3.4133   629.5    2.602      55.543
2015    4        5    21  27    3.4118   629.3    2.602      55.497
2015    4        5    21  33    3.4104   629.1    2.603      55.452
2015    4        5    21  39    3.4090   628.9    2.603      55.407
2015    4        5    21  45    3.4076   628.6    2.604      55.363
2015    4        5    21  51    3.4062   628.4    2.604      55.320
2015    4        5    21  57    3.4048   628.1    2.605      55.277
2015    4        5    22   3    3.4034   627.9    2.606      55.235
2015    4        5    22   9    3.4020   627.7    2.607      55.193
2015    4        5    22  15    3.4006   627.4    2.607      55.152
2015    4        5    22  21    3.3993   627.2    2.608      55.112
2015    4        5    22  27    3.3979   626.9    2.609      55.072
2015    4        5    22  33    3.3966   626.7    2.610      55.033
2015    4        5    22  39    3.3952   626.5    2.611      54.993
2015    4        5    22  45    3.3939   626.2    2.612      54.954
2015    4        5    22  51    3.3926   626.0    2.614      54.916
2015    4        5    22  57    3.3913   625.7    2.615      54.878
2015    4        5    23   3    3.3900   625.5    2.616      54.841
2015    4        5    23   9    3.3888   625.2    2.617      54.804
2015    4        5    23  15    3.3875   625.0    2.619      54.768
2015    4        5    23  21    3.3862   624.8    2.620      54.732
2015    4        5    23  27    3.3850   624.5    2.621      54.697
2015    4        5    23  33    3.3837   624.3    2.623      54.662
2015    4        5    23  39    3.3825   624.1    2.624      54.628
2015    4        5    23  45    3.3812   623.8    2.625      54.593
2015    4        5    23  51    3.3799   623.6    2.627      54.559
2015    4        5    23  58    3.3786   623.4    2.628      54.523
2015    4        6     0   4    3.3773   623.1    2.629      54.487
2015    4        6     0  10    3.3759   622.9    2.630      54.449
2015    4        6     0  16    3.3746   622.6    2.631      54.410
2015    4        6     0  22    3.3732   622.4    2.631      54.371
2015    4        6     0  28    3.3718   622.2    2.632      54.330
2015    4        6     0  34    3.3704   621.9    2.633      54.289
2015    4        6     0  40    3.3691   621.7    2.634      54.247
2015    4        6     0  46    3.3677   621.5    2.634      54.204
2015    4        6     0  52    3.3663   621.2    2.635      54.160
2015    4        6     0  58    3.3649   621.0    2.635      54.116
2015    4        6     1   4    3.3635   620.7    2.636      54.072
2015    4        6     1  10    3.3621   620.5    2.637      54.027
2015    4        6     1  16    3.3607   620.2    2.637      53.982
2015    4        6     1  22    3.3593   620.0    2.638      53.936
2015    4        6     1  28    3.3579   619.8    2.638      53.891
2015    4        6     1  34    3.3565   619.5    2.639      53.845
2015    4        6     1  40    3.3551   619.3    2.639      53.800
2015    4        6     1  46    3.3537   619.0    2.640      53.754
2015    4        6     1  52    3.3523   618.8    2.641      53.709
2015    4        6     1  58    3.3510   618.5    2.641      53.664
2015    4        6     2   4    3.3496   618.3    2.642      53.620
2015    4        6     2  10    3.3483   618.0    2.642      53.575
2015    4        6     2  16    3.3469   617.8    2.643      53.530
2015    4        6     2  22    3.3456   617.5    2.644      53.486
2015    4        6     2  28    3.3442   617.3    2.645      53.441
2015    4        6     2  34    3.3429   617.0    2.645      53.397
2015    4        6     2  40    3.3415   616.8    2.646      53.353
2015    4        6     2  46    3.3402   616.5    2.647      53.308
2015    4        6     2  53    3.3388   616.3    2.647      53.264
2015    4        6     2  59    3.3375   616.0    2.648      53.220
2015    4        6     3   5    3.3362   615.7    2.649      53.176
2015    4        6     3  11    3.3348   615.5    2.649      53.131
2015    4        6     3  17    3.3335   615.2    2.650      53.086
2015    4        6     3  23    3.3322   615.0    2.651      53.042
2015    4        6     3  29    3.3309   614.7    2.652      52.998
2015    4        6     3  35    3.3296   614.5    2.653      52.954
2015    4        6     3  41    3.3283   614.2    2.654      52.911
2015    4        6     3  47    3.3271   613.9    2.654      52.868
2015    4        6     3  53    3.3258   613.7    2.656      52.826
2015    4        6     3  59    3.3246   613.4    2.657      52.785
2015    4        6     4   5    3.3234   613.2    2.658      52.744
2015    4        6     4  11    3.3222   612.9    2.659      52.703
2015    4        6     4  17    3.3209   612.7    2.660      52.661
2015    4        6     4  23    3.3197   612.4    2.661      52.621
2015    4        6     4  29    3.3184   612.2    2.662      52.580
2015    4        6     4  35    3.3171   611.9    2.663      52.539
2015    4        6     4  41    3.3159   611.7    2.664      52.498
2015    4        6     4  47    3.3146   611.4    2.664      52.457
2015    4        6     4  53    3.3133   611.2    2.665      52.415
2015    4        6     4  59    3.3120   610.9    2.666      52.371
2015    4        6     5   5    3.3108   610.6    2.667      52.327
2015    4        6     5  11    3.3095   610.4    2.667      52.282
2015    4        6     5  17    3.3082   610.1    2.668      52.237
2015    4        6     5  23    3.3069   609.9    2.669      52.191
2015    4        6     5  29    3.3057   609.6    2.670      52.145
2015    4        6     5  35    3.3044   609.3    2.670      52.099
2015    4        6     5  41    3.3032   609.1    2.671      52.053
2015    4        6     5  47    3.3020   608.8    2.672      52.007
2015    4        6     5  53    3.3007   608.5    2.673      51.961
2015    4        6     5  59    3.2995   608.3    2.674      51.916
2015    4        6     6   5    3.2984   608.0    2.675      51.871
2015    4        6     6  12    3.2972   607.7    2.676      51.827
2015    4        6     6  18    3.2961   607.5    2.677      51.783
2015    4        6     6  24    3.2950   607.2    2.678      51.741
2015    4        6     6  30    3.2938   607.0    2.680      51.699
2015    4        6     6  36    3.2927   606.7    2.681      51.658
2015    4        6     6  42    3.2917   606.4    2.682      51.618
2015    4        6     6  48    3.2906   606.2    2.684      51.578
2015    4        6     6  54    3.2895   605.9    2.685      51.538
2015    4        6     7   0    3.2884   605.6    2.687      51.499
2015    4        6     7   6    3.2873   605.4    2.688      51.460
2015    4        6     7  12    3.2862   605.1    2.689      51.421
2015    4        6     7  18    3.2850   604.9    2.691      51.382
2015    4        6     7  24    3.2839   604.6    2.692      51.343
2015    4        6     7  30    3.2827   604.3    2.693      51.302
2015    4        6     7  36    3.2815   604.0    2.694      51.261
2015    4        6     7  42    3.2803   603.8    2.695      51.219
2015    4        6     7  48    3.2792   603.5    2.697      51.177
2015    4        6     7  54    3.2780   603.2    2.698      51.134
2015    4        6     8   0    3.2768   602.9    2.699      51.092
2015    4        6     8   6    3.2757   602.7    2.700      51.049
2015    4        6     8  12    3.2745   602.4    2.701      51.007
2015    4        6     8  18    3.2734   602.1    2.702      50.964
2015    4        6     8  24    3.2723   601.8    2.704      50.923
2015    4        6     8  30    3.2712   601.6    2.705      50.881
2015    4        6     8  36    3.2701   601.3    2.706      50.840
2015    4        6     8  42    3.2690   601.0    2.708      50.800
2015    4        6     8  48    3.2679   600.8    2.709      50.760
2015    4        6     8  54    3.2669   600.5    2.710      50.721
2015    4        6     9   0    3.2658   600.2    2.712      50.682
2015    4        6     9   6    3.2648   599.9    2.713      50.643
2015    4        6     9  13    3.2637   599.7    2.715      50.605
2015    4        6     9  19    3.2626   599.4    2.716      50.566
2015    4        6     9  25    3.2616   599.1    2.717      50.528
2015    4        6     9  31    3.2605   598.9    2.719      50.489
2015    4        6     9  37    3.2594   598.6    2.720      50.450
2015    4        6     9  43    3.2583   598.3    2.721      50.411
2015    4        6     9  49    3.2572   598.0    2.723      50.371
2015    4        6     9  55    3.2561   597.8    2.724      50.332
2015    4        6    10   1    3.2550   597.5    2.725      50.291
2015    4        6    10   7    3.2539   597.2    2.726      50.251
2015    4        6    10  13    3.2528   596.9    2.728      50.209
2015    4        6    10  19    3.2517   596.6    2.729      50.168
2015    4        6    10  25    3.2507   596.4    2.730      50.126
2015    4        6    10  31    3.2496   596.1    2.731      50.084
2015    4        6    10  37    3.2486   595.8    2.733      50.043
2015    4        6    10  43    3.2475   595.5    2.734      50.002
2015    4        6    10  49    3.2465   595.3    2.736      49.960
2015    4        6    10  55    3.2455   595.0    2.737      49.920
2015    4        6    11   1    3.2445   594.7    2.738      49.879
2015    4        6    11   7    3.2435   594.4    2.740      49.839
2015    4        6    11  13    3.2425   594.2    2.742      49.800
2015    4        6    11  19    3.2415   593.9    2.743      49.761
2015    4        6    11  25    3.2405   593.6    2.745      49.722
2015    4        6    11  31    3.2396   593.4    2.746      49.683
2015    4        6    11  37    3.2386   593.1    2.748      49.645
2015    4        6    11  43    3.2376   592.8    2.750      49.607
2015    4        6    11  49    3.2365   592.6    2.751      49.568
2015    4        6    11  55    3.2355   592.3    2.753      49.530
2015    4        6    12   1    3.2345   592.0    2.754      49.492
2015    4        6    12   7    3.2334   591.8    2.756      49.453
2015    4        6    12  13    3.2323   591.5    2.757      49.414
2015    4        6    12  19    3.2313   591.2    2.759      49.375
2015    4        6    12  26    3.2302   590.9    2.760      49.335
2015    4        6    12  32    3.2291   590.7    2.762      49.295
2015    4        6    12  38    3.2281   590.4    2.763      49.254
2015    4        6    12  44    3.2270   590.1    2.765      49.214
2015    4        6    12  50    3.2259   589.8    2.766      49.172
2015    4        6    12  56    3.2249   589.5    2.767      49.131
2015    4        6    13   2    3.2239   589.3    2.769      49.090
2015    4        6    13   8    3.2228   589.0    2.770      49.049
2015    4        6    13  14    3.2218   588.7    2.772      49.008
2015    4        6    13  20    3.2208   588.4    2.773      48.967
2015    4        6    13  26    3.2198   588.2    2.775      48.926
2015    4        6    13  32    3.2188   587.9    2.776      48.885
2015    4        6    13  38    3.2178   587.6    2.778      48.845
2015    4        6    13  44    3.2169   587.3    2.779      48.804
2015    4        6    13  50    3.2159   587.1    2.781      48.763
2015    4        6    13  56    3.2149   586.8    2.782      48.722
2015    4        6    14   2    3.2140   586.5    2.784      48.682
2015    4        6    14   8    3.2130   586.3    2.785      48.641
2015    4        6    14  14    3.2120   586.0    2.787      48.600
2015    4        6    14  20    3.2111   585.7    2.788      48.559
2015    4        6    14  26    3.2101   585.4    2.790      48.518
2015    4        6    14  32    3.2091   585.2    2.791      48.476
2015    4        6    14  38    3.2081   584.9    2.792      48.434
2015    4        6    14  44    3.2071   584.6    2.794      48.392
2015    4        6    14  50    3.2061   584.3    2.795      48.350
2015    4        6    14  56    3.2051   584.0    2.796      48.308
2015    4        6    15   2    3.2041   583.8    2.798      48.266
2015    4        6    15   8    3.2031   583.5    2.799      48.224
2015    4        6    15  14    3.2021   583.2    2.800      48.182
2015    4        6    15  20    3.2012   582.9    2.802      48.140
2015    4        6    15  26    3.2002   582.6    2.803      48.098
2015    4        6    15  32    3.1993   582.3    2.804      48.057
2015    4        6    15  39    3.1983   582.1    2.806      48.016
2015    4        6    15  45    3.1974   581.8    2.807      47.975
2015    4        6    15  51    3.1965   581.5    2.809      47.935
2015    4        6    15  57    3.1956   581.2    2.810      47.896
2015    4        6    16   3    3.1947   580.9    2.812      47.857
2015    4        6    16   9    3.1939   580.6    2.814      47.819
2015    4        6    16  15    3.1930   580.4    2.815      47.781
2015    4        6    16  21    3.1922   580.1    2.817      47.743
2015    4        6    16  27    3.1913   579.8    2.819      47.706
2015    4        6    16  33    3.1905   579.5    2.820      47.670
2015    4        6    16  39    3.1897   579.3    2.822      47.633
2015    4        6    16  45    3.1889   579.0    2.824      47.597
2015    4        6    16  51    3.1880   578.7    2.826      47.561
2015    4        6    16  57    3.1872   578.4    2.828      47.525
2015    4        6    17   3    3.1864   578.2    2.829      47.489
2015    4        6    17   9    3.1855   577.9    2.831      47.453
2015    4        6    17  15    3.1846   577.6    2.833      47.416
2015    4        6    17  21    3.1838   577.3    2.835      47.380
2015    4        6    17  27    3.1829   577.1    2.836      47.343
2015    4        6    17  33    3.1821   576.8    2.838      47.307
2015    4        6    17  39    3.1812   576.5    2.840      47.270
2015    4        6    17  45    3.1804   576.2    2.842      47.233
2015    4        6    17  51    3.1795   575.9    2.843      47.195
2015    4        6    17  57    3.1787   575.7    2.845      47.158
2015    4        6    18   3    3.1778   575.4    2.847      47.120
2015    4        6    18   9    3.1770   575.1    2.848      47.082
2015    4        6    18  15    3.1761   574.8    2.850      47.044
2015    4        6    18  21    3.1753   574.5    2.852      47.005
2015    4        6    18  27    3.1745   574.3    2.853      46.966
2015    4        6    18  33    3.1736   574.0    2.855      46.927
2015    4        6    18  40    3.1728   573.7    2.857      46.888
2015    4        6    18  46    3.1719   573.4    2.858      46.848
2015    4        6    18  52    3.1710   573.1    2.860      46.808
2015    4        6    18  58    3.1702   572.9    2.862      46.768
2015    4        6    19   4    3.1693   572.6    2.863      46.728
2015    4        6    19  10    3.1684   572.3    2.865      46.687
2015    4        6    19  16    3.1675   572.0    2.866      46.646
2015    4        6    19  22    3.1666   571.7    2.868      46.606
2015    4        6    19  28    3.1657   571.5    2.869      46.565
2015    4        6    19  34    3.1648   571.2    2.871      46.524
2015    4        6    19  40    3.1639   570.9    2.872      46.483
2015    4        6    19  46    3.1631   570.6    2.874      46.441
2015    4        6    19  52    3.1622   570.3    2.876      46.401
2015    4        6    19  58    3.1613   570.0    2.877      46.360
2015    4        6    20   4    3.1604   569.7    2.879      46.319
2015    4        6    20  10    3.1595   569.5    2.880      46.279
2015    4        6    20  16    3.1587   569.2    2.882      46.238
2015    4        6    20  22    3.1578   568.9    2.884      46.198
2015    4        6    20  28    3.1569   568.6    2.885      46.158
2015    4        6    20  34    3.1561   568.3    2.887      46.119
2015    4        6    20  40    3.1553   568.0    2.889      46.080
2015    4        6    20  46    3.1544   567.8    2.891      46.041
2015    4        6    20  52    3.1536   567.5    2.892      46.003
2015    4        6    20  58    3.1528   567.2    2.894      45.965
2015    4        6    21   4    3.1520   566.9    2.896      45.927
2015    4        6    21  10    3.1512   566.6    2.898      45.889
2015    4        6    21  16    3.1504   566.4    2.900      45.852
2015    4        6    21  22    3.1496   566.1    2.902      45.814
2015    4        6    21  28    3.1488   565.8    2.904      45.777
2015    4        6    21  34    3.1481   565.5    2.906      45.740
2015    4        6    21  40    3.1473   565.2    2.908      45.703
2015    4        6    21  46    3.1465   565.0    2.910      45.667
2015    4        6    21  53    3.1457   564.7    2.912      45.630
2015    4        6    21  59    3.1450   564.4    2.914      45.593
2015    4        6    22   5    3.1442   564.1    2.915      45.557
2015    4        6    22  11    3.1434   563.8    2.917      45.520
2015    4        6    22  17    3.1427   563.6    2.919      45.484
2015    4        6    22  23    3.1419   563.3    2.921      45.447
2015    4        6    22  29    3.1411   563.0    2.923      45.411
2015    4        6    22  35    3.1403   562.7    2.925      45.374
2015    4        6    22  41    3.1396   562.4    2.927      45.337
2015    4        6    22  47    3.1388   562.2    2.929      45.301
2015    4        6    22  53    3.1380   561.9    2.930      45.264
2015    4        6    22  59    3.1372   561.6    2.932      45.227
2015    4        6    23   5    3.1365   561.3    2.934      45.191
2015    4        6    23  11    3.1357   561.0    2.936      45.154
2015    4        6    23  17    3.1350   560.7    2.938      45.118
2015    4        6    23  23    3.1342   560.5    2.940      45.081
2015    4        6    23  29    3.1335   560.2    2.941      45.044
2015    4        6    23  35    3.1327   559.9    2.943      45.008
2015    4        6    23  41    3.1320   559.6    2.945      44.971
2015    4        6    23  47    3.1312   559.3    2.947      44.934
2015    4        6    23  53    3.1305   559.1    2.949      44.898
2015    4        6    23  59    3.1298   558.8    2.950      44.861
2015    4        7     0   5    3.1290   558.5    2.952      44.824
2015    4        7     0  11    3.1283   558.2    2.954      44.788
2015    4        7     0  17    3.1276   557.9    2.956      44.751
2015    4        7     0  23    3.1269   557.7    2.958      44.714
2015    4        7     0  29    3.1261   557.4    2.959      44.678
2015    4        7     0  35    3.1254   557.1    2.961      44.641
2015    4        7     0  41    3.1247   556.8    2.963      44.604
2015    4        7     0  47    3.1240   556.5    2.965      44.568
2015    4        7     0  53    3.1233   556.3    2.967      44.531
2015    4        7     1   0    3.1226   556.0    2.969      44.495
2015    4        7     1   6    3.1219   555.7    2.970      44.458
2015    4        7     1  12    3.1212   555.4    2.972      44.422
2015    4        7     1  18    3.1205   555.1    2.974      44.386
2015    4        7     1  24    3.1198   554.9    2.976      44.349
2015    4        7     1  30    3.1191   554.6    2.978      44.313
2015    4        7     1  36    3.1184   554.3    2.980      44.277
2015    4        7     1  42    3.1177   554.0    2.982      44.240
2015    4        7     1  48    3.1170   553.7    2.984      44.204
2015    4        7     1  54    3.1162   553.5    2.986      44.168
2015    4        7     2   0    3.1155   553.2    2.987      44.132
2015    4        7     2   6    3.1148   552.9    2.989      44.095
2015    4        7     2  12    3.1141   552.6    2.991      44.059
2015    4        7     2  18    3.1134   552.3    2.993      44.023
2015    4        7     2  24    3.1127   552.1    2.995      43.986
2015    4        7     2  30    3.1120   551.8    2.997      43.950
2015    4        7     2  36    3.1113   551.5    2.999      43.914
2015    4        7     2  42    3.1105   551.2    3.001      43.878
2015    4        7     2  48    3.1098   550.9    3.003      43.841
2015    4        7     2  54    3.1091   550.7    3.005      43.805
2015    4        7     3   0    3.1084   550.4    3.006      43.769
2015    4        7     3   6    3.1077   550.1    3.008      43.733
2015    4        7     3  12    3.1070   549.8    3.010      43.697
2015    4        7     3  18    3.1063   549.5    3.012      43.660
2015    4        7     3  24    3.1055   549.3    3.014      43.624
2015    4        7     3  30    3.1048   549.0    3.016      43.588
2015    4        7     3  36    3.1041   548.7    3.018      43.553
2015    4        7     3  42    3.1034   548.4    3.020      43.517
2015    4        7     3  48    3.1027   548.1    3.022      43.481
2015    4        7     3  54    3.1021   547.8    3.024      43.445
2015    4        7     4   0    3.1014   547.6    3.026      43.409
2015    4        7     4   6    3.1007   547.3    3.028      43.374
2015    4        7     4  13    3.1000   547.0    3.030      43.338
2015    4        7     4  19    3.0994   546.7    3.032      43.303
2015    4        7     4  25    3.0987   546.4    3.034      43.267
2015    4        7     4  31    3.0981   546.2    3.036      43.232
2015    4        7     4  37    3.0974   545.9    3.038      43.196
2015    4        7     4  43    3.0968   545.6    3.040      43.161
2015    4        7     4  49    3.0961   545.3    3.042      43.126
2015    4        7     4  55    3.0955   545.0    3.044      43.090
2015    4        7     5   1    3.0948   544.7    3.046      43.055
2015    4        7     5   7    3.0942   544.5    3.048      43.020
2015    4        7     5  13    3.0936   544.2    3.050      42.984
2015    4        7     5  19    3.0930   543.9    3.052      42.949
2015    4        7     5  25    3.0923   543.6    3.055      42.914
2015    4        7     5  31    3.0917   543.3    3.057      42.878
2015    4        7     5  37    3.0911   543.1    3.059      42.843
2015    4        7     5  43    3.0905   542.8    3.061      42.808
2015    4        7     5  49    3.0899   542.5    3.063      42.773
2015    4        7     5  55    3.0893   542.2    3.065      42.737
2015    4        7     6   1    3.0886   541.9    3.067      42.702
2015    4        7     6   7    3.0880   541.6    3.070      42.667
2015    4        7     6  13    3.0874   541.4    3.072      42.632
2015    4        7     6  19    3.0868   541.1    3.074      42.597
2015    4        7     6  25    3.0862   540.8    3.076      42.562
2015    4        7     6  31    3.0856   540.5    3.078      42.527
2015    4        7     6  37    3.0850   540.2    3.080      42.492
2015    4        7     6  43    3.0844   540.0    3.083      42.457
2015    4        7     6  49    3.0838   539.7    3.085      42.423
2015    4        7     6  55    3.0833   539.4    3.087      42.388
2015    4        7     7   1    3.0827   539.1    3.089      42.354
2015    4        7     7   7    3.0821   538.8    3.091      42.319
2015    4        7     7  13    3.0815   538.5    3.094      42.285
2015    4        7     7  20    3.0810   538.3    3.096      42.251
2015    4        7     7  26    3.0804   538.0    3.098      42.217
2015    4        7     7  32    3.0798   537.7    3.100      42.183
2015    4        7     7  38    3.0793   537.4    3.102      42.150
2015    4        7     7  44    3.0787   537.1    3.105      42.116
2015    4        7     7  50    3.0781   536.9    3.107      42.082
2015    4        7     7  56    3.0776   536.6    3.109      42.049
2015    4        7     8   2    3.0770   536.3    3.111      42.016
2015    4        7     8   8    3.0765   536.0    3.114      41.982
2015    4        7     8  14    3.0759   535.7    3.116      41.949
2015    4        7     8  20    3.0754   535.5    3.118      41.916
2015    4        7     8  26    3.0748   535.2    3.120      41.883
2015    4        7     8  32    3.0743   534.9    3.123      41.850
2015    4        7     8  38    3.0738   534.6    3.125      41.817
2015    4        7     8  44    3.0732   534.4    3.127      41.784
2015    4        7     8  50    3.0727   534.1    3.129      41.751
2015    4        7     8  56    3.0721   533.8    3.132      41.718
2015    4        7     9   2    3.0716   533.5    3.134      41.684
2015    4        7     9   8    3.0711   533.2    3.136      41.651
2015    4        7     9  14    3.0705   533.0    3.138      41.618
2015    4        7     9  20    3.0700   532.7    3.141      41.585
2015    4        7     9  26    3.0695   532.4    3.143      41.552
2015    4        7     9  32    3.0689   532.1    3.145      41.518
2015    4        7     9  38    3.0684   531.8    3.147      41.485
2015    4        7     9  44    3.0679   531.6    3.150      41.452
2015    4        7     9  50    3.0673   531.3    3.152      41.418
2015    4        7     9  56    3.0668   531.0    3.154      41.385
2015    4        7    10   2    3.0663   530.7    3.156      41.351
2015    4        7    10   8    3.0657   530.5    3.159      41.317
2015    4        7    10  14    3.0652   530.2    3.161      41.283
2015    4        7    10  20    3.0647   529.9    3.163      41.250
2015    4        7    10  26    3.0642   529.6    3.166      41.216
2015    4        7    10  33    3.0637   529.3    3.168      41.182
2015    4        7    10  39    3.0632   529.1    3.170      41.149
2015    4        7    10  45    3.0627   528.8    3.173      41.115
2015    4        7    10  51    3.0622   528.5    3.175      41.081
2015    4        7    10  57    3.0617   528.2    3.177      41.048
2015    4        7    11   3    3.0612   527.9    3.180      41.014
2015    4        7    11   9    3.0607   527.7    3.182      40.981
2015    4        7    11  15    3.0602   527.4    3.184      40.947
2015    4        7    11  21    3.0597   527.1    3.187      40.914
2015    4        7    11  27    3.0593   526.8    3.189      40.881
2015    4        7    11  33    3.0588   526.6    3.192      40.848
2015    4        7    11  39    3.0584   526.3    3.194      40.815
2015    4        7    11  45    3.0579   526.0    3.196      40.782
2015    4        7    11  51    3.0575   525.7    3.199      40.749
2015    4        7    11  57    3.0571   525.4    3.201      40.717
2015    4        7    12   3    3.0566   525.2    3.204      40.684
2015    4        7    12   9    3.0562   524.9    3.206      40.652
2015    4        7    12  15    3.0558   524.6    3.209      40.620
2015    4        7    12  21    3.0554   524.3    3.212      40.587
2015    4        7    12  27    3.0550   524.1    3.214      40.555
2015    4        7    12  33    3.0546   523.8    3.217      40.523
2015    4        7    12  39    3.0542   523.5    3.219      40.492
2015    4        7    12  45    3.0538   523.2    3.222      40.460
2015    4        7    12  51    3.0534   523.0    3.224      40.428
2015    4        7    12  57    3.0530   522.7    3.227      40.396
2015    4        7    13   3    3.0526   522.4    3.230      40.364
2015    4        7    13   9    3.0522   522.1    3.232      40.332
2015    4        7    13  15    3.0519   521.9    3.235      40.301
2015    4        7    13  21    3.0515   521.6    3.237      40.269
2015    4        7    13  27    3.0511   521.3    3.240      40.237
2015    4        7    13  33    3.0507   521.0    3.242      40.205
2015    4        7    13  39    3.0503   520.8    3.245      40.173
2015    4        7    13  46    3.0499   520.5    3.247      40.141
2015    4        7    13  52    3.0495   520.2    3.250      40.109
2015    4        7    13  58    3.0491   519.9    3.252      40.077
2015    4        7    14   4    3.0488   519.7    3.255      40.045
2015    4        7    14  10    3.0484   519.4    3.257      40.013
2015    4        7    14  16    3.0480   519.1    3.260      39.981
2015    4        7    14  22    3.0476   518.8    3.262      39.949
2015    4        7    14  28    3.0472   518.6    3.265      39.916
2015    4        7    14  34    3.0468   518.3    3.267      39.884
2015    4        7    14  40    3.0464   518.0    3.270      39.852
2015    4        7    14  46    3.0461   517.7    3.272      39.820
2015    4        7    14  52    3.0457   517.5    3.275      39.788
2015    4        7    14  58    3.0453   517.2    3.277      39.755
2015    4        7    15   4    3.0449   516.9    3.280      39.723
2015    4        7    15  10    3.0446   516.6    3.282      39.691
2015    4        7    15  16    3.0442   516.4    3.285      39.659
2015    4        7    15  22    3.0438   516.1    3.288      39.627
2015    4        7    15  28    3.0435   515.8    3.290      39.596
2015    4        7    15  34    3.0431   515.5    3.293      39.564
2015    4        7    15  40    3.0428   515.3    3.295      39.532
2015    4        7    15  46    3.0424   515.0    3.298      39.501
2015    4        7    15  52    3.0421   514.7    3.300      39.469
2015    4        7    15  58    3.0418   514.4    3.303      39.438
2015    4        7    16   4    3.0414   514.2    3.306      39.407
2015    4        7    16  10    3.0411   513.9    3.308      39.376
2015    4        7    16  16    3.0408   513.6    3.311      39.345
2015    4        7    16  22    3.0405   513.3    3.314      39.314
2015    4        7    16  28    3.0402   513.1    3.316      39.283
2015    4        7    16  34    3.0399   512.8    3.319      39.252
2015    4        7    16  40    3.0396   512.5    3.322      39.222
2015    4        7    16  46    3.0393   512.3    3.325      39.191
2015    4        7    16  53    3.0390   512.0    3.327      39.161
2015    4        7    16  59    3.0387   511.7    3.330      39.130
2015    4        7    17   5    3.0385   511.4    3.333      39.100
2015    4        7    17  11    3.0382   511.2    3.336      39.069
2015    4        7    17  17    3.0379   510.9    3.338      39.039
2015    4        7    17  23    3.0377   510.6    3.341      39.009
2015    4        7    17  29    3.0374   510.4    3.344      38.979
2015    4        7    17  35    3.0371   510.1    3.347      38.949
2015    4        7    17  41    3.0369   509.8    3.350      38.918
2015    4        7    17  47    3.0366   509.5    3.353      38.888
2015    4        7    17  53    3.0364   509.3    3.355      38.858
2015    4        7    17  59    3.0361   509.0    3.358      38.828
2015    4        7    18   5    3.0359   508.7    3.361      38.798
2015    4        7    18  11    3.0356   508.5    3.364      38.768
2015    4        7    18  17    3.0354   508.2    3.367      38.737
2015    4        7    18  23    3.0352   507.9    3.370      38.707
2015    4        7    18  29    3.0349   507.6    3.373      38.677
2015    4        7    18  35    3.0347   507.4    3.376      38.647
2015    4        7    18  41    3.0345   507.1    3.379      38.617
2015    4        7    18  47    3.0343   506.8    3.381      38.587
2015    4        7    18  53    3.0341   506.6    3.384      38.557
2015    4        7    18  59    3.0339   506.3    3.387      38.527
2015    4        7    19   5    3.0337   506.0    3.390      38.497
2015    4        7    19  11    3.0335   505.8    3.393      38.467
2015    4        7    19  17    3.0333   505.5    3.396      38.437
2015    4        7    19  23    3.0332   505.2    3.399      38.407
2015    4        7    19  29    3.0330   504.9    3.402      38.377
2015    4        7    19  35    3.0328   504.7    3.405      38.347
2015    4        7    19  41    3.0326   504.4    3.408      38.317
2015    4        7    19  47    3.0325   504.1    3.411      38.288
2015    4        7    19  53    3.0323   503.9    3.414      38.258
2015    4        7    19  59    3.0322   503.6    3.417      38.228
2015    4        7    20   6    3.0320   503.3    3.420      38.199
2015    4        7    20  12    3.0319   503.1    3.424      38.169
2015    4        7    20  18    3.0318   502.8    3.427      38.140
2015    4        7    20  24    3.0316   502.5    3.430      38.111
2015    4        7    20  30    3.0315   502.3    3.433      38.081
2015    4        7    20  36    3.0314   502.0    3.436      38.052
2015    4        7    20  42    3.0312   501.7    3.439      38.023
2015    4        7    20  48    3.0311   501.5    3.442      37.994
2015    4        7    20  54    3.0310   501.2    3.445      37.965
2015    4        7    21   0    3.0309   500.9    3.449      37.936
2015    4        7    21   6    3.0308   500.7    3.452      37.907
2015    4        7    21  12    3.0307   500.4    3.455      37.878
2015    4        7    21  18    3.0305   500.1    3.458      37.849
2015    4        7    21  24    3.0304   499.9    3.461      37.821
2015    4        7    21  30    3.0303   499.6    3.464      37.792
2015    4        7    21  36    3.0302   499.3    3.467      37.763
2015    4        7    21  42    3.0301   499.1    3.471      37.735
2015    4        7    21  48    3.0300   498.8    3.474      37.706
2015    4        7    21  54    3.0299   498.5    3.477      37.678
2015    4        7    22   0    3.0298   498.3    3.480      37.649
2015    4        7    22   6    3.0297   498.0    3.483      37.621
2015    4        7    22  12    3.0296   497.7    3.486      37.593
2015    4        7    22  18    3.0295   497.5    3.489      37.564
2015    4        7    22  24    3.0294   497.2    3.493      37.536
2015    4        7    22  30    3.0293   496.9    3.496      37.508
2015    4        7    22  36    3.0292   496.7    3.499      37.480
2015    4        7    22  42    3.0292   496.4    3.502      37.452
2015    4        7    22  48    3.0291   496.1    3.505      37.424
2015    4        7    22  54    3.0290   495.9    3.508      37.396
2015    4        7    23   0    3.0289   495.6    3.511      37.368
2015    4        7    23   6    3.0289   495.4    3.515      37.340
2015    4        7    23  13    3.0288   495.1    3.518      37.312
2015    4        7    23  19    3.0288   494.8    3.521      37.285
2015    4        7    23  25    3.0287   494.6    3.524      37.257
2015    4        7    23  31    3.0287   494.3    3.527      37.229
2015    4        7    23  37    3.0286   494.0    3.531      37.202
2015    4        7    23  43    3.0286   493.8    3.534      37.174
2015    4        7    23  49    3.0286   493.5    3.537      37.147
2015    4        7    23  55    3.0285   493.2    3.540      37.120
2015    4        8     0   1    3.0285   493.0    3.543      37.092
2015    4        8     0   7    3.0285   492.7    3.547      37.065
2015    4        8     0  13    3.0285   492.5    3.550      37.038
2015    4        8     0  19    3.0285   492.2    3.553      37.011
2015    4        8     0  25    3.0285   491.9    3.556      36.984
2015    4        8     0  31    3.0285   491.7    3.560      36.956
2015    4        8     0  37    3.0285   491.4    3.563      36.930
2015    4        8     0  43    3.0285   491.1    3.566      36.903
2015    4        8     0  49    3.0286   490.9    3.570      36.876
2015    4        8     0  55    3.0286   490.6    3.573      36.849
2015    4        8     1   1    3.0286   490.4    3.576      36.822
2015    4        8     1   7    3.0287   490.1    3.580      36.796
2015    4        8     1  13    3.0287   489.8    3.583      36.769
2015    4        8     1  19    3.0288   489.6    3.586      36.743
2015    4        8     1  25    3.0288   489.3    3.590      36.716
2015    4        8     1  31    3.0289   489.1    3.593      36.690
2015    4        8     1  37    3.0290   488.8    3.597      36.663
2015    4        8     1  43    3.0290   488.5    3.600      36.637
2015    4        8     1  49    3.0291   488.3    3.604      36.611
2015    4        8     1  55    3.0292   488.0    3.607      36.585
2015    4        8     2   1    3.0293   487.8    3.611      36.559
2015    4        8     2   7    3.0294   487.5    3.614      36.533
2015    4        8     2  13    3.0295   487.3    3.618      36.507
2015    4        8     2  19    3.0295   487.0    3.621      36.481
2015    4        8     2  26    3.0297   486.7    3.625      36.455
2015    4        8     2  32    3.0298   486.5    3.628      36.429
2015    4        8     2  38    3.0299   486.2    3.632      36.403
2015    4        8     2  44    3.0300   486.0    3.635      36.378
2015    4        8     2  50    3.0301   485.7    3.639      36.352
2015    4        8     2  56    3.0303   485.4    3.643      36.327
2015    4        8     3   2    3.0304   485.2    3.646      36.301
2015    4        8     3   8    3.0306   484.9    3.650      36.276
2015    4        8     3  14    3.0307   484.7    3.654      36.251
2015    4        8     3  20    3.0309   484.4    3.657      36.225
2015    4        8     3  26    3.0311   484.2    3.661      36.200
2015    4        8     3  32    3.0312   483.9    3.665      36.175
2015    4        8     3  38    3.0314   483.7    3.669      36.150
2015    4        8     3  44    3.0316   483.4    3.672      36.125
2015    4        8     3  50    3.0318   483.2    3.676      36.100
2015    4        8     3  56    3.0320   482.9    3.680      36.075
2015    4        8     4   2    3.0322   482.6    3.684      36.051
2015    4        8     4   8    3.0324   482.4    3.688      36.026
2015    4        8     4  14    3.0326   482.1    3.691      36.002
2015    4        8     4  20    3.0328   481.9    3.695      35.977
2015    4        8     4  26    3.0330   481.6    3.699      35.952
2015    4        8     4  32    3.0332   481.4    3.703      35.928
2015    4        8     4  38    3.0335   481.1    3.707      35.904
2015    4        8     4  44    3.0337   480.9    3.711      35.879
2015    4        8     4  50    3.0339   480.6    3.715      35.855
2015    4        8     4  56    3.0342   480.4    3.719      35.831
2015    4        8     5   2    3.0344   480.1    3.723      35.806
2015    4        8     5   8    3.0347   479.9    3.726      35.782
2015    4        8     5  14    3.0349   479.6    3.730      35.758
2015    4        8     5  20    3.0352   479.4    3.734      35.734
2015    4        8     5  26    3.0354   479.1    3.738      35.709
2015    4        8     5  33    3.0357   478.9    3.742      35.685
2015    4        8     5  39    3.0360   478.6    3.746      35.661
2015    4        8     5  45    3.0362   478.4    3.750      35.637
2015    4        8     5  51    3.0365   478.1    3.754      35.613
2015    4        8     5  57    3.0368   477.9    3.758      35.589
2015    4        8     6   3    3.0371   477.6    3.762      35.565
2015    4        8     6   9    3.0374   477.4    3.766      35.540
2015    4        8     6  15    3.0377   477.1    3.770      35.516
2015    4        8     6  21    3.0379   476.9    3.774      35.492
2015    4        8     6  27    3.0382   476.6    3.778      35.468
2015    4        8     6  33    3.0385   476.4    3.782      35.444
2015    4        8     6  39    3.0389   476.1    3.786      35.420
2015    4        8     6  45    3.0392   475.9    3.790      35.395
2015    4        8     6  51    3.0395   475.6    3.794      35.371
2015    4        8     6  57    3.0398   475.4    3.798      35.347
2015    4        8     7   3    3.0401   475.1    3.802      35.323
2015    4        8     7   9    3.0404   474.9    3.806      35.299
2015    4        8     7  15    3.0408   474.6    3.810      35.275
2015    4        8     7  21    3.0411   474.4    3.813      35.251
2015    4        8     7  27    3.0415   474.1    3.817      35.227
2015    4        8     7  33    3.0418   473.9    3.821      35.202
2015    4        8     7  39    3.0421   473.6    3.825      35.178
2015    4        8     7  45    3.0425   473.4    3.829      35.154
2015    4        8     7  51    3.0429   473.1    3.833      35.130
2015    4        8     7  57    3.0432   472.9    3.837      35.106
2015    4        8     8   3    3.0436   472.6    3.841      35.082
2015    4        8     8   9    3.0440   472.4    3.845      35.058
2015    4        8     8  15    3.0443   472.1    3.849      35.034
2015    4        8     8  21    3.0447   471.9    3.853      35.010
2015    4        8     8  27    3.0451   471.6    3.857      34.986
2015    4        8     8  33    3.0455   471.4    3.861      34.962
2015    4        8     8  39    3.0459   471.1    3.865      34.939
2015    4        8     8  46    3.0463   470.9    3.869      34.915
2015    4        8     8  52    3.0467   470.6    3.873      34.891
2015    4        8     8  58    3.0471   470.4    3.877      34.868
2015    4        8     9   4    3.0475   470.2    3.881      34.844
2015    4        8     9  10    3.0479   469.9    3.885      34.821
2015    4        8     9  16    3.0484   469.7    3.889      34.797
2015    4        8     9  22    3.0488   469.4    3.893      34.774
2015    4        8     9  28    3.0492   469.2    3.897      34.751
2015    4        8     9  34    3.0497   468.9    3.901      34.727
2015    4        8     9  40    3.0501   468.7    3.905      34.704
2015    4        8     9  46    3.0506   468.4    3.909      34.681
2015    4        8     9  52    3.0510   468.2    3.914      34.659
2015    4        8     9  58    3.0515   467.9    3.918      34.636
2015    4        8    10   4    3.0520   467.7    3.922      34.613
2015    4        8    10  10    3.0525   467.5    3.926      34.591
2015    4        8    10  16    3.0530   467.2    3.930      34.568
2015    4        8    10  22    3.0535   467.0    3.935      34.546
2015    4        8    10  28    3.0540   466.7    3.939      34.524
2015    4        8    10  34    3.0545   466.5    3.943      34.502
2015    4        8    10  40    3.0550   466.2    3.948      34.480
2015    4        8    10  46    3.0555   466.0    3.952      34.458
2015    4        8    10  52    3.0561   465.8    3.956      34.436
2015    4        8    10  58    3.0566   465.5    3.961      34.415
2015    4        8    11   4    3.0572   465.3    3.965      34.393
2015    4        8    11  10    3.0578   465.0    3.970      34.372
2015    4        8    11  16    3.0584   464.8    3.974      34.351
2015    4        8    11  22    3.0590   464.6    3.979      34.330
2015    4        8    11  28    3.0596   464.3    3.984      34.309
2015    4        8    11  34    3.0602   464.1    3.988      34.288
2015    4        8    11  40    3.0608   463.8    3.993      34.268
2015    4        8    11  46    3.0615   463.6    3.997      34.248
2015    4        8    11  52    3.0621   463.4    4.002      34.227
2015    4        8    11  59    3.0628   463.1    4.007      34.207
2015    4        8    12   5    3.0635   462.9    4.012      34.187
2015    4        8    12  11    3.0642   462.6    4.017      34.167
2015    4        8    12  17    3.0649   462.4    4.021      34.148
2015    4        8    12  23    3.0656   462.2    4.026      34.128
2015    4        8    12  29    3.0663   461.9    4.031      34.109
2015    4        8    12  35    3.0671   461.7    4.036      34.090
2015    4        8    12  41    3.0678   461.4    4.041      34.071
2015    4        8    12  47    3.0686   461.2    4.046      34.052
2015    4        8    12  53    3.0694   461.0    4.051      34.033
2015    4        8    12  59    3.0702   460.7    4.056      34.014
2015    4        8    13   5    3.0710   460.5    4.061      33.995
2015    4        8    13  11    3.0718   460.3    4.066      33.977
2015    4        8    13  17    3.0727   460.0    4.072      33.958
2015    4        8    13  23    3.0735   459.8    4.077      33.940
2015    4        8    13  29    3.0743   459.6    4.082      33.921
2015    4        8    13  35    3.0752   459.3    4.087      33.903
2015    4        8    13  41    3.0761   459.1    4.092      33.885
2015    4        8    13  47    3.0769   458.9    4.098      33.866
2015    4        8    13  53    3.0778   458.6    4.103      33.848
2015    4        8    13  59    3.0787   458.4    4.108      33.830
2015    4        8    14   5    3.0796   458.2    4.113      33.811
2015    4        8    14  11    3.0805   458.0    4.119      33.793
2015    4        8    14  17    3.0814   457.7    4.124      33.775
2015    4        8    14  23    3.0823   457.5    4.129      33.756
2015    4        8    14  29    3.0832   457.3    4.135      33.738
2015    4        8    14  35    3.0841   457.0    4.140      33.719
2015    4        8    14  41    3.0850   456.8    4.145      33.701
2015    4        8    14  47    3.0859   456.6    4.150      33.682
2015    4        8    14  53    3.0869   456.4    4.156      33.663
2015    4        8    14  59    3.0878   456.1    4.161      33.645
2015    4        8    15   5    3.0887   455.9    4.166      33.626
2015    4        8    15  12    3.0896   455.7    4.172      33.607
2015    4        8    15  18    3.0905   455.4    4.177      33.588
2015    4        8    15  24    3.0915   455.2    4.182      33.569
2015    4        8    15  30    3.0924   455.0    4.188      33.550
2015    4        8    15  36    3.0934   454.8    4.193      33.531
2015    4        8    15  42    3.0943   454.5    4.199      33.512
2015    4        8    15  48    3.0952   454.3    4.204      33.493
2015    4        8    15  54    3.0962   454.1    4.209      33.474
2015    4        8    16   0    3.0971   453.8    4.215      33.454
2015    4        8    16   6    3.0981   453.6    4.220      33.435
2015    4        8    16  12    3.0990   453.4    4.225      33.416
2015    4        8    16  18    3.1000   453.2    4.231      33.397
2015    4        8    16  24    3.1010   452.9    4.236      33.377
2015    4        8    16  30    3.1019   452.7    4.242      33.358
2015    4        8    16  36    3.1029   452.5    4.247      33.339
2015    4        8    16  42    3.1039   452.2    4.253      33.319
2015    4        8    16  48    3.1049   452.0    4.258      33.300
2015    4        8    16  54    3.1059   451.8    4.264      33.281
2015    4        8    17   0    3.1069   451.6    4.269      33.262
2015    4        8    17   6    3.1079   451.3    4.275      33.243
2015    4        8    17  12    3.1089   451.1    4.280      33.224
2015    4        8    17  18    3.1099   450.9    4.286      33.206
2015    4        8    17  24    3.1110   450.6    4.292      33.187
2015    4        8    17  30    3.1120   450.4    4.297      33.168
2015    4        8    17  36    3.1131   450.2    4.303      33.150
2015    4        8    17  42    3.1141   450.0    4.309      33.131
2015    4        8    17  48    3.1152   449.7    4.314      33.113
2015    4        8    17  54    3.1163   449.5    4.320      33.095
2015    4        8    18   0    3.1174   449.3    4.326      33.077
2015    4        8    18   6    3.1186   449.1    4.332      33.059
2015    4        8    18  12    3.1197   448.8    4.337      33.041
2015    4        8    18  18    3.1209   448.6    4.343      33.024
2015    4        8    18  25    3.1220   448.4    4.349      33.006
2015    4        8    18  31    3.1232   448.2    4.355      32.989
2015    4        8    18  37    3.1244   448.0    4.361      32.972
2015    4        8    18  43    3.1256   447.7    4.367      32.955
2015    4        8    18  49    3.1269   447.5    4.372      32.938
2015    4        8    18  55    3.1281   447.3    4.378      32.921
2015    4        8    19   1    3.1294   447.1    4.384      32.905
2015    4        8    19   7    3.1307   446.9    4.390      32.888
2015    4        8    19  13    3.1320   446.6    4.396      32.872
2015    4        8    19  19    3.1333   446.4    4.402      32.856
2015    4        8    19  25    3.1346   446.2    4.408      32.840
2015    4        8    19  31    3.1360   446.0    4.414      32.825
2015    4        8    19  37    3.1373   445.8    4.421      32.809
2015    4        8    19  43    3.1387   445.6    4.427      32.794
2015    4        8    19  49    3.1401   445.4    4.433      32.779
2015    4        8    19  55    3.1415   445.1    4.439      32.764
2015    4        8    20   1    3.1430   444.9    4.445      32.749
2015    4        8    20   7    3.1444   444.7    4.451      32.735
2015    4        8    20  13    3.1459   444.5    4.457      32.720
2015    4        8    20  19    3.1474   444.3    4.464      32.706
2015    4        8    20  25    3.1489   444.1    4.470      32.692
2015    4        8    20  31    3.1504   443.9    4.476      32.678
2015    4        8    20  37    3.1519   443.7    4.482      32.664
2015    4        8    20  43    3.1534   443.5    4.489      32.651
2015    4        8    20  49    3.1550   443.3    4.495      32.637
2015    4        8    20  55    3.1566   443.1    4.501      32.624
2015    4        8    21   1    3.1582   442.9    4.508      32.611
2015    4        8    21   7    3.1597   442.7    4.514      32.598
2015    4        8    21  13    3.1614   442.5    4.521      32.586
2015    4        8    21  19    3.1630   442.3    4.527      32.573
2015    4        8    21  25    3.1646   442.1    4.534      32.561
2015    4        8    21  32    3.1662   441.9    4.540      32.549
2015    4        8    21  38    3.1679   441.7    4.547      32.537
2015    4        8    21  44    3.1696   441.5    4.553      32.525
2015    4        8    21  50    3.1712   441.3    4.560      32.513
2015    4        8    21  56    3.1729   441.1    4.567      32.502
2015    4        8    22   2    3.1746   440.9    4.574      32.490
2015    4        8    22   8    3.1763   440.7    4.580      32.479
2015    4        8    22  14    3.1780   440.5    4.587      32.468
2015    4        8    22  20    3.1797   440.3    4.594      32.458
2015    4        8    22  26    3.1815   440.1    4.601      32.447
2015    4        8    22  32    3.1832   439.9    4.608      32.437
2015    4        8    22  38    3.1850   439.7    4.615      32.426
2015    4        8    22  44    3.1867   439.5    4.623      32.416
2015    4        8    22  50    3.1885   439.3    4.630      32.406
2015    4        8    22  56    3.1903   439.1    4.637      32.396
2015    4        8    23   2    3.1921   438.9    4.644      32.387
2015    4        8    23   8    3.1939   438.7    4.652      32.377
2015    4        8    23  14    3.1957   438.5    4.659      32.368
2015    4        8    23  20    3.1976   438.4    4.667      32.359
2015    4        8    23  26    3.1995   438.2    4.674      32.350
2015    4        8    23  32    3.2013   438.0    4.682      32.341
2015    4        8    23  38    3.2032   437.8    4.690      32.333
2015    4        8    23  44    3.2052   437.6    4.698      32.325
2015    4        8    23  50    3.2071   437.4    4.705      32.316
2015    4        8    23  56    3.2091   437.2    4.713      32.309
2015    4        9     0   2    3.2111   437.0    4.721      32.301
2015    4        9     0   8    3.2131   436.9    4.730      32.294
2015    4        9     0  14    3.2152   436.7    4.738      32.287
2015    4        9     0  20    3.2173   436.5    4.746      32.280
2015    4        9     0  26    3.2194   436.3    4.754      32.274
2015    4        9     0  32    3.2216   436.1    4.763      32.269
2015    4        9     0  38    3.2239   435.9    4.772      32.263
2015    4        9     0  45    3.2262   435.8    4.780      32.259
2015    4        9     0  51    3.2287   435.6    4.789      32.255
2015    4        9     0  57    3.2311   435.4    4.798      32.252
2015    4        9     1   3    3.2337   435.2    4.808      32.250
2015    4        9     1   9    3.2364   435.1    4.817      32.248
2015    4        9     1  15    3.2392   434.9    4.827      32.248
2015    4        9     1  21    3.2422   434.7    4.836      32.249
2015    4        9     1  27    3.2452   434.6    4.847      32.252
2015    4        9     1  33    3.2485   434.4    4.857      32.256
2015    4        9     1  39    3.2519   434.3    4.868      32.262
2015    4        9     1  45    3.2556   434.1    4.879      32.270
2015    4        9     1  51    3.2596   434.0    4.891      32.281
2015    4        9     1  57    3.2638   433.8    4.903      32.294
2015    4        9     2   3    3.2683   433.7    4.916      32.311
2015    4        9     2   9    3.2732   433.6    4.929      32.331
2015    4        9     2  15    3.2785   433.4    4.943      32.355
2015    4        9     2  21    3.2842   433.3    4.958      32.383
2015    4        9     2  27    3.2905   433.2    4.974      32.417
2015    4        9     2  33    3.2973   433.1    4.991      32.456
2015    4        9     2  39    3.3048   433.1    5.010      32.501
2015    4        9     2  45    3.3130   433.0    5.029      32.553
2015    4        9     2  51    3.3220   432.9    5.050      32.612
2015    4        9     2  57    3.3319   432.9    5.073      32.680
2015    4        9     3   3    3.3428   432.9    5.097      32.757
2015    4        9     3   9    3.3548   432.9    5.124      32.845
2015    4        9     3  15    3.3681   432.9    5.153      32.943
2015    4        9     3  21    3.3828   432.9    5.184      33.054
2015    4        9     3  27    3.3990   433.0    5.218      33.178
2015    4        9     3  33    3.4170   433.1    5.256      33.317
2015    4        9     3  39    3.4369   433.3    5.296      33.472
2015    4        9     3  45    3.4591   433.4    5.341      33.644
2015    4        9     3  52    3.4838   433.6    5.389      33.836
2015    4        9     3  58    3.5112   433.9    5.443      34.047
2015    4        9     4   4    3.5417   434.2    5.502      34.281
2015    4        9     4  10    3.5757   434.6    5.566      34.538
2015    4        9     4  16    3.6137   435.0    5.637      34.820
2015    4        9     4  22    3.6559   435.4    5.715      35.127
2015    4        9     4  28    3.7030   435.9    5.801      35.460
2015    4        9     4  34    3.7554   436.5    5.895      35.820
2015    4        9     4  40    3.8137   437.2    5.997      36.206
2015    4        9     4  46    3.8780   437.9    6.109      36.617
2015    4        9     4  52    3.9502   438.7    6.232      37.054
2015    4        9     4  58    4.0303   439.5    6.365      37.516
2015    4        9     5   4    4.1188   440.4    6.510      38.002
2015    4        9     5  10    4.2151   441.4    6.668      38.504
2015    4        9     5  16    4.3192   442.5    6.840      39.019
2015    4        9     5  22    4.4303   443.6    7.025      39.546
2015    4        9     5  28    4.5507   444.8    7.223      40.094
2015    4        9     5  34    4.6787   446.0    7.432      40.671
2015    4        9     5  40    4.8125   447.3    7.651      41.270
2015    4        9     5  46    4.9496   448.5    7.883      41.872
2015    4        9     5  52    5.0884   449.8    8.125      42.470
2015    4        9     5  58    5.2264   451.1    8.374      43.069
2015    4        9     6   4    5.3582   452.4    8.626      43.691
2015    4        9     6  10    5.4821   453.6    8.878      44.339
2015    4        9     6  16    5.5977   454.8    9.127      45.002
2015    4        9     6  22    5.7047   456.0    9.365      45.692
2015    4        9     6  28    5.8032   457.0    9.590      46.403
2015    4        9     6  34    5.8932   457.9    9.801      47.121
2015    4        9     6  40    5.9744   458.7    9.999      47.815
2015    4        9     6  46    6.0473   459.5   10.184      48.469
2015    4        9     6  52    6.1124   460.1   10.356      49.089
2015    4        9     6  58    6.1702   460.7   10.515      49.676
2015    4        9     7   5    6.2211   461.2   10.663      50.236
2015    4        9     7  11    6.2656   461.6   10.798      50.769
2015    4        9     7  17    6.3041   462.0   10.923      51.275
2015    4        9     7  23    6.3372   462.3   11.037      51.756
2015    4        9     7  29    6.3653   462.5   11.141      52.212
2015    4        9     7  35    6.3889   462.7   11.235      52.646
2015    4        9     7  41    6.4082   462.9   11.321      53.058
2015    4        9     7  47    6.4238   463.0   11.398      53.449
2015    4        9     7  53    6.4360   463.0   11.467      53.821
2015    4        9     7  59    6.4451   463.1   11.529      54.173
2015    4        9     8   5    6.4516   463.1   11.584      54.507
2015    4        9     8  11    6.4557   463.0   11.632      54.823
2015    4        9     8  17    6.4576   463.0   11.673      55.120
2015    4        9     8  23    6.4577   462.9   11.709      55.400
2015    4        9     8  29    6.4561   462.8   11.739      55.662
2015    4        9     8  35    6.4531   462.7   11.764      55.906
2015    4        9     8  41    6.4489   462.6   11.784      56.133
2015    4        9     8  47    6.4436   462.4   11.799      56.342
2015    4        9     8  53    6.4373   462.3   11.810      56.534
2015    4        9     8  59    6.4304   462.1   11.817      56.709
2015    4        9     9   5    6.4228   461.9   11.820      56.867
2015    4        9     9  11    6.4146   461.8   11.820      57.008
2015    4        9     9  17    6.4057   461.6   11.816      57.131
2015    4        9     9  23    6.3962   461.4   11.810      57.239
2015    4        9     9  29    6.3858   461.3   11.801      57.330
2015    4        9     9  35    6.3745   461.1   11.789      57.405
2015    4        9     9  41    6.3621   460.9   11.774      57.465
2015    4        9     9  47    6.3485   460.8   11.757      57.509
2015    4        9     9  53    6.3335   460.6   11.738      57.539
2015    4        9     9  59    6.3170   460.5   11.716      57.556
2015    4        9    10   5    6.2987   460.3   11.692      57.558
2015    4        9    10  11    6.2787   460.2   11.665      57.547
2015    4        9    10  18    6.2568   460.0   11.637      57.524
2015    4        9    10  24    6.2328   459.9   11.606      57.494
2015    4        9    10  30    6.2066   459.7   11.573      57.457
2015    4        9    10  36    6.1780   459.5   11.537      57.412
2015    4        9    10  42    6.1469   459.3   11.499      57.361
2015    4        9    10  48    6.1133   459.1   11.458      57.305
2015    4        9    10  54    6.0769   458.9   11.414      57.244
2015    4        9    11   0    6.0378   458.7   11.367      57.175
2015    4        9    11   6    5.9958   458.5   11.319      57.099
2015    4        9    11  12    5.9512   458.3   11.267      57.019
2015    4        9    11  18    5.9038   458.0   11.213      56.935
2015    4        9    11  24    5.8538   457.7   11.156      56.847
2015    4        9    11  30    5.8010   457.4   11.097      56.755
2015    4        9    11  36    5.7458   457.1   11.035      56.660
2015    4        9    11  42    5.6879   456.7   10.970      56.561
2015    4        9    11  48    5.6280   456.4   10.903      56.458
2015    4        9    11  54    5.5658   456.0   10.833      56.352
2015    4        9    12   0    5.5019   455.6   10.760      56.242
2015    4        9    12   6    5.4361   455.2   10.686      56.130
2015    4        9    12  12    5.3690   454.8   10.610      56.017
2015    4        9    12  18    5.3010   454.3   10.532      55.904
2015    4        9    12  24    5.2324   453.9   10.452      55.792
2015    4        9    12  30    5.1633   453.5   10.372      55.684
2015    4        9    12  36    5.0942   453.0   10.291      55.584
2015    4        9    12  42    5.0257   452.6   10.208      55.493
2015    4        9    12  48    4.9581   452.2   10.126      55.412
2015    4        9    12  54    4.8918   451.7   10.043      55.345
2015    4        9    13   0    4.8266   451.3    9.960      55.290
2015    4        9    13   6    4.7632   450.8    9.877      55.246
2015    4        9    13  12    4.7014   450.4    9.794      55.211
2015    4        9    13  18    4.6414   450.0    9.712      55.185
2015    4        9    13  25    4.5830   449.6    9.630      55.167
2015    4        9    13  31    4.5263   449.2    9.548      55.155
2015    4        9    13  37    4.4712   448.8    9.467      55.149
2015    4        9    13  43    4.4177   448.4    9.386      55.147
2015    4        9    13  49    4.3658   448.1    9.306      55.151
2015    4        9    13  55    4.3154   447.7    9.226      55.158
2015    4        9    14   1    4.2664   447.3    9.146      55.169
2015    4        9    14   7    4.2191   447.0    9.067      55.184
2015    4        9    14  13    4.1732   446.6    8.988      55.204
2015    4        9    14  19    4.1289   446.2    8.909      55.227
2015    4        9    14  25    4.0860   445.9    8.830      55.255
2015    4        9    14  31    4.0446   445.5    8.752      55.286
2015    4        9    14  37    4.0046   445.2    8.674      55.322
2015    4        9    14  43    3.9661   444.9    8.596      55.363
2015    4        9    14  49    3.9290   444.5    8.518      55.408
2015    4        9    14  55    3.8934   444.2    8.440      55.458
2015    4        9    15   1    3.8591   443.8    8.362      55.513
2015    4        9    15   7    3.8263   443.5    8.285      55.573
2015    4        9    15  13    3.7948   443.2    8.208      55.638
2015    4        9    15  19    3.7647   442.8    8.130      55.708
2015    4        9    15  25    3.7359   442.5    8.053      55.782
2015    4        9    15  31    3.7085   442.2    7.976      55.861
2015    4        9    15  37    3.6823   441.9    7.899      55.945
2015    4        9    15  43    3.6574   441.6    7.822      56.032
2015    4        9    15  49    3.6337   441.3    7.746      56.124
2015    4        9    15  55    3.6114   440.9    7.669      56.219
2015    4        9    16   1    3.5901   440.6    7.593      56.317
2015    4        9    16   7    3.5701   440.4    7.516      56.419
2015    4        9    16  13    3.5511   440.1    7.440      56.522
2015    4        9    16  19    3.5333   439.8    7.364      56.628
2015    4        9    16  25    3.5165   439.5    7.288      56.734
2015    4        9    16  31    3.5008   439.2    7.213      56.842
2015    4        9    16  38    3.4861   439.0    7.138      56.948
2015    4        9    16  44    3.4725   438.7    7.063      57.054
2015    4        9    16  50    3.4597   438.4    6.989      57.159
2015    4        9    16  56    3.4480   438.2    6.915      57.262
2015    4        9    17   2    3.4371   437.9    6.842      57.362
2015    4        9    17   8    3.4272   437.6    6.769      57.460
2015    4        9    17  14    3.4181   437.4    6.697      57.555
2015    4        9    17  20    3.4098   437.1    6.625      57.646
2015    4        9    17  26    3.4023   436.9    6.554      57.732
2015    4        9    17  32    3.3956   436.6    6.484      57.812
2015    4        9    17  38    3.3895   436.4    6.414      57.886
2015    4        9    17  44    3.3842   436.2    6.346      57.951
2015    4        9    17  50    3.3796   435.9    6.278      58.006
2015    4        9    17  56    3.3756   435.7    6.211      58.050
2015    4        9    18   2    3.3722   435.5    6.145      58.084
2015    4        9    18   8    3.3695   435.3    6.080      58.105
2015    4        9    18  14    3.3673   435.1    6.016      58.113
2015    4        9    18  20    3.3657   434.9    5.953      58.108
2015    4        9    18  26    3.3646   434.6    5.891      58.088
2015    4        9    18  32    3.3641   434.4    5.831      58.054
2015    4        9    18  38    3.3639   434.2    5.771      58.004
2015    4        9    18  44    3.3643   434.0    5.712      57.939
2015    4        9    18  50    3.3651   433.8    5.654      57.858
2015    4        9    18  56    3.3663   433.6    5.597      57.760
2015    4        9    19   2    3.3679   433.4    5.541      57.646
2015    4        9    19   8    3.3699   433.2    5.487      57.515
2015    4        9    19  14    3.3722   433.0    5.433      57.368
2015    4        9    19  20    3.3749   432.9    5.380      57.204
2015    4        9    19  26    3.3778   432.7    5.329      57.024
2015    4        9    19  32    3.3810   432.5    5.278      56.828
2015    4        9    19  38    3.3844   432.3    5.228      56.615
2015    4        9    19  45    3.3880   432.1    5.180      56.388
2015    4        9    19  51    3.3919   432.0    5.132      56.146
2015    4        9    19  57    3.3959   431.8    5.085      55.892
2015    4        9    20   3    3.4001   431.7    5.040      55.624
2015    4        9    20   9    3.4044   431.5    4.995      55.345
2015    4        9    20  15    3.4088   431.3    4.951      55.057
2015    4        9    20  21    3.4133   431.2    4.908      54.762
2015    4        9    20  27    3.4179   431.1    4.866      54.462
2015    4        9    20  33    3.4225   430.9    4.826      54.156
2015    4        9    20  39    3.4272   430.8    4.786      53.846
2015    4        9    20  45    3.4319   430.6    4.746      53.534
2015    4        9    20  51    3.4367   430.5    4.708      53.220
2015    4        9    20  57    3.4415   430.4    4.671      52.903
2015    4        9    21   3    3.4463   430.3    4.635      52.585
2015    4        9    21   9    3.4511   430.2    4.599      52.265
2015    4        9    21  15    3.4560   430.0    4.565      51.943
2015    4        9    21  21    3.4609   429.9    4.531      51.619
2015    4        9    21  27    3.4659   429.8    4.498      51.295
2015    4        9    21  33    3.4708   429.7    4.466      50.969
2015    4        9    21  39    3.4759   429.6    4.435      50.642
2015    4        9    21  45    3.4810   429.5    4.404      50.315
2015    4        9    21  51    3.4862   429.4    4.375      49.986
2015    4        9    21  57    3.4914   429.3    4.346      49.658
2015    4        9    22   3    3.4968   429.3    4.318      49.329
2015    4        9    22   9    3.5021   429.2    4.291      48.999
2015    4        9    22  15    3.5076   429.1    4.265      48.670
2015    4        9    22  21    3.5132   429.0    4.239      48.341
2015    4        9    22  27    3.5188   428.9    4.214      48.013
2015    4        9    22  33    3.5245   428.9    4.190      47.685
2015    4        9    22  39    3.5304   428.8    4.167      47.357
2015    4        9    22  45    3.5363   428.7    4.144      47.031
2015    4        9    22  51    3.5423   428.6    4.122      46.706
2015    4        9    22  57    3.5483   428.6    4.101      46.382
2015    4        9    23   4    3.5545   428.5    4.081      46.059
2015    4        9    23  10    3.5606   428.4    4.061      45.738
2015    4        9    23  16    3.5669   428.4    4.041      45.419
2015    4        9    23  22    3.5732   428.3    4.023      45.102
2015    4        9    23  28    3.5796   428.2    4.005      44.787
2015    4        9    23  34    3.5860   428.2    3.987      44.474
2015    4        9    23  40    3.5924   428.1    3.971      44.164
2015    4        9    23  46    3.5988   428.1    3.954      43.856
2015    4        9    23  52    3.6052   428.0    3.939      43.551
2015    4        9    23  58    3.6115   427.9    3.924      43.249
2015    4       10     0   4    3.6178   427.9    3.909      42.949
2015    4       10     0  10    3.6240   427.8    3.895      42.653
2015    4       10     0  16    3.6301   427.8    3.881      42.359
2015    4       10     0  22    3.6362   427.7    3.868      42.069
2015    4       10     0  28    3.6422   427.7    3.855      41.782
2015    4       10     0  34    3.6479   427.6    3.843      41.498
2015    4       10     0  40    3.6537   427.6    3.831      41.218
2015    4       10     0  46    3.6592   427.5    3.819      40.941
2015    4       10     0  52    3.6647   427.5    3.808      40.667
2015    4       10     0  58    3.6698   427.4    3.797      40.397
2015    4       10     1   4    3.6749   427.4    3.786      40.131
2015    4       10     1  10    3.6797   427.3    3.776      39.868
2015    4       10     1  16    3.6845   427.3    3.766      39.609
2015    4       10     1  22    3.6889   427.3    3.756      39.354
2015    4       10     1  28    3.6933   427.2    3.747      39.102
2015    4       10     1  34    3.6975   427.2    3.738      38.854
2015    4       10     1  40    3.7015   427.2    3.728      38.610
2015    4       10     1  46    3.7053   427.1    3.720      38.370
2015    4       10     1  52    3.7090   427.1    3.711      38.134
2015    4       10     1  58    3.7125   427.1    3.702      37.901
2015    4       10     2   4    3.7159   427.0    3.694      37.673
2015    4       10     2  11    3.7191   427.0    3.686      37.449
2015    4       10     2  17    3.7222   427.0    3.678      37.228
2015    4       10     2  23    3.7250   427.0    3.670      37.012
2015    4       10     2  29    3.7278   427.0    3.662      36.800
2015    4       10     2  35    3.7304   426.9    3.654      36.592
2015    4       10     2  41    3.7328   426.9    3.646      36.388
2015    4       10     2  47    3.7351   426.9    3.639      36.189
2015    4       10     2  53    3.7373   426.9    3.631      35.994
2015    4       10     2  59    3.7393   426.9    3.623      35.803
2015    4       10     3   5    3.7413   426.8    3.616      35.617
2015    4       10     3  11    3.7431   426.8    3.609      35.436
2015    4       10     3  17    3.7448   426.8    3.601      35.260
2015    4       10     3  23    3.7463   426.8    3.594      35.088
2015    4       10     3  29    3.7478   426.7    3.587      34.921
2015    4       10     3  35    3.7491   426.7    3.580      34.760
2015    4       10     3  41    3.7504   426.7    3.573      34.603
2015    4       10     3  47    3.7515   426.7    3.566      34.452
2015    4       10     3  53    3.7526   426.6    3.559      34.305
2015    4       10     3  59    3.7536   426.6    3.553      34.163
2015    4       10     4   5    3.7545   426.6    3.546      34.026
2015    4       10     4  11    3.7553   426.5    3.540      33.893
2015    4       10     4  17    3.7561   426.5    3.534      33.766
2015    4       10     4  23    3.7567   426.4    3.527      33.642
2015    4       10     4  29    3.7574   426.4    3.522      33.522
2015    4       10     4  35    3.7579   426.3    3.516      33.407
2015    4       10     4  41    3.7585   426.3    3.511      33.295
2015    4       10     4  47    3.7589   426.2    3.506      33.187
2015    4       10     4  53    3.7593   426.1    3.501      33.081
2015    4       10     4  59    3.7597   426.0    3.496      32.978
2015    4       10     5   5    3.7600   426.0    3.492      32.877
2015    4       10     5  11    3.7603   425.9    3.489      32.777
2015    4       10     5  17    3.7606   425.8    3.486      32.679
2015    4       10     5  24    3.7608   425.7    3.483      32.580
2015    4       10     5  30    3.7610   425.6    3.482      32.481
2015    4       10     5  36    3.7612   425.5    3.480      32.381
2015    4       10     5  42    3.7614   425.4    3.480      32.279
2015    4       10     5  48    3.7616   425.3    3.480      32.176
2015    4       10     5  54    3.7618   425.2    3.481      32.070
2015    4       10     6   0    3.7620   425.1    3.483      31.960
2015    4       10     6   6    3.7623   425.0    3.486      31.846
2015    4       10     6  12    3.7625   424.9    3.490      31.729
2015    4       10     6  18    3.7628   424.7    3.495      31.608
2015    4       10     6  24    3.7632   424.6    3.501      31.485
2015    4       10     6  30    3.7635   424.5    3.508      31.359
2015    4       10     6  36    3.7639   424.4    3.516      31.231
2015    4       10     6  42    3.7643   424.4    3.526      31.103
2015    4       10     6  48    3.7647   424.3    3.537      30.974
2015    4       10     6  54    3.7652   424.2    3.549      30.845
2015    4       10     7   0    3.7656   424.1    3.562      30.716
2015    4       10     7   6    3.7661   424.0    3.577      30.588
2015    4       10     7  12    3.7664   424.0    3.593      30.461
2015    4       10     7  18    3.7668   423.9    3.610      30.335
2015    4       10     7  24    3.7670   423.9    3.629      30.212
2015    4       10     7  30    3.7671   423.8    3.649      30.090
2015    4       10     7  36    3.7670   423.8    3.670      29.970
2015    4       10     7  42    3.7670   423.8    3.693      29.853
2015    4       10     7  48    3.7667   423.7    3.717      29.738
2015    4       10     7  54    3.7664   423.7    3.742      29.625
2015    4       10     8   0    3.7658   423.7    3.768      29.515
2015    4       10     8   6    3.7652   423.7    3.795      29.407
2015    4       10     8  12    3.7645   423.7    3.824      29.302
2015    4       10     8  18    3.7637   423.8    3.853      29.198
2015    4       10     8  24    3.7627   423.8    3.883      29.098
2015    4       10     8  31    3.7616   423.8    3.915      29.000
2015    4       10     8  37    3.7604   423.8    3.946      28.904
2015    4       10     8  43    3.7591   423.9    3.978      28.811
2015    4       10     8  49    3.7577   423.9    4.011      28.721
2015    4       10     8  55    3.7562   423.9    4.044      28.633
2015    4       10     9   1    3.7545   424.0    4.078      28.547
2015    4       10     9   7    3.7528   424.0    4.111      28.463
2015    4       10     9  13    3.7510   424.0    4.145      28.383
2015    4       10     9  19    3.7491   424.0    4.178      28.307
2015    4       10     9  25    3.7470   424.0    4.211      28.233
2015    4       10     9  31    3.7450   424.0    4.244      28.164
2015    4       10     9  37    3.7428   423.9    4.276      28.100
2015    4       10     9  43    3.7406   423.9    4.308      28.040
2015    4       10     9  49    3.7383   423.9    4.339      27.983
2015    4       10     9  55    3.7360   423.8    4.369      27.930
2015    4       10    10   1    3.7337   423.7    4.399      27.880
2015    4       10    10   7    3.7314   423.7    4.429      27.832
2015    4       10    10  13    3.7291   423.6    4.458      27.786
2015    4       10    10  19    3.7268   423.6    4.486      27.743
2015    4       10    10  25    3.7245   423.5    4.515      27.701
2015    4       10    10  31    3.7222   423.4    4.543      27.662
2015    4       10    10  37    3.7199   423.4    4.570      27.625
2015    4       10    10  43    3.7177   423.3    4.597      27.590
2015    4       10    10  49    3.7154   423.2    4.625      27.556
2015    4       10    10  55    3.7131   423.1    4.651      27.525
2015    4       10    11   1    3.7109   423.0    4.678      27.496
2015    4       10    11   7    3.7086   422.9    4.704      27.468
2015    4       10    11  13    3.7064   422.9    4.730      27.443
2015    4       10    11  19    3.7042   422.8    4.756      27.419
2015    4       10    11  25    3.7021   422.7    4.781      27.397
2015    4       10    11  31    3.6999   422.6    4.807      27.378
2015    4       10    11  37    3.6978   422.5    4.832      27.360
2015    4       10    11  44    3.6958   422.3    4.857      27.345
2015    4       10    11  50    3.6938   422.2    4.881      27.331
2015    4       10    11  56    3.6919   422.1    4.906      27.320
2015    4       10    12   2    3.6901   422.0    4.930      27.312
2015    4       10    12   8    3.6883   421.9    4.954      27.306
2015    4       10    12  14    3.6866   421.8    4.978      27.302
2015    4       10    12  20    3.6849   421.7    5.002      27.302
2015    4       10    12  26    3.6834   421.6    5.026      27.304
2015    4       10    12  32    3.6819   421.4    5.049      27.309
2015    4       10    12  38    3.6805   421.3    5.072      27.318
2015    4       10    12  44    3.6792   421.2    5.095      27.329
2015    4       10    12  50    3.6779   421.1    5.118      27.344
2015    4       10    12  56    3.6768   421.0    5.141      27.362
2015    4       10    13   2    3.6757   420.8    5.164      27.384
2015    4       10    13   8    3.6747   420.7    5.186      27.409
2015    4       10    13  14    3.6738   420.6    5.208      27.437
2015    4       10    13  20    3.6729   420.5    5.230      27.469
2015    4       10    13  26    3.6722   420.4    5.252      27.504
2015    4       10    13  32    3.6715   420.2    5.273      27.543
2015    4       10    13  38    3.6709   420.1    5.295      27.585
2015    4       10    13  44    3.6703   420.0    5.316      27.630
2015    4       10    13  50    3.6699   419.9    5.337      27.678
2015    4       10    13  56    3.6695   419.8    5.358      27.730
2015    4       10    14   2    3.6692   419.7    5.379      27.785
2015    4       10    14   8    3.6689   419.5    5.399      27.842
2015    4       10    14  14    3.6688   419.4    5.419      27.903
2015    4       10    14  20    3.6687   419.3    5.439      27.966
2015    4       10    14  26    3.6686   419.2    5.459      28.032
2015    4       10    14  32    3.6687   419.1    5.479      28.100
2015    4       10    14  38    3.6688   419.0    5.498      28.171
2015    4       10    14  44    3.6690   418.9    5.518      28.244
2015    4       10    14  51    3.6692   418.7    5.537      28.319
2015    4       10    14  57    3.6695   418.6    5.556      28.395
2015    4       10    15   3    3.6698   418.5    5.575      28.473
2015    4       10    15   9    3.6702   418.4    5.593      28.553
2015    4       10    15  15    3.6707   418.3    5.612      28.634
2015    4       10    15  21    3.6713   418.2    5.630      28.716
2015    4       10    15  27    3.6719   418.1    5.649      28.799
2015    4       10    15  33    3.6725   417.9    5.667      28.883
2015    4       10    15  39    3.6732   417.8    5.685      28.967
2015    4       10    15  45    3.6740   417.7    5.702      29.052
2015    4       10    15  51    3.6748   417.6    5.720      29.138
2015    4       10    15  57    3.6757   417.5    5.737      29.224
2015    4       10    16   3    3.6766   417.4    5.755      29.311
2015    4       10    16   9    3.6776   417.3    5.772      29.397
2015    4       10    16  15    3.6787   417.2    5.789      29.483
2015    4       10    16  21    3.6798   417.1    5.806      29.570
2015    4       10    16  27    3.6810   417.0    5.823      29.656
2015    4       10    16  33    3.6822   416.8    5.840      29.742
2015    4       10    16  39    3.6835   416.7    5.856      29.827
2015    4       10    16  45    3.6848   416.6    5.873      29.912
2015    4       10    16  51    3.6862   416.5    5.889      29.996
2015    4       10    16  57    3.6876   416.4    5.905      30.080
2015    4       10    17   3    3.6891   416.3    5.921      30.163
2015    4       10    17   9    3.6907   416.2    5.937      30.245
2015    4       10    17  15    3.6923   416.1    5.953      30.326
2015    4       10    17  21    3.6940   416.0    5.969      30.406
2015    4       10    17  27    3.6957   415.9    5.984      30.485
2015    4       10    17  33    3.6975   415.8    6.000      30.563
2015    4       10    17  39    3.6994   415.7    6.015      30.639
2015    4       10    17  45    3.7013   415.5    6.030      30.715
2015    4       10    17  51    3.7033   415.4    6.046      30.788
2015    4       10    17  57    3.7053   415.3    6.061      30.861
2015    4       10    18   4    3.7074   415.2    6.076      30.933
2015    4       10    18  10    3.7096   415.1    6.090      31.003
2015    4       10    18  16    3.7119   415.0    6.105      31.072
2015    4       10    18  22    3.7142   414.9    6.120      31.140
2015    4       10    18  28    3.7166   414.8    6.135      31.207
2015    4       10    18  34    3.7190   414.7    6.149      31.273
2015    4       10    18  40    3.7216   414.6    6.164      31.337
2015    4       10    18  46    3.7242   414.5    6.178      31.401
2015    4       10    18  52    3.7269   414.4    6.192      31.463
2015    4       10    18  58    3.7296   414.3    6.207      31.525
2015    4       10    19   4    3.7325   414.1    6.221      31.586
2015    4       10    19  10    3.7354   414.0    6.235      31.645
2015    4       10    19  16    3.7384   413.9    6.249      31.704
2015    4       10    19  22    3.7415   413.8    6.263      31.763
2015    4       10    19  28    3.7447   413.7    6.277      31.820
2015    4       10    19  34    3.7480   413.6    6.291      31.877
2015    4       10    19  40    3.7514   413.5    6.305      31.932
2015    4       10    19  46    3.7548   413.4    6.318      31.987
2015    4       10    19  52    3.7583   413.3    6.332      32.042
2015    4       10    19  58    3.7619   413.2    6.345      32.096
2015    4       10    20   4    3.7656   413.1    6.359      32.149
2015    4       10    20  10    3.7694   413.0    6.372      32.202
2015    4       10    20  16    3.7733   412.9    6.386      32.254
2015    4       10    20  22    3.7773   412.8    6.399      32.305
2015    4       10    20  28    3.7813   412.7    6.412      32.356
2015    4       10    20  34    3.7855   412.6    6.425      32.407
2015    4       10    20  40    3.7897   412.5    6.438      32.458
2015    4       10    20  46    3.7940   412.4    6.450      32.507
2015    4       10    20  52    3.7984   412.3    6.463      32.557
2015    4       10    20  58    3.8028   412.2    6.476      32.606
2015    4       10    21   4    3.8073   412.1    6.488      32.654
2015    4       10    21  10    3.8119   412.0    6.500      32.702
2015    4       10    21  17    3.8166   411.9    6.513      32.749
2015    4       10    21  23    3.8213   411.7    6.525      32.796
2015    4       10    21  29    3.8262   411.6    6.537      32.842
2015    4       10    21  35    3.8310   411.5    6.549      32.888
2015    4       10    21  41    3.8360   411.4    6.562      32.933
2015    4       10    21  47    3.8410   411.3    6.574      32.978
2015    4       10    21  53    3.8460   411.2    6.586      33.022
2015    4       10    21  59    3.8511   411.1    6.598      33.067
2015    4       10    22   5    3.8563   411.0    6.610      33.110
2015    4       10    22  11    3.8615   410.9    6.622      33.154
2015    4       10    22  17    3.8667   410.8    6.635      33.197
2015    4       10    22  23    3.8720   410.7    6.647      33.240
2015    4       10    22  29    3.8773   410.6    6.659      33.282
2015    4       10    22  35    3.8827   410.5    6.671      33.324
2015    4       10    22  41    3.8881   410.4    6.683      33.367
2015    4       10    22  47    3.8935   410.3    6.696      33.409
2015    4       10    22  53    3.8989   410.2    6.708      33.450
2015    4       10    22  59    3.9044   410.1    6.720      33.492
2015    4       10    23   5    3.9098   410.0    6.732      33.533
2015    4       10    23  11    3.9152   409.9    6.744      33.574
2015    4       10    23  17    3.9206   409.9    6.756      33.614
2015    4       10    23  23    3.9260   409.8    6.768      33.654
2015    4       10    23  29    3.9314   409.7    6.779      33.693
2015    4       10    23  35    3.9367   409.6    6.791      33.732
2015    4       10    23  41    3.9421   409.5    6.802      33.769
2015    4       10    23  47    3.9475   409.4    6.813      33.806
2015    4       10    23  53    3.9528   409.4    6.824      33.843
2015    4       10    23  59    3.9581   409.3    6.835      33.879
2015    4       11     0   5    3.9635   409.2    6.846      33.915
2015    4       11     0  11    3.9688   409.1    6.857      33.950
2015    4       11     0  17    3.9741   409.0    6.867      33.985
2015    4       11     0  24    3.9794   409.0    6.878      34.020
2015    4       11     0  30    3.9847   408.9    6.888      34.054
2015    4       11     0  36    3.9899   408.8    6.899      34.087
2015    4       11     0  42    3.9952   408.7    6.909      34.121
2015    4       11     0  48    4.0005   408.7    6.919      34.155
2015    4       11     0  54    4.0058   408.6    6.929      34.188
2015    4       11     1   0    4.0110   408.5    6.939      34.221
2015    4       11     1   6    4.0163   408.5    6.948      34.254
2015    4       11     1  12    4.0214   408.4    6.958      34.287
2015    4       11     1  18    4.0266   408.4    6.967      34.319
2015    4       11     1  24    4.0318   408.3    6.976      34.352
2015    4       11     1  30    4.0369   408.2    6.985      34.383
2015    4       11     1  36    4.0420   408.2    6.993      34.414
2015    4       11     1  42    4.0471   408.1    7.001      34.444
2015    4       11     1  48    4.0521   408.1    7.009      34.473
2015    4       11     1  54    4.0572   408.0    7.017      34.502
2015    4       11     2   0    4.0621   408.0    7.025      34.530
2015    4       11     2   6    4.0671   407.9    7.032      34.557
2015    4       11     2  12    4.0720   407.9    7.039      34.584
2015    4       11     2  18    4.0769   407.9    7.046      34.611
2015    4       11     2  24    4.0817   407.8    7.053      34.637
2015    4       11     2  30    4.0865   407.8    7.059      34.662
2015    4       11     2  36    4.0912   407.7    7.065      34.687
2015    4       11     2  42    4.0959   407.7    7.072      34.711
2015    4       11     2  48    4.1005   407.7    7.077      34.735
2015    4       11     2  54    4.1051   407.6    7.083      34.759
2015    4       11     3   0    4.1097   407.6    7.089      34.782
2015    4       11     3   6    4.1142   407.5    7.094      34.804
2015    4       11     3  12    4.1186   407.5    7.099      34.827
2015    4       11     3  18    4.1230   407.5    7.104      34.849
2015    4       11     3  24    4.1274   407.4    7.109      34.870
2015    4       11     3  30    4.1317   407.4    7.114      34.891
2015    4       11     3  36    4.1359   407.4    7.118      34.912
2015    4       11     3  43    4.1401   407.4    7.122      34.932
2015    4       11     3  49    4.1442   407.3    7.126      34.952
2015    4       11     3  55    4.1483   407.3    7.130      34.972
2015    4       11     4   1    4.1523   407.3    7.134      34.992
2015    4       11     4   7    4.1562   407.2    7.138      35.011
2015    4       11     4  13    4.1601   407.2    7.141      35.029
2015    4       11     4  19    4.1640   407.2    7.145      35.048
2015    4       11     4  25    4.1677   407.2    7.148      35.066
2015    4       11     4  31    4.1715   407.1    7.151      35.084
2015    4       11     4  37    4.1751   407.1    7.154      35.102
2015    4       11     4  43    4.1787   407.1    7.157      35.119
2015    4       11     4  49    4.1823   407.1    7.160      35.136
2015    4       11     4  55    4.1858   407.1    7.162      35.153
2015    4       11     5   1    4.1892   407.0    7.165      35.169
2015    4       11     5   7    4.1926   407.0    7.167      35.186
2015    4       11     5  13    4.1960   407.0    7.170      35.202
2015    4       11     5  19    4.1992   407.0    7.172      35.218
2015    4       11     5  25    4.2025   407.0    7.174      35.233
2015    4       11     5  31    4.2056   406.9    7.176      35.248
2015    4       11     5  37    4.2088   406.9    7.178      35.264
2015    4       11     5  43    4.2118   406.9    7.180      35.279
2015    4       11     5  49    4.2148   406.9    7.181      35.293
2015    4       11     5  55    4.2178   406.9    7.183      35.307
2015    4       11     6   1    4.2207   406.8    7.185      35.322
2015    4       11     6   7    4.2236   406.8    7.186      35.336
2015    4       11     6  13    4.2264   406.8    7.188      35.349
2015    4       11     6  19    4.2292   406.8    7.189      35.363
2015    4       11     6  25    4.2319   406.8    7.190      35.376
2015    4       11     6  31    4.2345   406.8    7.192      35.389
2015    4       11     6  37    4.2372   406.8    7.193      35.403
2015    4       11     6  43    4.2398   406.7    7.194      35.415
2015    4       11     6  50    4.2423   406.7    7.195      35.428
2015    4       11     6  56    4.2448   406.7    7.196      35.440
2015    4       11     7   2    4.2472   406.7    7.197      35.452
2015    4       11     7   8    4.2496   406.7    7.198      35.464
2015    4       11     7  14    4.2520   406.7    7.199      35.476
2015    4       11     7  20    4.2543   406.7    7.199      35.488
2015    4       11     7  26    4.2566   406.7    7.200      35.499
2015    4       11     7  32    4.2588   406.6    7.201      35.511
2015    4       11     7  38    4.2610   406.6    7.202      35.522
2015    4       11     7  44    4.2632   406.6    7.202      35.533
2015    4       11     7  50    4.2653   406.6    7.203      35.543
2015    4       11     7  56    4.2674   406.6    7.203      35.554
2015    4       11     8   2    4.2694   406.6    7.204      35.565
2015    4       11     8   8    4.2714   406.6    7.205      35.575
2015    4       11     8  14    4.2734   406.6    7.205      35.586
2015    4       11     8  20    4.2753   406.6    7.205      35.596
2015    4       11     8  26    4.2772   406.5    7.206      35.606
2015    4       11     8  32    4.2790   406.5    7.206      35.616
2015    4       11     8  38    4.2809   406.5    7.207      35.626
2015    4       11     8  44    4.2827   406.5    7.207      35.636
2015    4       11     8  50    4.2844   406.5    7.207      35.646
2015    4       11     8  56    4.2861   406.5    7.208      35.656
2015    4       11     9   2    4.2878   406.5    7.208      35.666
2015    4       11     9   8    4.2895   406.5    7.208      35.676
2015    4       11     9  14    4.2911   406.5    7.208      35.686
2015    4       11     9  20    4.2927   406.5    7.209      35.696
2015    4       11     9  26    4.2942   406.4    7.209      35.706
2015    4       11     9  32    4.2957   406.4    7.209      35.716
2015    4       11     9  38    4.2972   406.4    7.209      35.726
2015    4       11     9  44    4.2987   406.4    7.209      35.736
2015    4       11     9  50    4.3001   406.4    7.209      35.745
2015    4       11     9  56    4.3015   406.4    7.209      35.755
2015    4       11    10   3    4.3028   406.4    7.210      35.766
2015    4       11    10   9    4.3042   406.4    7.210      35.776
2015    4       11    10  15    4.3055   406.4    7.210      35.785
2015    4       11    10  21    4.3067   406.4    7.210      35.795
2015    4       11    10  27    4.3080   406.4    7.210      35.805
2015    4       11    10  33    4.3092   406.4    7.210      35.815
2015    4       11    10  39    4.3103   406.4    7.210      35.825
2015    4       11    10  45    4.3115   406.3    7.210      35.835
2015    4       11    10  51    4.3126   406.3    7.210      35.845
2015    4       11    10  57    4.3137   406.3    7.210      35.855
2015    4       11    11   3    4.3148   406.3    7.209      35.864
2015    4       11    11   9    4.3158   406.3    7.209      35.874
2015    4       11    11  15    4.3168   406.3    7.209      35.883
2015    4       11    11  21    4.3178   406.3    7.209      35.893
2015    4       11    11  27    4.3187   406.3    7.209      35.902
2015    4       11    11  33    4.3197   406.3    7.209      35.911
2015    4       11    11  39    4.3206   406.3    7.209      35.920
2015    4       11    11  45    4.3215   406.3    7.208      35.929
2015    4       11    11  51    4.3223   406.3    7.208      35.938
2015    4       11    11  57    4.3232   406.3    7.208      35.946
2015    4       11    12   3    4.3240   406.3    7.208      35.955
2015    4       11    12   9    4.3248   406.2    7.207      35.963
2015    4       11    12  15    4.3256   406.2    7.207      35.971
2015    4       11    12  21    4.3264   406.2    7.207      35.979
2015    4       11    12  27    4.3271   406.2    7.206      35.987
2015    4       11    12  33    4.3278   406.2    7.206      35.994
2015    4       11    12  39    4.3286   406.2    7.206      36.002
2015    4       11    12  45    4.3293   406.2    7.205      36.009
2015    4       11    12  51    4.3300   406.2    7.205      36.016
2015    4       11    12  57    4.3306   406.2    7.205      36.022
2015    4       11    13   3    4.3313   406.2    7.204      36.029
2015    4       11    13  10    4.3319   406.2    7.204      36.035
2015    4       11    13  16    4.3326   406.1    7.203      36.042
2015    4       11    13  22    4.3332   406.1    7.203      36.048
2015    4       11    13  28    4.3338   406.1    7.203      36.053
2015    4       11    13  34    4.3344   406.1    7.202      36.059
2015    4       11    13  40    4.3350   406.1    7.202      36.065
2015    4       11    13  46    4.3356   406.1    7.201      36.070
2015    4       11    13  52    4.3362   406.1    7.201      36.075
2015    4       11    13  58    4.3368   406.1    7.201      36.080
2015    4       11    14   4    4.3373   406.1    7.200      36.085
2015    4       11    14  10    4.3379   406.0    7.200      36.090
2015    4       11    14  16    4.3385   406.0    7.200      36.094
2015    4       11    14  22    4.3390   406.0    7.199      36.099
2015    4       11    14  28    4.3396   406.0    7.199      36.103
2015    4       11    14  34    4.3401   406.0    7.199      36.108
2015    4       11    14  40    4.3406   406.0    7.198      36.112
2015    4       11    14  46    4.3411   406.0    7.198      36.116
2015    4       11    14  52    4.3416   406.0    7.198      36.120
2015    4       11    14  58    4.3422   405.9    7.198      36.124
2015    4       11    15   4    4.3427   405.9    7.198      36.128
2015    4       11    15  10    4.3431   405.9    7.197      36.132
2015    4       11    15  16    4.3436   405.9    7.197      36.136
2015    4       11    15  22    4.3441   405.9    7.197      36.140
2015    4       11    15  28    4.3446   405.9    7.197      36.144
2015    4       11    15  34    4.3451   405.9    7.197      36.148
2015    4       11    15  40    4.3455   405.9    7.197      36.152
2015    4       11    15  46    4.3460   405.8    7.197      36.156
2015    4       11    15  52    4.3464   405.8    7.197      36.160
2015    4       11    15  58    4.3468   405.8    7.197      36.164
2015    4       11    16   4    4.3473   405.8    7.197      36.168
2015    4       11    16  10    4.3477   405.8    7.197      36.172
2015    4       11    16  16    4.3481   405.8    7.198      36.176
2015    4       11    16  23    4.3485   405.8    7.198      36.180
2015    4       11    16  29    4.3489   405.7    7.198      36.184
2015    4       11    16  35    4.3493   405.7    7.198      36.189
2015    4       11    16  41    4.3496   405.7    7.198      36.193
2015    4       11    16  47    4.3500   405.7    7.198      36.197
2015    4       11    16  53    4.3504   405.7    7.199      36.201
2015    4       11    16  59    4.3507   405.7    7.199      36.206
2015    4       11    17   5    4.3511   405.6    7.199      36.210
2015    4       11    17  11    4.3514   405.6    7.199      36.214
2015    4       11    17  17    4.3517   405.6    7.199      36.218
2015    4       11    17  23    4.3521   405.6    7.200      36.223
2015    4       11    17  29    4.3524   405.6    7.200      36.227
2015    4       11    17  35    4.3527   405.6    7.200      36.231
2015    4       11    17  41    4.3530   405.6    7.200      36.236
2015    4       11    17  47    4.3533   405.5    7.200      36.240
2015    4       11    17  53    4.3536   405.5    7.200      36.245
2015    4       11    17  59    4.3539   405.5    7.200      36.249
2015    4       11    18   5    4.3542   405.5    7.201      36.253
2015    4       11    18  11    4.3545   405.5    7.201      36.258
2015    4       11    18  17    4.3547   405.4    7.201      36.262
2015    4       11    18  23    4.3550   405.4    7.201      36.266
2015    4       11    18  29    4.3553   405.4    7.201      36.270
2015    4       11    18  35    4.3555   405.4    7.201      36.274
2015    4       11    18  41    4.3558   405.4    7.201      36.278
2015    4       11    18  47    4.3560   405.4    7.201      36.282
2015    4       11    18  53    4.3562   405.3    7.201      36.286
2015    4       11    18  59    4.3565   405.3    7.200      36.290
2015    4       11    19   5    4.3567   405.3    7.200      36.294
2015    4       11    19  11    4.3569   405.3    7.200      36.298
2015    4       11    19  17    4.3571   405.3    7.200      36.302
2015    4       11    19  23    4.3573   405.2    7.200      36.305
2015    4       11    19  30    4.3575   405.2    7.200      36.309
2015    4       11    19  36    4.3577   405.2    7.199      36.312
2015    4       11    19  42    4.3578   405.2    7.199      36.315
2015    4       11    19  48    4.3580   405.2    7.199      36.318
2015    4       11    19  54    4.3582   405.1    7.199      36.321
2015    4       11    20   0    4.3583   405.1    7.198      36.324
2015    4       11    20   6    4.3585   405.1    7.198      36.326
2015    4       11    20  12    4.3586   405.1    7.198      36.328
2015    4       11    20  18    4.3587   405.1    7.197      36.331
2015    4       11    20  24    4.3589   405.0    7.197      36.333
2015    4       11    20  30    4.3590   405.0    7.196      36.334
2015    4       11    20  36    4.3591   405.0    7.196      36.336
2015    4       11    20  42    4.3592   405.0    7.195      36.337
2015    4       11    20  48    4.3593   405.0    7.195      36.339
2015    4       11    20  54    4.3594   404.9    7.195      36.340
2015    4       11    21   0    4.3595   404.9    7.194      36.341
2015    4       11    21   6    4.3595   404.9    7.193      36.342
2015    4       11    21  12    4.3596   404.9    7.193      36.342
2015    4       11    21  18    4.3597   404.9    7.192      36.343
2015    4       11    21  24    4.3598   404.8    7.192      36.343
2015    4       11    21  30    4.3598   404.8    7.191      36.343
2015    4       11    21  36    4.3599   404.8    7.191      36.343
2015    4       11    21  42    4.3599   404.8    7.190      36.343
2015    4       11    21  48    4.3600   404.8    7.190      36.343
2015    4       11    21  54    4.3600   404.7    7.189      36.343
2015    4       11    22   0    4.3601   404.7    7.188      36.342
2015    4       11    22   6    4.3601   404.7    7.188      36.341
2015    4       11    22  12    4.3601   404.7    7.187      36.340
2015    4       11    22  18    4.3602   404.7    7.187      36.340
2015    4       11    22  24    4.3602   404.6    7.186      36.339
2015    4       11    22  30    4.3602   404.6    7.186      36.337
2015    4       11    22  36    4.3602   404.6    7.185      36.336
2015    4       11    22  43    4.3603   404.6    7.184      36.335
2015    4       11    22  49    4.3603   404.6    7.184      36.334
2015    4       11    22  55    4.3603   404.5    7.183      36.332
2015    4       11    23   1    4.3603   404.5    7.183      36.330
2015    4       11    23   7    4.3603   404.5    7.182      36.329
2015    4       11    23  13    4.3603   404.5    7.182      36.327
2015    4       11    23  19    4.3603   404.4    7.181      36.325
2015    4       11    23  25    4.3603   404.4    7.181      36.323
2015    4       11    23  31    4.3603   404.4    7.180      36.322
2015    4       11    23  37    4.3603   404.4    7.180      36.320
2015    4       11    23  43    4.3603   404.4    7.179      36.318
2015    4       11    23  49    4.3603   404.3    7.179      36.316
2015    4       11    23  55    4.3603   404.3    7.178      36.314
2015    4       12     0   1    4.3603   404.3    7.178      36.312
2015    4       12     0   7    4.3603   404.3    7.177      36.309
2015    4       12     0  13    4.3602   404.3    7.177      36.307
2015    4       12     0  19    4.3602   404.2    7.177      36.305
2015    4       12     0  25    4.3602   404.2    7.176      36.303
2015    4       12     0  31    4.3602   404.2    7.176      36.301
2015    4       12     0  37    4.3602   404.2    7.175      36.299
2015    4       12     0  43    4.3602   404.1    7.175      36.297
2015    4       12     0  49    4.3602   404.1    7.175      36.295
2015    4       12     0  55    4.3601   404.1    7.174      36.293
2015    4       12     1   1    4.3601   404.1    7.174      36.291
2015    4       12     1   7    4.3601   404.1    7.174      36.289
2015    4       12     1  13    4.3601   404.0    7.174      36.287
2015    4       12     1  19    4.3601   404.0    7.173      36.285
2015    4       12     1  25    4.3601   404.0    7.173      36.283
2015    4       12     1  31    4.3600   404.0    7.173      36.281
2015    4       12     1  37    4.3600   403.9    7.173      36.279
2015    4       12     1  43    4.3600   403.9    7.172      36.277
2015    4       12     1  49    4.3600   403.9    7.172      36.275
2015    4       12     1  56    4.3600   403.9    7.172      36.273
2015    4       12     2   2    4.3600   403.9    7.172      36.272
2015    4       12     2   8    4.3600   403.8    7.171      36.270
2015    4       12     2  14    4.3599   403.8    7.171      36.268
2015    4       12     2  20    4.3599   403.8    7.171      36.266
2015    4       12     2  26    4.3599   403.8    7.171      36.264
2015    4       12     2  32    4.3599   403.7    7.171      36.262
2015    4       12     2  38    4.3599   403.7    7.171      36.260
2015    4       12     2  44    4.3599   403.7    7.170      36.257
2015    4       12     2  50    4.3599   403.7    7.170      36.255
2015    4       12     2  56    4.3599   403.6    7.170      36.253
2015    4       12     3   2    4.3599   403.6    7.170      36.251
2015    4       12     3   8    4.3600   403.6    7.170      36.249
2015    4       12     3  14    4.3600   403.6    7.170      36.246
2015    4       12     3  20    4.3600   403.5    7.170      36.244
2015    4       12     3  26    4.3601   403.5    7.170      36.242
2015    4       12     3  32    4.3601   403.5    7.170      36.239
2015    4       12     3  38    4.3601   403.5    7.170      36.237
2015    4       12     3  44    4.3602   403.4    7.170      36.235
2015    4       12     3  50    4.3603   403.4    7.170      36.232
2015    4       12     3  56    4.3604   403.4    7.170      36.230
2015    4       12     4   2    4.3605   403.4    7.170      36.227
2015    4       12     4   8    4.3606   403.3    7.171      36.225
2015    4       12     4  14    4.3607   403.3    7.171      36.222
2015    4       12     4  20    4.3608   403.3    7.171      36.220
2015    4       12     4  26    4.3609   403.3    7.171      36.218
2015    4       12     4  32    4.3611   403.2    7.172      36.215
2015    4       12     4  38    4.3612   403.2    7.172      36.213
2015    4       12     4  44    4.3614   403.2    7.172      36.211
2015    4       12     4  50    4.3616   403.1    7.173      36.208
2015    4       12     4  56    4.3618   403.1    7.173      36.206
2015    4       12     5   3    4.3620   403.1    7.174      36.203
2015    4       12     5   9    4.3621   403.1    7.174      36.201
2015    4       12     5  15    4.3624   403.0    7.175      36.199
2015    4       12     5  21    4.3626   403.0    7.175      36.197
2015    4       12     5  27    4.3628   403.0    7.176      36.194
2015    4       12     5  33    4.3630   402.9    7.177      36.192
2015    4       12     5  39    4.3632   402.9    7.177      36.189
2015    4       12     5  45    4.3635   402.9    7.178      36.187
2015    4       12     5  51    4.3637   402.8    7.179      36.185
2015    4       12     5  57    4.3639   402.8    7.179      36.182
2015    4       12     6   3    4.3641   402.8    7.180      36.179
2015    4       12     6   9    4.3643   402.8    7.181      36.177
2015    4       12     6  15    4.3646   402.7    7.181      36.174
2015    4       12     6  21    4.3648   402.7    7.182      36.171
2015    4       12     6  27    4.3650   402.7    7.183      36.169
2015    4       12     6  33    4.3652   402.6    7.183      36.166
2015    4       12     6  39    4.3654   402.6    7.184      36.163
2015    4       12     6  45    4.3656   402.6    7.185      36.160
2015    4       12     6  51    4.3658   402.5    7.185      36.156
2015    4       12     6  57    4.3660   402.5    7.186      36.153
2015    4       12     7   3    4.3662   402.5    7.187      36.150
2015    4       12     7   9    4.3664   402.4    7.187      36.146
2015    4       12     7  15    4.3666   402.4    7.188      36.142
2015    4       12     7  21    4.3668   402.4    7.189      36.139
2015    4       12     7  27    4.3670   402.3    7.189      36.135
2015    4       12     7  33    4.3671   402.3    7.190      36.131
2015    4       12     7  39    4.3673   402.3    7.190      36.127
2015    4       12     7  45    4.3675   402.2    7.191      36.123
2015    4       12     7  51    4.3677   402.2    7.191      36.120
2015    4       12     7  57    4.3680   402.2    7.192      36.115
2015    4       12     8   3    4.3682   402.1    7.193      36.111
2015    4       12     8   9    4.3684   402.1    7.193      36.107
2015    4       12     8  15    4.3686   402.0    7.194      36.103
2015    4       12     8  22    4.3688   402.0    7.194      36.099
2015    4       12     8  28    4.3691   402.0    7.195      36.095
2015    4       12     8  34    4.3693   401.9    7.196      36.091
2015    4       12     8  40    4.3696   401.9    7.196      36.087
2015    4       12     8  46    4.3699   401.9    7.197      36.083
2015    4       12     8  52    4.3702   401.8    7.198      36.079
2015    4       12     8  58    4.3705   401.8    7.198      36.075
2015    4       12     9   4    4.3708   401.7    7.199      36.071
2015    4       12     9  10    4.3711   401.7    7.200      36.067
2015    4       12     9  16    4.3715   401.7    7.201      36.063
2015    4       12     9  22    4.3718   401.6    7.202      36.060
2015    4       12     9  28    4.3722   401.6    7.203      36.057
2015    4       12     9  34    4.3726   401.5    7.204      36.053
2015    4       12     9  40    4.3731   401.5    7.205      36.050
2015    4       12     9  46    4.3735   401.5    7.206      36.047
2015    4       12     9  52    4.3740   401.4    7.207      36.044
2015    4       12     9  58    4.3745   401.4    7.209      36.041
2015    4       12    10   4    4.3750   401.3    7.210      36.039
2015    4       12    10  10    4.3755   401.3    7.211      36.036
2015    4       12    10  16    4.3760   401.3    7.213      36.034
2015    4       12    10  22    4.3766   401.2    7.214      36.032
2015    4       12    10  28    4.3772   401.2    7.216      36.029
2015    4       12    10  34    4.3778   401.1    7.218      36.028
2015    4       12    10  40    4.3784   401.1    7.219      36.026
2015    4       12    10  46    4.3790   401.1    7.221      36.024
2015    4       12    10  52    4.3797   401.0    7.223      36.022
2015    4       12    10  58    4.3803   401.0    7.225      36.021
2015    4       12    11   4    4.3810   400.9    7.227      36.019
2015    4       12    11  10    4.3817   400.9    7.229      36.018
2015    4       12    11  16    4.3824   400.9    7.231      36.016
2015    4       12    11  22    4.3831   400.8    7.234      36.015
2015    4       12    11  29    4.3838   400.8    7.236      36.014
2015    4       12    11  35    4.3845   400.7    7.238      36.013
2015    4       12    11  41    4.3853   400.7    7.241      36.012
2015    4       12    11  47    4.3860   400.7    7.243      36.010
2015    4       12    11  53    4.3868   400.6    7.246      36.009
2015    4       12    11  59    4.3875   400.6    7.248      36.008
2015    4       12    12   5    4.3883   400.5    7.251      36.007
2015    4       12    12  11    4.3891   400.5    7.254      36.006
2015    4       12    12  17    4.3898   400.4    7.256      36.005
2015    4       12    12  23    4.3906   400.4    7.259      36.004
2015    4       12    12  29    4.3914   400.4    7.262      36.003
2015    4       12    12  35    4.3922   400.3    7.265      36.002
2015    4       12    12  41    4.3930   400.3    7.267      36.001
2015    4       12    12  47    4.3938   400.2    7.270      36.000
2015    4       12    12  53    4.3946   400.2    7.273      35.999
2015    4       12    12  59    4.3954   400.1    7.276      35.998
2015    4       12    13   5    4.3963   400.1    7.279      35.996
2015    4       12    13  11    4.3971   400.0    7.282      35.995
2015    4       12    13  17    4.3980   400.0    7.285      35.995
2015    4       12    13  23    4.3988   399.9    7.289      35.993
2015    4       12    13  29    4.3997   399.9    7.292      35.993
2015    4       12    13  35    4.4006   399.8    7.295      35.992
2015    4       12    13  41    4.4015   399.8    7.298      35.991
2015    4       12    13  47    4.4024   399.8    7.302      35.990
2015    4       12    13  53    4.4033   399.7    7.305      35.990
2015    4       12    13  59    4.4042   399.7    7.308      35.989
2015    4       12    14   5    4.4051   399.6    7.312      35.989
2015    4       12    14  11    4.4061   399.6    7.315      35.989
2015    4       12    14  17    4.4070   399.5    7.319      35.989
2015    4       12    14  23    4.4080   399.5    7.323      35.989
2015    4       12    14  29    4.4090   399.4    7.326      35.988
2015    4       12    14  35    4.4100   399.4    7.330      35.988
2015    4       12    14  42    4.4110   399.3    7.334      35.989
2015    4       12    14  48    4.4120   399.3    7.337      35.989
2015    4       12    14  54    4.4130   399.2    7.341      35.989
2015    4       12    15   0    4.4141   399.2    7.345      35.989
2015    4       12    15   6    4.4151   399.1    7.349      35.989
2015    4       12    15  12    4.4162   399.1    7.353      35.990
2015    4       12    15  18    4.4172   399.1    7.357      35.990
2015    4       12    15  24    4.4183   399.0    7.361      35.991
2015    4       12    15  30    4.4194   399.0    7.365      35.991
2015    4       12    15  36    4.4205   398.9    7.369      35.992
2015    4       12    15  42    4.4217   398.9    7.373      35.992
2015    4       12    15  48    4.4228   398.8    7.377      35.993
2015    4       12    15  54    4.4240   398.8    7.381      35.994
2015    4       12    16   0    4.4252   398.7    7.385      35.995
2015    4       12    16   6    4.4264   398.7    7.389      35.996
2015    4       12    16  12    4.4276   398.6    7.394      35.997
2015    4       12    16  18    4.4288   398.6    7.398      35.999
2015    4       12    16  24    4.4301   398.6    7.403      36.000
2015    4       12    16  30    4.4314   398.5    7.407      36.002
2015    4       12    16  36    4.4327   398.5    7.412      36.004
2015    4       12    16  42    4.4340   398.4    7.417      36.006
2015    4       12    16  48    4.4354   398.4    7.422      36.009
2015    4       12    16  54    4.4368   398.3    7.427      36.011
2015    4       12    17   0    4.4382   398.3    7.432      36.015
2015    4       12    17   6    4.4397   398.2    7.437      36.018
2015    4       12    17  12    4.4412   398.2    7.443      36.022
2015    4       12    17  18    4.4427   398.1    7.448      36.026
2015    4       12    17  24    4.4443   398.1    7.454      36.031
2015    4       12    17  30    4.4459   398.1    7.460      36.036
2015    4       12    17  36    4.4475   398.0    7.466      36.042
2015    4       12    17  42    4.4492   398.0    7.472      36.048
2015    4       12    17  49    4.4510   397.9    7.479      36.055
2015    4       12    17  55    4.4527   397.9    7.486      36.063
2015    4       12    18   1    4.4546   397.9    7.492      36.071
2015    4       12    18   7    4.4564   397.8    7.500      36.079
2015    4       12    18  13    4.4583   397.8    7.507      36.088
2015    4       12    18  19    4.4603   397.7    7.514      36.098
2015    4       12    18  25    4.4623   397.7    7.522      36.108
2015    4       12    18  31    4.4643   397.7    7.530      36.119
2015    4       12    18  37    4.4664   397.6    7.539      36.131
2015    4       12    18  43    4.4684   397.6    7.547      36.144
2015    4       12    18  49    4.4706   397.6    7.555      36.157
2015    4       12    18  55    4.4727   397.5    7.564      36.171
2015    4       12    19   1    4.4749   397.5    7.573      36.186
2015    4       12    19   7    4.4771   397.5    7.582      36.201
2015    4       12    19  13    4.4793   397.4    7.592      36.217
2015    4       12    19  19    4.4815   397.4    7.601      36.234
2015    4       12    19  25    4.4837   397.4    7.610      36.251
2015    4       12    19  31    4.4858   397.4    7.620      36.269
2015    4       12    19  37    4.4880   397.3    7.629      36.288
2015    4       12    19  43    4.4901   397.3    7.638      36.307
2015    4       12    19  49    4.4923   397.3    7.648      36.327
2015    4       12    19  55    4.4944   397.3    7.657      36.348
2015    4       12    20   1    4.4965   397.2    7.666      36.368
2015    4       12    20   7    4.4986   397.2    7.674      36.388
2015    4       12    20  13    4.5007   397.2    7.683      36.407
2015    4       12    20  19    4.5027   397.2    7.692      36.426
2015    4       12    20  25    4.5048   397.1    7.700      36.445
2015    4       12    20  31    4.5068   397.1    7.708      36.463
2015    4       12    20  37    4.5088   397.1    7.717      36.481
2015    4       12    20  43    4.5109   397.1    7.725      36.499
2015    4       12    20  49    4.5129   397.1    7.733      36.516
2015    4       12    20  55    4.5149   397.0    7.741      36.533
2015    4       12    21   2    4.5169   397.0    7.748      36.550
2015    4       12    21   8    4.5188   397.0    7.756      36.566
2015    4       12    21  14    4.5208   397.0    7.764      36.582
2015    4       12    21  20    4.5228   397.0    7.771      36.598
2015    4       12    21  26    4.5248   397.0    7.779      36.614
2015    4       12    21  32    4.5267   396.9    7.786      36.629
2015    4       12    21  38    4.5287   396.9    7.793      36.644
2015    4       12    21  44    4.5307   396.9    7.801      36.659
2015    4       12    21  50    4.5327   396.9    7.808      36.674
2015    4       12    21  56    4.5346   396.9    7.815      36.688
2015    4       12    22   2    4.5366   396.9    7.822      36.702
2015    4       12    22   8    4.5386   396.8    7.829      36.716
2015    4       12    22  14    4.5406   396.8    7.836      36.730
2015    4       12    22  20    4.5426   396.8    7.843      36.743
2015    4       12    22  26    4.5445   396.8    7.850      36.756
2015    4       12    22  32    4.5465   396.8    7.857      36.770
2015    4       12    22  38    4.5485   396.8    7.863      36.782
2015    4       12    22  44    4.5506   396.8    7.870      36.795
2015    4       12    22  50    4.5526   396.8    7.877      36.807
2015    4       12    22  56    4.5546   396.7    7.884      36.820
2015    4       12    23   2    4.5566   396.7    7.890      36.832
2015    4       12    23   8    4.5587   396.7    7.897      36.844
2015    4       12    23  14    4.5607   396.7    7.903      36.856
2015    4       12    23  20    4.5628   396.7    7.910      36.868
2015    4       12    23  26    4.5649   396.7    7.917      36.880
2015    4       12    23  32    4.5670   396.7    7.923      36.891
2015    4       12    23  38    4.5691   396.7    7.930      36.903
2015    4       12    23  44    4.5713   396.7    7.936      36.915
2015    4       12    23  50    4.5734   396.7    7.943      36.927
2015    4       12    23  56    4.5756   396.7    7.950      36.939
2015    4       13     0   2    4.5778   396.7    7.957      36.951
2015    4       13     0   8    4.5800   396.7    7.964      36.963
2015    4       13     0  15    4.5823   396.7    7.970      36.976
2015    4       13     0  21    4.5846   396.7    7.977      36.989
2015    4       13     0  27    4.5869   396.7    7.985      37.002
2015    4       13     0  33    4.5892   396.7    7.992      37.016
2015    4       13     0  39    4.5916   396.7    7.999      37.030
2015    4       13     0  45    4.5940   396.7    8.007      37.044
2015    4       13     0  51    4.5964   396.7    8.015      37.059
2015    4       13     0  57    4.5989   396.7    8.023      37.074
2015    4       13     1   3    4.6014   396.7    8.031      37.090
2015    4       13     1   9    4.6040   396.7    8.039      37.108
2015    4       13     1  15    4.6066   396.7    8.048      37.125
2015    4       13     1  21    4.6092   396.7    8.057      37.144
2015    4       13     1  27    4.6118   396.7    8.066      37.163
2015    4       13     1  33    4.6145   396.7    8.075      37.183
2015    4       13     1  39    4.6172   396.7    8.084      37.203
2015    4       13     1  45    4.6199   396.8    8.094      37.225
2015    4       13     1  51    4.6226   396.8    8.104      37.248
2015    4       13     1  57    4.6253   396.8    8.114      37.272
2015    4       13     2   3    4.6280   396.8    8.124      37.296
2015    4       13     2   9    4.6306   396.9    8.134      37.322
2015    4       13     2  15    4.6333   396.9    8.144      37.348
2015    4       13     2  21    4.6359   396.9    8.154      37.376
2015    4       13     2  27    4.6385   397.0    8.164      37.404
2015    4       13     2  33    4.6411   397.0    8.174      37.431
2015    4       13     2  39    4.6436   397.0    8.184      37.459
2015    4       13     2  45    4.6461   397.1    8.193      37.486
2015    4       13     2  51    4.6486   397.1    8.203      37.514
2015    4       13     2  57    4.6510   397.1    8.213      37.541
2015    4       13     3   3    4.6534   397.2    8.222      37.569
2015    4       13     3   9    4.6558   397.2    8.231      37.598
2015    4       13     3  15    4.6581   397.2    8.241      37.626
2015    4       13     3  22    4.6604   397.3    8.249      37.654
2015    4       13     3  28    4.6627   397.3    8.258      37.683
2015    4       13     3  34    4.6650   397.4    8.266      37.712
2015    4       13     3  40    4.6672   397.4    8.274      37.741
2015    4       13     3  46    4.6694   397.4    8.282      37.769
2015    4       13     3  52    4.6716   397.5    8.290      37.796
2015    4       13     3  58    4.6738   397.5    8.297      37.823
2015    4       13     4   4    4.6759   397.5    8.305      37.850
2015    4       13     4  10    4.6781   397.6    8.312      37.876
2015    4       13     4  16    4.6802   397.6    8.319      37.902
2015    4       13     4  22    4.6823   397.7    8.325      37.928
2015    4       13     4  28    4.6844   397.7    8.332      37.953
2015    4       13     4  34    4.6865   397.7    8.338      37.978
2015    4       13     4  40    4.6886   397.8    8.344      38.002
2015    4       13     4  46    4.6906   397.8    8.350      38.026
2015    4       13     4  52    4.6926   397.9    8.356      38.050
2015    4       13     4  58    4.6947   397.9    8.361      38.073
2015    4       13     5   4    4.6967   398.0    8.367      38.096
2015    4       13     5  10    4.6987   398.0    8.372      38.119
2015    4       13     5  16    4.7007   398.0    8.377      38.141
2015    4       13     5  22    4.7026   398.1    8.382      38.163
2015    4       13     5  28    4.7046   398.1    8.387      38.184
2015    4       13     5  34    4.7065   398.2    8.391      38.205
2015    4       13     5  40    4.7085   398.2    8.396      38.226
2015    4       13     5  46    4.7104   398.3    8.400      38.246
2015    4       13     5  52    4.7123   398.3    8.404      38.266
2015    4       13     5  58    4.7142   398.3    8.408      38.286
2015    4       13     6   4    4.7161   398.4    8.412      38.306
2015    4       13     6  10    4.7179   398.4    8.416      38.325
2015    4       13     6  16    4.7198   398.5    8.420      38.343
2015    4       13     6  22    4.7217   398.5    8.423      38.362
2015    4       13     6  28    4.7235   398.6    8.427      38.380
2015    4       13     6  34    4.7253   398.6    8.430      38.398
2015    4       13     6  41    4.7272   398.7    8.433      38.416
2015    4       13     6  47    4.7290   398.7    8.437      38.433
2015    4       13     6  53    4.7309   398.7    8.440      38.451
2015    4       13     6  59    4.7327   398.8    8.443      38.468
2015    4       13     7   5    4.7345   398.8    8.446      38.485
2015    4       13     7  11    4.7364   398.9    8.450      38.502
2015    4       13     7  17    4.7382   398.9    8.453      38.518
2015    4       13     7  23    4.7401   399.0    8.456      38.535
2015    4       13     7  29    4.7420   399.0    8.459      38.551
2015    4       13     7  35    4.7438   399.1    8.462      38.568
2015    4       13     7  41    4.7457   399.1    8.465      38.584
2015    4       13     7  47    4.7476   399.2    8.468      38.601
2015    4       13     7  53    4.7495   399.2    8.472      38.618
2015    4       13     7  59    4.7515   399.3    8.475      38.634
2015    4       13     8   5    4.7534   399.3    8.479      38.651
2015    4       13     8  11    4.7554   399.4    8.482      38.668
2015    4       13     8  17    4.7573   399.4    8.486      38.685
2015    4       13     8  23    4.7593   399.5    8.490      38.703
2015    4       13     8  29    4.7613   399.5    8.493      38.721
2015    4       13     8  35    4.7633   399.6    8.497      38.739
2015    4       13     8  41    4.7653   399.7    8.501      38.758
2015    4       13     8  47    4.7674   399.7    8.505      38.776
2015    4       13     8  53    4.7694   399.8    8.510      38.795
2015    4       13     8  59    4.7714   399.8    8.514      38.815
2015    4       13     9   5    4.7734   399.9    8.518      38.836
2015    4       13     9  11    4.7753   400.0    8.522      38.857
2015    4       13     9  17    4.7772   400.0    8.526      38.878
2015    4       13     9  23    4.7791   400.1    8.531      38.900
2015    4       13     9  29    4.7810   400.2    8.535      38.922
2015    4       13     9  35    4.7828   400.2    8.539      38.945
2015    4       13     9  41    4.7846   400.3    8.542      38.968
2015    4       13     9  48    4.7863   400.4    8.546      38.991
2015    4       13     9  54    4.7881   400.5    8.550      39.013
2015    4       13    10   0    4.7898   400.5    8.553      39.035
2015    4       13    10   6    4.7914   400.6    8.556      39.056
2015    4       13    10  12    4.7931   400.7    8.560      39.078
2015    4       13    10  18    4.7947   400.8    8.563      39.098
2015    4       13    10  24    4.7962   400.8    8.566      39.119
2015    4       13    10  30    4.7978   400.9    8.569      39.139
2015    4       13    10  36    4.7993   401.0    8.572      39.159
2015    4       13    10  42    4.8009   401.0    8.574      39.179
2015    4       13    10  48    4.8024   401.1    8.577      39.200
2015    4       13    10  54    4.8039   401.2    8.580      39.219
2015    4       13    11   0    4.8055   401.3    8.583      39.239
2015    4       13    11   6    4.8070   401.3    8.586      39.259
2015    4       13    11  12    4.8085   401.4    8.588      39.279
2015    4       13    11  18    4.8100   401.5    8.591      39.299
2015    4       13    11  24    4.8115   401.6    8.594      39.319
2015    4       13    11  30    4.8130   401.6    8.597      39.339
2015    4       13    11  36    4.8145   401.7    8.599      39.359
2015    4       13    11  42    4.8160   401.8    8.602      39.380
2015    4       13    11  48    4.8175   401.9    8.605      39.400
2015    4       13    11  54    4.8190   402.0    8.608      39.420
2015    4       13    12   0    4.8204   402.0    8.610      39.441
2015    4       13    12   6    4.8219   402.1    8.613      39.462
2015    4       13    12  12    4.8234   402.2    8.616      39.482
2015    4       13    12  18    4.8249   402.3    8.618      39.503
2015    4       13    12  24    4.8264   402.4    8.621      39.524
2015    4       13    12  30    4.8278   402.4    8.624      39.545
2015    4       13    12  36    4.8293   402.5    8.626      39.566
2015    4       13    12  42    4.8308   402.6    8.629      39.588
2015    4       13    12  48    4.8323   402.7    8.632      39.610
2015    4       13    12  54    4.8337   402.8    8.634      39.632
2015    4       13    13   1    4.8352   402.9    8.637      39.654
2015    4       13    13   7    4.8366   402.9    8.639      39.676
2015    4       13    13  13    4.8381   403.0    8.642      39.698
2015    4       13    13  19    4.8396   403.1    8.644      39.721
2015    4       13    13  25    4.8410   403.2    8.646      39.744
2015    4       13    13  31    4.8424   403.3    8.648      39.768
2015    4       13    13  37    4.8439   403.4    8.650      39.791
2015    4       13    13  43    4.8453   403.5    8.652      39.816
2015    4       13    13  49    4.8467   403.6    8.654      39.840
2015    4       13    13  55    4.8481   403.7    8.656      39.865
2015    4       13    14   1    4.8495   403.7    8.657      39.890
2015    4       13    14   7    4.8509   403.8    8.658      39.914
2015    4       13    14  13    4.8522   403.9    8.660      39.938
2015    4       13    14  19    4.8536   404.0    8.661      39.962
2015    4       13    14  25    4.8549   404.1    8.662      39.985
2015    4       13    14  31    4.8563   404.2    8.662      40.008
2015    4       13    14  37    4.8576   404.3    8.663      40.030
2015    4       13    14  43    4.8590   404.4    8.664      40.053
2015    4       13    14  49    4.8603   404.5    8.664      40.075
2015    4       13    14  55    4.8616   404.6    8.665      40.097
2015    4       13    15   1    4.8629   404.7    8.665      40.118
2015    4       13    15   7    4.8642   404.8    8.665      40.139
2015    4       13    15  13    4.8655   404.9    8.665      40.160
2015    4       13    15  19    4.8668   405.0    8.665      40.181
2015    4       13    15  25    4.8681   405.1    8.665      40.201
2015    4       13    15  31    4.8694   405.2    8.665      40.221
2015    4       13    15  37    4.8707   405.3    8.665      40.240
2015    4       13    15  43    4.8719   405.4    8.664      40.260
2015    4       13    15  49    4.8732   405.5    8.664      40.279
2015    4       13    15  55    4.8744   405.6    8.663      40.297
2015    4       13    16   1    4.8757   405.6    8.663      40.316
2015    4       13    16   8    4.8769   405.7    8.662      40.334
2015    4       13    16  14    4.8781   405.8    8.661      40.352
2015    4       13    16  20    4.8793   405.9    8.660      40.369
2015    4       13    16  26    4.8805   406.0    8.660      40.387
2015    4       13    16  32    4.8816   406.1    8.659      40.404
2015    4       13    16  38    4.8828   406.2    8.658      40.420
2015    4       13    16  44    4.8839   406.3    8.657      40.437
2015    4       13    16  50    4.8850   406.4    8.656      40.453
2015    4       13    16  56    4.8861   406.5    8.655      40.469
2015    4       13    17   2    4.8872   406.6    8.654      40.485
2015    4       13    17   8    4.8883   406.7    8.653      40.501
2015    4       13    17  14    4.8893   406.8    8.652      40.516
2015    4       13    17  20    4.8903   406.9    8.651      40.531
2015    4       13    17  26    4.8914   407.0    8.650      40.546
2015    4       13    17  32    4.8924   407.1    8.649      40.561
2015    4       13    17  38    4.8934   407.2    8.648      40.576
2015    4       13    17  44    4.8944   407.3    8.648      40.590
2015    4       13    17  50    4.8954   407.4    8.647      40.605
2015    4       13    17  56    4.8964   407.5    8.646      40.619
2015    4       13    18   2    4.8974   407.6    8.645      40.633
2015    4       13    18   8    4.8983   407.7    8.645      40.648
2015    4       13    18  14    4.8993   407.8    8.644      40.662
2015    4       13    18  20    4.9003   407.9    8.643      40.676
2015    4       13    18  26    4.9012   408.0    8.643      40.690
2015    4       13    18  32    4.9022   408.1    8.642      40.704
2015    4       13    18  38    4.9031   408.1    8.642      40.718
2015    4       13    18  44    4.9041   408.2    8.642      40.732
2015    4       13    18  50    4.9051   408.3    8.642      40.746
2015    4       13    18  56    4.9060   408.4    8.642      40.760
2015    4       13    19   2    4.9070   408.5    8.642      40.774
2015    4       13    19   8    4.9079   408.6    8.642      40.788
2015    4       13    19  14    4.9089   408.7    8.642      40.802
2015    4       13    19  20    4.9098   408.8    8.642      40.816
2015    4       13    19  27    4.9108   408.9    8.642      40.831
2015    4       13    19  33    4.9118   409.0    8.643      40.845
2015    4       13    19  39    4.9128   409.1    8.643      40.860
2015    4       13    19  45    4.9138   409.2    8.644      40.874
2015    4       13    19  51    4.9147   409.3    8.645      40.889
2015    4       13    19  57    4.9157   409.4    8.645      40.905
2015    4       13    20   3    4.9167   409.5    8.646      40.920
2015    4       13    20   9    4.9177   409.6    8.647      40.936
2015    4       13    20  15    4.9188   409.7    8.648      40.952
2015    4       13    20  21    4.9198   409.8    8.649      40.969
2015    4       13    20  27    4.9208   409.9    8.650      40.986
2015    4       13    20  33    4.9219   410.0    8.651      41.003
2015    4       13    20  39    4.9229   410.1    8.651      41.021
2015    4       13    20  45    4.9240   410.2    8.652      41.040
2015    4       13    20  51    4.9250   410.3    8.653      41.059
2015    4       13    20  57    4.9261   410.4    8.654      41.078
2015    4       13    21   3    4.9271   410.5    8.655      41.098
2015    4       13    21   9    4.9282   410.6    8.656      41.117
2015    4       13    21  15    4.9293   410.7    8.656      41.136
2015    4       13    21  21    4.9303   410.8    8.657      41.156
2015    4       13    21  27    4.9314   410.9    8.658      41.175
2015    4       13    21  33    4.9325   411.0    8.659      41.195
2015    4       13    21  39    4.9336   411.1    8.660      41.214
2015    4       13    21  45    4.9348   411.2    8.660      41.234
2015    4       13    21  51    4.9359   411.3    8.661      41.254
2015    4       13    21  57    4.9370   411.4    8.662      41.273
2015    4       13    22   3    4.9382   411.5    8.663      41.294
2015    4       13    22   9    4.9394   411.6    8.664      41.314
2015    4       13    22  15    4.9406   411.7    8.665      41.334
2015    4       13    22  21    4.9418   411.8    8.666      41.354
2015    4       13    22  27    4.9431   411.9    8.667      41.375
2015    4       13    22  34    4.9444   412.0    8.668      41.396
2015    4       13    22  40    4.9457   412.2    8.669      41.417
2015    4       13    22  46    4.9470   412.3    8.671      41.439
2015    4       13    22  52    4.9484   412.4    8.672      41.461
2015    4       13    22  58    4.9498   412.5    8.673      41.483
2015    4       13    23   4    4.9512   412.6    8.675      41.506
2015    4       13    23  10    4.9526   412.7    8.676      41.529
2015    4       13    23  16    4.9540   412.8    8.678      41.552
2015    4       13    23  22    4.9554   413.0    8.679      41.576
2015    4       13    23  28    4.9568   413.1    8.680      41.601
2015    4       13    23  34    4.9582   413.2    8.682      41.626
2015    4       13    23  40    4.9596   413.3    8.683      41.652
2015    4       13    23  46    4.9610   413.4    8.684      41.678
2015    4       13    23  52    4.9624   413.6    8.684      41.704
2015    4       13    23  58    4.9637   413.7    8.685      41.731
2015    4       14     0   4    4.9651   413.8    8.686      41.757
2015    4       14     0  10    4.9664   413.9    8.686      41.783
2015    4       14     0  16    4.9676   414.0    8.686      41.809
2015    4       14     0  22    4.9689   414.1    8.686      41.834
2015    4       14     0  28    4.9701   414.3    8.686      41.858
2015    4       14     0  34    4.9713   414.4    8.686      41.882
2015    4       14     0  40    4.9725   414.5    8.685      41.906
2015    4       14     0  46    4.9737   414.6    8.685      41.929
2015    4       14     0  52    4.9748   414.7    8.684      41.951
2015    4       14     0  58    4.9760   414.9    8.683      41.973
2015    4       14     1   4    4.9771   415.0    8.682      41.995
2015    4       14     1  10    4.9782   415.1    8.681      42.016
2015    4       14     1  16    4.9792   415.2    8.680      42.036
2015    4       14     1  22    4.9803   415.3    8.679      42.056
2015    4       14     1  28    4.9814   415.4    8.677      42.075
2015    4       14     1  34    4.9824   415.6    8.676      42.094
2015    4       14     1  40    4.9834   415.7    8.674      42.112
2015    4       14     1  47    4.9845   415.8    8.673      42.131
2015    4       14     1  53    4.9855   415.9    8.671      42.148
2015    4       14     1  59    4.9865   416.0    8.669      42.165
2015    4       14     2   5    4.9875   416.1    8.667      42.182
2015    4       14     2  11    4.9885   416.2    8.665      42.199
2015    4       14     2  17    4.9894   416.4    8.663      42.215
2015    4       14     2  23    4.9904   416.5    8.661      42.230
2015    4       14     2  29    4.9914   416.6    8.659      42.246
2015    4       14     2  35    4.9923   416.7    8.657      42.261
2015    4       14     2  41    4.9933   416.8    8.654      42.276
2015    4       14     2  47    4.9943   416.9    8.652      42.290
2015    4       14     2  53    4.9952   417.1    8.650      42.304
2015    4       14     2  59    4.9962   417.2    8.647      42.318
2015    4       14     3   5    4.9971   417.3    8.645      42.332
2015    4       14     3  11    4.9981   417.4    8.643      42.345
2015    4       14     3  17    4.9990   417.5    8.640      42.358
2015    4       14     3  23    5.0000   417.6    8.638      42.371
2015    4       14     3  29    5.0009   417.7    8.635      42.384
2015    4       14     3  35    5.0019   417.9    8.633      42.397
2015    4       14     3  41    5.0029   418.0    8.630      42.409
2015    4       14     3  47    5.0038   418.1    8.628      42.421
2015    4       14     3  53    5.0048   418.2    8.625      42.433
2015    4       14     3  59    5.0058   418.3    8.623      42.446
2015    4       14     4   5    5.0068   418.4    8.620      42.458
2015    4       14     4  11    5.0078   418.5    8.618      42.469
2015    4       14     4  17    5.0088   418.7    8.616      42.481
2015    4       14     4  23    5.0098   418.8    8.613      42.493
2015    4       14     4  29    5.0109   418.9    8.611      42.505
2015    4       14     4  35    5.0119   419.0    8.609      42.517
2015    4       14     4  41    5.0130   419.1    8.607      42.529
2015    4       14     4  47    5.0141   419.2    8.605      42.541
2015    4       14     4  53    5.0152   419.3    8.603      42.553
2015    4       14     5   0    5.0163   419.5    8.601      42.566
2015    4       14     5   6    5.0174   419.6    8.599      42.578
2015    4       14     5  12    5.0186   419.7    8.598      42.591
2015    4       14     5  18    5.0198   419.8    8.596      42.603
2015    4       14     5  24    5.0210   419.9    8.595      42.617
2015    4       14     5  30    5.0222   420.0    8.594      42.630
2015    4       14     5  36    5.0235   420.1    8.593      42.644
2015    4       14     5  42    5.0248   420.3    8.592      42.658
2015    4       14     5  48    5.0261   420.4    8.592      42.672
2015    4       14     5  54    5.0275   420.5    8.591      42.687
2015    4       14     6   0    5.0289   420.6    8.591      42.703
2015    4       14     6   6    5.0303   420.7    8.591      42.719
2015    4       14     6  12    5.0317   420.8    8.591      42.736
2015    4       14     6  18    5.0332   421.0    8.592      42.753
2015    4       14     6  24    5.0348   421.1    8.592      42.771
2015    4       14     6  30    5.0363   421.2    8.593      42.789
2015    4       14     6  36    5.0379   421.3    8.594      42.809
2015    4       14     6  42    5.0395   421.4    8.595      42.830
2015    4       14     6  48    5.0412   421.6    8.596      42.851
2015    4       14     6  54    5.0429   421.7    8.597      42.874
2015    4       14     7   0    5.0446   421.8    8.599      42.898
2015    4       14     7   6    5.0463   421.9    8.600      42.923
2015    4       14     7  12    5.0480   422.1    8.601      42.950
2015    4       14     7  18    5.0497   422.2    8.603      42.977
2015    4       14     7  24    5.0514   422.3    8.604      43.004
2015    4       14     7  30    5.0532   422.4    8.605      43.032
2015    4       14     7  36    5.0549   422.6    8.607      43.060
2015    4       14     7  42    5.0567   422.7    8.608      43.089
2015    4       14     7  48    5.0584   422.8    8.609      43.119
2015    4       14     7  54    5.0602   423.0    8.610      43.150
2015    4       14     8   0    5.0619   423.1    8.611      43.182
2015    4       14     8   6    5.0636   423.3    8.611      43.214
2015    4       14     8  13    5.0652   423.4    8.612      43.246
2015    4       14     8  19    5.0668   423.5    8.612      43.279
2015    4       14     8  25    5.0684   423.7    8.612      43.312
2015    4       14     8  31    5.0700   423.8    8.611      43.343
2015    4       14     8  37    5.0715   423.9    8.611      43.374
2015    4       14     8  43    5.0730   424.1    8.610      43.404
2015    4       14     8  49    5.0745   424.2    8.609      43.434
2015    4       14     8  55    5.0759   424.4    8.608      43.463
2015    4       14     9   1    5.0774   424.5    8.606      43.492
2015    4       14     9   7    5.0788   424.6    8.605      43.520
2015    4       14     9  13    5.0801   424.8    8.603      43.547
2015    4       14     9  19    5.0815   424.9    8.601      43.574
2015    4       14     9  25    5.0828   425.1    8.599      43.600
2015    4       14     9  31    5.0841   425.2    8.597      43.626
2015    4       14     9  37    5.0854   425.3    8.595      43.651
2015    4       14     9  43    5.0867   425.5    8.592      43.676
2015    4       14     9  49    5.0880   425.6    8.590      43.700
2015    4       14     9  55    5.0892   425.8    8.587      43.724
2015    4       14    10   1    5.0905   425.9    8.584      43.747
2015    4       14    10   7    5.0917   426.1    8.581      43.770
2015    4       14    10  13    5.0930   426.2    8.578      43.793
2015    4       14    10  19    5.0942   426.3    8.575      43.815
2015    4       14    10  25    5.0954   426.5    8.572      43.837
2015    4       14    10  31    5.0966   426.6    8.569      43.859
2015    4       14    10  37    5.0978   426.8    8.566      43.880
2015    4       14    10  43    5.0990   426.9    8.563      43.901
2015    4       14    10  49    5.1002   427.1    8.559      43.922
2015    4       14    10  55    5.1013   427.2    8.556      43.942
2015    4       14    11   1    5.1025   427.3    8.553      43.962
2015    4       14    11   7    5.1037   427.5    8.549      43.982
2015    4       14    11  13    5.1048   427.6    8.545      44.001
2015    4       14    11  19    5.1060   427.8    8.542      44.021
2015    4       14    11  26    5.1071   427.9    8.538      44.040
2015    4       14    11  32    5.1083   428.1    8.535      44.059
2015    4       14    11  38    5.1095   428.2    8.531      44.077
2015    4       14    11  44    5.1106   428.4    8.527      44.096
2015    4       14    11  50    5.1118   428.5    8.524      44.114
2015    4       14    11  56    5.1129   428.6    8.520      44.132
2015    4       14    12   2    5.1141   428.8    8.516      44.150
2015    4       14    12   8    5.1152   428.9    8.512      44.167
2015    4       14    12  14    5.1164   429.1    8.509      44.185
2015    4       14    12  20    5.1176   429.2    8.505      44.202
2015    4       14    12  26    5.1187   429.4    8.501      44.220
2015    4       14    12  32    5.1199   429.5    8.497      44.237
2015    4       14    12  38    5.1211   429.6    8.494      44.254
2015    4       14    12  44    5.1223   429.8    8.490      44.271
2015    4       14    12  50    5.1235   429.9    8.487      44.289
2015    4       14    12  56    5.1247   430.1    8.483      44.306
2015    4       14    13   2    5.1259   430.2    8.480      44.323
2015    4       14    13   8    5.1272   430.4    8.476      44.341
2015    4       14    13  14    5.1284   430.5    8.473      44.358
2015    4       14    13  20    5.1297   430.7    8.470      44.376
2015    4       14    13  26    5.1310   430.8    8.467      44.394
2015    4       14    13  32    5.1323   431.0    8.464      44.413
2015    4       14    13  38    5.1336   431.1    8.461      44.431
2015    4       14    13  44    5.1349   431.2    8.458      44.450
2015    4       14    13  50    5.1363   431.4    8.456      44.470
2015    4       14    13  56    5.1377   431.5    8.453      44.489
2015    4       14    14   2    5.1391   431.7    8.451      44.510
2015    4       14    14   8    5.1406   431.8    8.449      44.530
2015    4       14    14  14    5.1421   432.0    8.447      44.551
2015    4       14    14  20    5.1436   432.1    8.446      44.573
2015    4       14    14  26    5.1452   432.3    8.445      44.595
2015    4       14    14  33    5.1468   432.4    8.444      44.619
2015    4       14    14  39    5.1485   432.6    8.443      44.643
2015    4       14    14  45    5.1502   432.7    8.442      44.668
2015    4       14    14  51    5.1519   432.9    8.442      44.695
2015    4       14    14  57    5.1537   433.0    8.442      44.722
2015    4       14    15   3    5.1555   433.2    8.442      44.751
2015    4       14    15   9    5.1573   433.3    8.442      44.781
2015    4       14    15  15    5.1592   433.5    8.443      44.813
2015    4       14    15  21    5.1610   433.6    8.443      44.846
2015    4       14    15  27    5.1629   433.8    8.444      44.881
2015    4       14    15  33    5.1647   434.0    8.444      44.918
2015    4       14    15  39    5.1665   434.1    8.444      44.957
2015    4       14    15  45    5.1682   434.3    8.444      44.998
2015    4       14    15  51    5.1699   434.5    8.443      45.039
2015    4       14    15  57    5.1716   434.7    8.443      45.081
2015    4       14    16   3    5.1732   434.8    8.442      45.123
2015    4       14    16   9    5.1747   435.0    8.440      45.164
2015    4       14    16  15    5.1762   435.2    8.439      45.205
2015    4       14    16  21    5.1776   435.4    8.437      45.245
2015    4       14    16  27    5.1790   435.5    8.435      45.285
2015    4       14    16  33    5.1803   435.7    8.433      45.323
2015    4       14    16  39    5.1816   435.9    8.430      45.361
2015    4       14    16  45    5.1829   436.1    8.428      45.398
2015    4       14    16  51    5.1841   436.2    8.425      45.435
2015    4       14    16  57    5.1853   436.4    8.422      45.471
2015    4       14    17   3    5.1864   436.6    8.419      45.506
2015    4       14    17   9    5.1876   436.8    8.415      45.541
2015    4       14    17  15    5.1887   436.9    8.412      45.575
2015    4       14    17  21    5.1898   437.1    8.408      45.609
2015    4       14    17  27    5.1909   437.3    8.405      45.642
2015    4       14    17  33    5.1920   437.5    8.401      45.675
2015    4       14    17  39    5.1930   437.7    8.397      45.708
2015    4       14    17  45    5.1940   437.8    8.393      45.740
2015    4       14    17  52    5.1951   438.0    8.389      45.772
2015    4       14    17  58    5.1961   438.2    8.385      45.803
2015    4       14    18   4    5.1971   438.4    8.381      45.834
2015    4       14    18  10    5.1981   438.5    8.377      45.865
2015    4       14    18  16    5.1991   438.7    8.373      45.896
2015    4       14    18  22    5.2001   438.9    8.368      45.926
2015    4       14    18  28    5.2010   439.1    8.364      45.956
2015    4       14    18  34    5.2020   439.2    8.360      45.986
2015    4       14    18  40    5.2030   439.4    8.355      46.015
2015    4       14    18  46    5.2039   439.6    8.351      46.045
2015    4       14    18  52    5.2049   439.8    8.347      46.074
2015    4       14    18  58    5.2059   439.9    8.342      46.103
2015    4       14    19   4    5.2069   440.1    8.338      46.132
2015    4       14    19  10    5.2078   440.3    8.333      46.161
2015    4       14    19  16    5.2088   440.5    8.329      46.190
2015    4       14    19  22    5.2098   440.7    8.324      46.219
2015    4       14    19  28    5.2108   440.8    8.320      46.247
2015    4       14    19  34    5.2118   441.0    8.316      46.276
2015    4       14    19  40    5.2129   441.2    8.311      46.305
2015    4       14    19  46    5.2139   441.4    8.307      46.334
2015    4       14    19  52    5.2149   441.6    8.303      46.362
2015    4       14    19  58    5.2160   441.8    8.298      46.391
2015    4       14    20   4    5.2171   441.9    8.294      46.420
2015    4       14    20  10    5.2182   442.1    8.290      46.449
2015    4       14    20  16    5.2193   442.3    8.286      46.478
2015    4       14    20  22    5.2204   442.5    8.282      46.507
2015    4       14    20  28    5.2215   442.7    8.278      46.536
2015    4       14    20  34    5.2227   442.9    8.274      46.566
2015    4       14    20  40    5.2239   443.1    8.271      46.596
2015    4       14    20  46    5.2251   443.3    8.267      46.626
2015    4       14    20  52    5.2263   443.4    8.264      46.656
2015    4       14    20  59    5.2275   443.6    8.261      46.686
2015    4       14    21   5    5.2288   443.8    8.258      46.717
2015    4       14    21  11    5.2301   444.0    8.255      46.748
2015    4       14    21  17    5.2314   444.2    8.252      46.779
2015    4       14    21  23    5.2328   444.4    8.250      46.811
2015    4       14    21  29    5.2342   444.6    8.248      46.844
2015    4       14    21  35    5.2357   444.8    8.246      46.877
2015    4       14    21  41    5.2371   445.0    8.244      46.911
2015    4       14    21  47    5.2386   445.2    8.242      46.947
2015    4       14    21  53    5.2402   445.4    8.241      46.983
2015    4       14    21  59    5.2418   445.6    8.240      47.022
2015    4       14    22   5    5.2434   445.8    8.239      47.061
2015    4       14    22  11    5.2450   446.0    8.238      47.103
2015    4       14    22  17    5.2466   446.3    8.237      47.146
2015    4       14    22  23    5.2482   446.5    8.236      47.192
2015    4       14    22  29    5.2497   446.7    8.234      47.241
2015    4       14    22  35    5.2512   446.9    8.233      47.292
2015    4       14    22  41    5.2527   447.1    8.231      47.345
2015    4       14    22  47    5.2540   447.4    8.229      47.401
2015    4       14    22  53    5.2553   447.6    8.226      47.457
2015    4       14    22  59    5.2565   447.8    8.224      47.514
2015    4       14    23   5    5.2577   448.1    8.221      47.570
2015    4       14    23  11    5.2588   448.3    8.217      47.625
2015    4       14    23  17    5.2598   448.5    8.214      47.679
2015    4       14    23  23    5.2608   448.7    8.210      47.732
2015    4       14    23  29    5.2617   449.0    8.205      47.784
2015    4       14    23  35    5.2626   449.2    8.201      47.836
2015    4       14    23  41    5.2634   449.4    8.196      47.887
2015    4       14    23  47    5.2642   449.6    8.192      47.937
2015    4       14    23  53    5.2650   449.9    8.187      47.986
2015    4       14    23  59    5.2658   450.1    8.182      48.035
2015    4       15     0   5    5.2665   450.3    8.177      48.083
