year    month   day   hour  minute  B_enl V_enl   n_enl       T_enl
[year] [month] [day] [hour][minute] [nT]  [km/s]  [cm-3]      [kK]
2015    4        5     0   4    3.9183   673.3    2.648      67.281
2015    4        5     0  10    3.9170   673.2    2.648      67.262
2015    4        5     0  16    3.9156   673.2    2.647      67.243
2015    4        5     0  22    3.9143   673.1    2.647      67.224
2015    4        5     0  29    3.9129   673.1    2.647      67.204
2015    4        5     0  35    3.9116   673.0    2.646      67.184
2015    4        5     0  41    3.9102   673.0    2.646      67.163
2015    4        5     0  47    3.9089   672.9    2.645      67.143
2015    4        5     0  53    3.9075   672.9    2.645      67.122
2015    4        5     0  59    3.9061   672.8    2.644      67.101
2015    4        5     1   5    3.9048   672.8    2.644      67.080
2015    4        5     1  11    3.9034   672.7    2.644      67.059
2015    4        5     1  17    3.9020   672.6    2.643      67.037
2015    4        5     1  23    3.9007   672.6    2.643      67.016
2015    4        5     1  29    3.8993   672.5    2.642      66.995
2015    4        5     1  35    3.8980   672.5    2.642      66.973
2015    4        5     1  41    3.8966   672.4    2.642      66.952
2015    4        5     1  47    3.8953   672.3    2.641      66.930
2015    4        5     1  53    3.8939   672.3    2.641      66.909
2015    4        5     1  59    3.8926   672.2    2.641      66.888
2015    4        5     2   5    3.8913   672.2    2.640      66.866
2015    4        5     2  11    3.8899   672.1    2.640      66.845
2015    4        5     2  17    3.8886   672.0    2.640      66.823
2015    4        5     2  23    3.8873   672.0    2.639      66.802
2015    4        5     2  29    3.8860   671.9    2.639      66.781
2015    4        5     2  35    3.8846   671.8    2.639      66.759
2015    4        5     2  41    3.8833   671.8    2.638      66.738
2015    4        5     2  47    3.8820   671.7    2.638      66.716
2015    4        5     2  53    3.8807   671.6    2.638      66.695
2015    4        5     2  59    3.8793   671.6    2.637      66.673
2015    4        5     3   5    3.8780   671.5    2.637      66.652
2015    4        5     3  11    3.8767   671.4    2.637      66.630
2015    4        5     3  17    3.8754   671.4    2.636      66.608
2015    4        5     3  23    3.8740   671.3    2.636      66.586
2015    4        5     3  29    3.8727   671.2    2.636      66.565
2015    4        5     3  35    3.8713   671.2    2.635      66.543
2015    4        5     3  41    3.8700   671.1    2.635      66.521
2015    4        5     3  47    3.8687   671.0    2.635      66.499
2015    4        5     3  53    3.8673   671.0    2.634      66.478
2015    4        5     3  59    3.8660   670.9    2.634      66.457
2015    4        5     4   5    3.8646   670.8    2.634      66.435
2015    4        5     4  11    3.8632   670.7    2.633      66.414
2015    4        5     4  17    3.8619   670.7    2.633      66.393
2015    4        5     4  23    3.8605   670.6    2.633      66.372
2015    4        5     4  29    3.8592   670.5    2.633      66.352
2015    4        5     4  35    3.8578   670.4    2.633      66.331
2015    4        5     4  41    3.8565   670.4    2.632      66.311
2015    4        5     4  47    3.8551   670.3    2.632      66.291
2015    4        5     4  53    3.8537   670.2    2.632      66.272
2015    4        5     4  59    3.8524   670.1    2.632      66.252
2015    4        5     5   5    3.8510   670.0    2.632      66.233
2015    4        5     5  11    3.8497   670.0    2.632      66.214
2015    4        5     5  17    3.8483   669.9    2.632      66.195
2015    4        5     5  23    3.8469   669.8    2.632      66.176
2015    4        5     5  29    3.8455   669.7    2.632      66.157
2015    4        5     5  35    3.8441   669.6    2.632      66.138
2015    4        5     5  41    3.8428   669.6    2.632      66.119
2015    4        5     5  47    3.8413   669.5    2.632      66.100
2015    4        5     5  53    3.8399   669.4    2.632      66.080
2015    4        5     5  59    3.8385   669.3    2.632      66.060
2015    4        5     6   5    3.8371   669.2    2.632      66.039
2015    4        5     6  11    3.8357   669.2    2.631      66.018
2015    4        5     6  17    3.8342   669.1    2.631      65.997
2015    4        5     6  23    3.8328   669.0    2.631      65.974
2015    4        5     6  29    3.8314   668.9    2.631      65.951
2015    4        5     6  35    3.8299   668.8    2.631      65.928
2015    4        5     6  41    3.8284   668.7    2.630      65.904
2015    4        5     6  47    3.8270   668.7    2.630      65.879
2015    4        5     6  53    3.8255   668.6    2.630      65.854
2015    4        5     6  59    3.8241   668.5    2.630      65.828
2015    4        5     7   5    3.8226   668.4    2.629      65.802
2015    4        5     7  11    3.8211   668.3    2.629      65.775
2015    4        5     7  17    3.8196   668.2    2.629      65.748
2015    4        5     7  23    3.8182   668.1    2.628      65.720
2015    4        5     7  29    3.8167   668.0    2.628      65.692
2015    4        5     7  35    3.8152   667.9    2.628      65.664
2015    4        5     7  41    3.8137   667.9    2.627      65.636
2015    4        5     7  47    3.8122   667.8    2.627      65.607
2015    4        5     7  53    3.8108   667.7    2.627      65.578
2015    4        5     7  59    3.8093   667.6    2.626      65.549
2015    4        5     8   5    3.8078   667.5    2.626      65.520
2015    4        5     8  11    3.8063   667.4    2.626      65.491
2015    4        5     8  17    3.8049   667.3    2.625      65.463
2015    4        5     8  23    3.8034   667.2    2.625      65.434
2015    4        5     8  29    3.8019   667.1    2.625      65.405
2015    4        5     8  35    3.8004   667.0    2.625      65.376
2015    4        5     8  41    3.7990   666.9    2.624      65.348
2015    4        5     8  47    3.7975   666.8    2.624      65.320
2015    4        5     8  53    3.7961   666.7    2.624      65.291
2015    4        5     8  59    3.7946   666.6    2.624      65.263
2015    4        5     9   5    3.7932   666.5    2.624      65.236
2015    4        5     9  11    3.7917   666.4    2.623      65.208
2015    4        5     9  17    3.7903   666.3    2.623      65.180
2015    4        5     9  23    3.7888   666.2    2.623      65.152
2015    4        5     9  29    3.7874   666.1    2.623      65.124
2015    4        5     9  35    3.7859   666.0    2.623      65.096
2015    4        5     9  41    3.7845   665.9    2.622      65.068
2015    4        5     9  47    3.7830   665.8    2.622      65.040
2015    4        5     9  53    3.7815   665.7    2.622      65.011
2015    4        5     9  59    3.7801   665.6    2.622      64.982
2015    4        5    10   5    3.7786   665.5    2.621      64.953
2015    4        5    10  11    3.7771   665.4    2.621      64.924
2015    4        5    10  17    3.7756   665.3    2.621      64.894
2015    4        5    10  23    3.7741   665.2    2.620      64.864
2015    4        5    10  29    3.7725   665.1    2.620      64.833
2015    4        5    10  35    3.7710   665.0    2.619      64.802
2015    4        5    10  41    3.7695   664.9    2.619      64.771
2015    4        5    10  48    3.7679   664.8    2.618      64.740
2015    4        5    10  54    3.7664   664.7    2.618      64.707
2015    4        5    11   0    3.7648   664.5    2.617      64.675
2015    4        5    11   6    3.7633   664.4    2.617      64.642
2015    4        5    11  12    3.7617   664.3    2.616      64.610
2015    4        5    11  18    3.7601   664.2    2.616      64.576
2015    4        5    11  24    3.7586   664.1    2.615      64.543
2015    4        5    11  30    3.7570   664.0    2.615      64.510
2015    4        5    11  36    3.7554   663.9    2.614      64.476
2015    4        5    11  42    3.7538   663.8    2.614      64.443
2015    4        5    11  48    3.7522   663.6    2.613      64.409
2015    4        5    11  54    3.7506   663.5    2.613      64.376
2015    4        5    12   0    3.7491   663.4    2.612      64.343
2015    4        5    12   6    3.7475   663.3    2.612      64.311
2015    4        5    12  12    3.7459   663.2    2.612      64.278
2015    4        5    12  18    3.7443   663.0    2.611      64.247
2015    4        5    12  24    3.7428   662.9    2.611      64.215
2015    4        5    12  30    3.7412   662.8    2.611      64.184
2015    4        5    12  36    3.7397   662.7    2.611      64.154
2015    4        5    12  42    3.7381   662.6    2.611      64.124
2015    4        5    12  48    3.7365   662.4    2.611      64.094
2015    4        5    12  54    3.7350   662.3    2.611      64.064
2015    4        5    13   0    3.7334   662.2    2.611      64.035
2015    4        5    13   6    3.7319   662.1    2.611      64.006
2015    4        5    13  12    3.7303   661.9    2.611      63.977
2015    4        5    13  18    3.7287   661.8    2.611      63.948
2015    4        5    13  24    3.7271   661.7    2.611      63.919
2015    4        5    13  30    3.7255   661.5    2.611      63.889
2015    4        5    13  36    3.7240   661.4    2.611      63.860
2015    4        5    13  42    3.7224   661.3    2.612      63.830
2015    4        5    13  48    3.7208   661.2    2.612      63.800
2015    4        5    13  54    3.7192   661.0    2.612      63.770
2015    4        5    14   0    3.7176   660.9    2.612      63.739
2015    4        5    14   6    3.7160   660.8    2.612      63.709
2015    4        5    14  12    3.7145   660.6    2.612      63.678
2015    4        5    14  18    3.7129   660.5    2.612      63.647
2015    4        5    14  24    3.7113   660.3    2.612      63.616
2015    4        5    14  30    3.7097   660.2    2.612      63.584
2015    4        5    14  36    3.7081   660.1    2.612      63.552
2015    4        5    14  42    3.7065   659.9    2.612      63.520
2015    4        5    14  48    3.7049   659.8    2.612      63.487
2015    4        5    14  54    3.7033   659.7    2.612      63.454
2015    4        5    15   0    3.7017   659.5    2.612      63.420
2015    4        5    15   6    3.7001   659.4    2.612      63.385
2015    4        5    15  12    3.6984   659.3    2.612      63.351
2015    4        5    15  18    3.6968   659.1    2.612      63.316
2015    4        5    15  24    3.6952   659.0    2.612      63.281
2015    4        5    15  30    3.6936   658.9    2.612      63.245
2015    4        5    15  36    3.6919   658.7    2.612      63.209
2015    4        5    15  42    3.6903   658.6    2.612      63.173
2015    4        5    15  48    3.6887   658.4    2.612      63.136
2015    4        5    15  54    3.6871   658.3    2.612      63.099
2015    4        5    16   0    3.6854   658.2    2.612      63.063
2015    4        5    16   6    3.6838   658.0    2.612      63.025
2015    4        5    16  12    3.6821   657.9    2.612      62.988
2015    4        5    16  18    3.6805   657.7    2.612      62.950
2015    4        5    16  24    3.6788   657.6    2.612      62.913
2015    4        5    16  30    3.6772   657.5    2.612      62.875
2015    4        5    16  36    3.6755   657.3    2.611      62.838
2015    4        5    16  42    3.6739   657.2    2.611      62.800
2015    4        5    16  48    3.6722   657.0    2.611      62.763
2015    4        5    16  54    3.6706   656.9    2.611      62.725
2015    4        5    17   0    3.6689   656.7    2.612      62.688
2015    4        5    17   6    3.6673   656.6    2.612      62.651
2015    4        5    17  12    3.6656   656.4    2.612      62.615
2015    4        5    17  18    3.6640   656.3    2.612      62.578
2015    4        5    17  24    3.6624   656.1    2.612      62.542
2015    4        5    17  30    3.6607   656.0    2.612      62.506
2015    4        5    17  36    3.6591   655.8    2.612      62.469
2015    4        5    17  42    3.6575   655.6    2.612      62.433
2015    4        5    17  48    3.6558   655.5    2.612      62.397
2015    4        5    17  54    3.6542   655.3    2.612      62.360
2015    4        5    18   0    3.6525   655.2    2.612      62.323
2015    4        5    18   6    3.6509   655.0    2.611      62.285
2015    4        5    18  12    3.6492   654.9    2.611      62.245
2015    4        5    18  18    3.6475   654.7    2.611      62.206
2015    4        5    18  24    3.6458   654.6    2.610      62.165
2015    4        5    18  30    3.6441   654.4    2.610      62.123
2015    4        5    18  36    3.6423   654.3    2.610      62.081
2015    4        5    18  42    3.6406   654.1    2.609      62.039
2015    4        5    18  48    3.6389   654.0    2.609      61.996
2015    4        5    18  54    3.6371   653.8    2.608      61.952
2015    4        5    19   0    3.6354   653.7    2.608      61.908
2015    4        5    19   6    3.6336   653.5    2.607      61.864
2015    4        5    19  12    3.6319   653.4    2.607      61.819
2015    4        5    19  18    3.6302   653.2    2.606      61.774
2015    4        5    19  24    3.6284   653.0    2.606      61.729
2015    4        5    19  30    3.6267   652.9    2.606      61.683
2015    4        5    19  36    3.6249   652.7    2.605      61.638
2015    4        5    19  42    3.6231   652.6    2.605      61.593
2015    4        5    19  48    3.6214   652.4    2.604      61.547
2015    4        5    19  54    3.6196   652.2    2.604      61.502
2015    4        5    20   0    3.6179   652.1    2.603      61.457
2015    4        5    20   6    3.6161   651.9    2.603      61.411
2015    4        5    20  12    3.6144   651.7    2.603      61.367
2015    4        5    20  18    3.6126   651.6    2.602      61.322
2015    4        5    20  24    3.6109   651.4    2.602      61.277
2015    4        5    20  30    3.6091   651.2    2.602      61.233
2015    4        5    20  36    3.6074   651.0    2.601      61.189
2015    4        5    20  43    3.6056   650.9    2.601      61.145
2015    4        5    20  49    3.6039   650.7    2.601      61.102
2015    4        5    20  55    3.6022   650.5    2.601      61.059
2015    4        5    21   1    3.6004   650.3    2.601      61.016
2015    4        5    21   7    3.5987   650.1    2.601      60.974
2015    4        5    21  13    3.5970   649.9    2.601      60.933
2015    4        5    21  19    3.5953   649.8    2.602      60.892
2015    4        5    21  25    3.5936   649.6    2.602      60.851
2015    4        5    21  31    3.5920   649.4    2.602      60.811
2015    4        5    21  37    3.5903   649.2    2.602      60.772
2015    4        5    21  43    3.5886   649.0    2.603      60.733
2015    4        5    21  49    3.5870   648.8    2.603      60.694
2015    4        5    21  55    3.5853   648.6    2.603      60.656
2015    4        5    22   1    3.5837   648.4    2.604      60.618
2015    4        5    22   7    3.5820   648.2    2.604      60.580
2015    4        5    22  13    3.5804   648.1    2.605      60.542
2015    4        5    22  19    3.5787   647.9    2.605      60.504
2015    4        5    22  25    3.5771   647.7    2.605      60.465
2015    4        5    22  31    3.5754   647.5    2.606      60.427
2015    4        5    22  37    3.5737   647.3    2.606      60.387
2015    4        5    22  43    3.5720   647.1    2.607      60.348
2015    4        5    22  49    3.5703   646.9    2.607      60.307
2015    4        5    22  55    3.5686   646.7    2.607      60.266
2015    4        5    23   1    3.5669   646.6    2.607      60.224
2015    4        5    23   7    3.5651   646.4    2.607      60.182
2015    4        5    23  13    3.5634   646.2    2.608      60.139
2015    4        5    23  19    3.5616   646.0    2.608      60.096
2015    4        5    23  25    3.5599   645.8    2.608      60.052
2015    4        5    23  31    3.5581   645.6    2.608      60.008
2015    4        5    23  37    3.5564   645.4    2.608      59.964
2015    4        5    23  43    3.5546   645.2    2.608      59.919
2015    4        5    23  49    3.5529   645.0    2.608      59.875
2015    4        5    23  55    3.5511   644.9    2.609      59.830
2015    4        6     0   1    3.5494   644.7    2.609      59.786
2015    4        6     0   7    3.5476   644.5    2.609      59.741
2015    4        6     0  13    3.5459   644.3    2.609      59.697
2015    4        6     0  19    3.5441   644.1    2.610      59.654
2015    4        6     0  25    3.5424   643.9    2.610      59.610
2015    4        6     0  31    3.5407   643.7    2.610      59.567
2015    4        6     0  37    3.5390   643.5    2.610      59.523
2015    4        6     0  43    3.5373   643.3    2.611      59.480
2015    4        6     0  49    3.5355   643.1    2.611      59.438
2015    4        6     0  55    3.5338   642.9    2.612      59.395
2015    4        6     1   1    3.5321   642.7    2.612      59.352
2015    4        6     1   7    3.5304   642.5    2.612      59.310
2015    4        6     1  13    3.5287   642.3    2.613      59.267
2015    4        6     1  19    3.5269   642.1    2.613      59.223
2015    4        6     1  25    3.5252   641.9    2.613      59.178
2015    4        6     1  31    3.5235   641.7    2.614      59.134
2015    4        6     1  37    3.5217   641.5    2.614      59.089
2015    4        6     1  43    3.5200   641.3    2.614      59.044
2015    4        6     1  49    3.5183   641.1    2.615      58.999
2015    4        6     1  55    3.5166   640.9    2.615      58.954
2015    4        6     2   1    3.5149   640.7    2.615      58.908
2015    4        6     2   7    3.5131   640.5    2.616      58.863
2015    4        6     2  13    3.5114   640.3    2.616      58.818
2015    4        6     2  19    3.5097   640.1    2.616      58.772
2015    4        6     2  25    3.5080   639.9    2.617      58.727
2015    4        6     2  31    3.5063   639.7    2.617      58.681
2015    4        6     2  37    3.5046   639.5    2.617      58.634
2015    4        6     2  43    3.5028   639.3    2.617      58.587
2015    4        6     2  49    3.5011   639.1    2.617      58.539
2015    4        6     2  55    3.4993   638.9    2.617      58.490
2015    4        6     3   1    3.4975   638.7    2.617      58.440
2015    4        6     3   7    3.4958   638.5    2.617      58.390
2015    4        6     3  13    3.4939   638.3    2.617      58.339
2015    4        6     3  19    3.4922   638.1    2.617      58.287
2015    4        6     3  25    3.4903   637.9    2.616      58.235
2015    4        6     3  31    3.4885   637.7    2.616      58.182
2015    4        6     3  37    3.4867   637.5    2.616      58.129
2015    4        6     3  43    3.4849   637.3    2.616      58.076
2015    4        6     3  49    3.4831   637.0    2.615      58.022
2015    4        6     3  55    3.4813   636.8    2.615      57.968
2015    4        6     4   1    3.4795   636.6    2.615      57.914
2015    4        6     4   7    3.4777   636.4    2.614      57.860
2015    4        6     4  13    3.4758   636.2    2.614      57.806
2015    4        6     4  19    3.4741   636.0    2.614      57.752
2015    4        6     4  25    3.4723   635.8    2.614      57.698
2015    4        6     4  31    3.4705   635.5    2.613      57.644
2015    4        6     4  37    3.4687   635.3    2.613      57.591
2015    4        6     4  43    3.4670   635.1    2.613      57.539
2015    4        6     4  49    3.4652   634.9    2.613      57.486
2015    4        6     4  55    3.4635   634.7    2.613      57.434
2015    4        6     5   1    3.4618   634.4    2.613      57.383
2015    4        6     5   7    3.4601   634.2    2.613      57.331
2015    4        6     5  13    3.4584   634.0    2.613      57.281
2015    4        6     5  19    3.4567   633.7    2.613      57.230
2015    4        6     5  25    3.4550   633.5    2.613      57.181
2015    4        6     5  31    3.4534   633.3    2.614      57.131
2015    4        6     5  37    3.4517   633.0    2.614      57.083
2015    4        6     5  43    3.4501   632.8    2.614      57.034
2015    4        6     5  49    3.4485   632.6    2.615      56.986
2015    4        6     5  55    3.4469   632.3    2.615      56.940
2015    4        6     6   1    3.4453   632.1    2.616      56.893
2015    4        6     6   7    3.4436   631.9    2.617      56.847
2015    4        6     6  13    3.4420   631.6    2.617      56.801
2015    4        6     6  19    3.4404   631.4    2.618      56.756
2015    4        6     6  25    3.4389   631.1    2.618      56.711
2015    4        6     6  31    3.4373   630.9    2.619      56.667
2015    4        6     6  37    3.4357   630.7    2.620      56.622
2015    4        6     6  43    3.4341   630.4    2.621      56.578
2015    4        6     6  49    3.4326   630.2    2.621      56.533
2015    4        6     6  55    3.4310   630.0    2.622      56.489
2015    4        6     7   1    3.4294   629.7    2.623      56.444
2015    4        6     7   7    3.4279   629.5    2.623      56.399
2015    4        6     7  14    3.4263   629.3    2.624      56.355
2015    4        6     7  20    3.4247   629.0    2.625      56.309
2015    4        6     7  26    3.4231   628.8    2.625      56.264
2015    4        6     7  32    3.4214   628.5    2.626      56.218
2015    4        6     7  38    3.4198   628.3    2.626      56.171
2015    4        6     7  44    3.4182   628.0    2.627      56.123
2015    4        6     7  50    3.4165   627.8    2.627      56.075
2015    4        6     7  56    3.4149   627.6    2.628      56.027
2015    4        6     8   2    3.4132   627.3    2.628      55.978
2015    4        6     8   8    3.4116   627.1    2.629      55.929
2015    4        6     8  14    3.4099   626.8    2.629      55.880
2015    4        6     8  20    3.4082   626.6    2.629      55.831
2015    4        6     8  26    3.4066   626.3    2.630      55.781
2015    4        6     8  32    3.4049   626.1    2.630      55.731
2015    4        6     8  38    3.4032   625.9    2.631      55.681
2015    4        6     8  44    3.4016   625.6    2.631      55.631
2015    4        6     8  50    3.3999   625.4    2.632      55.581
2015    4        6     8  56    3.3982   625.1    2.632      55.531
2015    4        6     9   2    3.3966   624.9    2.633      55.481
2015    4        6     9   8    3.3950   624.6    2.633      55.431
2015    4        6     9  14    3.3933   624.4    2.634      55.382
2015    4        6     9  20    3.3917   624.1    2.634      55.333
2015    4        6     9  26    3.3901   623.9    2.635      55.284
2015    4        6     9  32    3.3885   623.6    2.636      55.235
2015    4        6     9  38    3.3869   623.4    2.636      55.187
2015    4        6     9  44    3.3853   623.1    2.637      55.139
2015    4        6     9  50    3.3837   622.8    2.638      55.092
2015    4        6     9  56    3.3821   622.6    2.639      55.044
2015    4        6    10   2    3.3805   622.3    2.639      54.997
2015    4        6    10   8    3.3789   622.1    2.640      54.951
2015    4        6    10  14    3.3773   621.8    2.641      54.904
2015    4        6    10  20    3.3758   621.6    2.642      54.857
2015    4        6    10  26    3.3742   621.3    2.643      54.810
2015    4        6    10  32    3.3726   621.1    2.643      54.763
2015    4        6    10  38    3.3711   620.8    2.644      54.717
2015    4        6    10  44    3.3695   620.6    2.645      54.670
2015    4        6    10  50    3.3680   620.3    2.646      54.624
2015    4        6    10  56    3.3664   620.0    2.647      54.578
2015    4        6    11   2    3.3649   619.8    2.648      54.532
2015    4        6    11   8    3.3634   619.5    2.649      54.486
2015    4        6    11  14    3.3618   619.3    2.650      54.440
2015    4        6    11  20    3.3603   619.0    2.651      54.394
2015    4        6    11  26    3.3588   618.8    2.652      54.348
2015    4        6    11  32    3.3572   618.5    2.652      54.302
2015    4        6    11  38    3.3556   618.3    2.653      54.255
2015    4        6    11  44    3.3540   618.1    2.654      54.208
2015    4        6    11  50    3.3524   617.8    2.654      54.160
2015    4        6    11  56    3.3508   617.6    2.655      54.111
2015    4        6    12   2    3.3492   617.3    2.655      54.062
2015    4        6    12   8    3.3476   617.1    2.656      54.013
2015    4        6    12  14    3.3460   616.8    2.656      53.962
2015    4        6    12  20    3.3444   616.6    2.656      53.912
2015    4        6    12  26    3.3428   616.3    2.657      53.861
2015    4        6    12  32    3.3411   616.1    2.657      53.809
2015    4        6    12  38    3.3395   615.8    2.657      53.757
2015    4        6    12  44    3.3379   615.6    2.657      53.705
2015    4        6    12  50    3.3363   615.3    2.658      53.652
2015    4        6    12  56    3.3347   615.1    2.658      53.600
2015    4        6    13   2    3.3331   614.8    2.658      53.547
2015    4        6    13   8    3.3315   614.5    2.658      53.495
2015    4        6    13  14    3.3299   614.3    2.659      53.442
2015    4        6    13  20    3.3283   614.0    2.659      53.390
2015    4        6    13  26    3.3268   613.8    2.660      53.339
2015    4        6    13  32    3.3253   613.5    2.660      53.288
2015    4        6    13  38    3.3237   613.3    2.660      53.237
2015    4        6    13  44    3.3222   613.0    2.661      53.187
2015    4        6    13  50    3.3207   612.7    2.662      53.137
2015    4        6    13  56    3.3193   612.5    2.662      53.088
2015    4        6    14   2    3.3178   612.2    2.663      53.039
2015    4        6    14   8    3.3163   612.0    2.664      52.991
2015    4        6    14  14    3.3149   611.7    2.664      52.943
2015    4        6    14  20    3.3135   611.4    2.665      52.895
2015    4        6    14  26    3.3120   611.2    2.666      52.848
2015    4        6    14  32    3.3106   610.9    2.667      52.800
2015    4        6    14  38    3.3091   610.7    2.667      52.754
2015    4        6    14  44    3.3077   610.4    2.668      52.707
2015    4        6    14  50    3.3062   610.1    2.669      52.660
2015    4        6    14  56    3.3048   609.8    2.670      52.614
2015    4        6    15   2    3.3034   609.6    2.671      52.567
2015    4        6    15   8    3.3019   609.3    2.672      52.521
2015    4        6    15  14    3.3005   609.0    2.673      52.475
2015    4        6    15  20    3.2990   608.7    2.674      52.428
2015    4        6    15  26    3.2976   608.5    2.675      52.383
2015    4        6    15  32    3.2962   608.2    2.676      52.337
2015    4        6    15  38    3.2948   607.9    2.677      52.291
2015    4        6    15  44    3.2934   607.6    2.678      52.246
2015    4        6    15  50    3.2920   607.3    2.679      52.201
2015    4        6    15  56    3.2906   607.1    2.680      52.155
2015    4        6    16   2    3.2892   606.8    2.681      52.110
2015    4        6    16   8    3.2878   606.5    2.681      52.064
2015    4        6    16  14    3.2863   606.2    2.682      52.019
2015    4        6    16  20    3.2849   606.0    2.683      51.972
2015    4        6    16  26    3.2835   605.7    2.684      51.926
2015    4        6    16  32    3.2820   605.4    2.685      51.879
2015    4        6    16  38    3.2806   605.1    2.686      51.831
2015    4        6    16  44    3.2791   604.8    2.687      51.783
2015    4        6    16  50    3.2776   604.5    2.687      51.734
2015    4        6    16  56    3.2762   604.2    2.688      51.685
2015    4        6    17   2    3.2747   604.0    2.689      51.636
2015    4        6    17   8    3.2732   603.7    2.689      51.586
2015    4        6    17  14    3.2718   603.4    2.690      51.536
2015    4        6    17  20    3.2703   603.1    2.691      51.486
2015    4        6    17  26    3.2688   602.8    2.692      51.435
2015    4        6    17  32    3.2674   602.5    2.692      51.385
2015    4        6    17  38    3.2659   602.2    2.693      51.335
2015    4        6    17  44    3.2645   601.9    2.694      51.285
2015    4        6    17  50    3.2631   601.6    2.695      51.236
2015    4        6    17  56    3.2617   601.3    2.696      51.186
2015    4        6    18   2    3.2603   601.0    2.697      51.137
2015    4        6    18   8    3.2589   600.7    2.698      51.089
2015    4        6    18  14    3.2575   600.5    2.699      51.040
2015    4        6    18  20    3.2561   600.2    2.700      50.993
2015    4        6    18  26    3.2548   599.9    2.701      50.946
2015    4        6    18  32    3.2534   599.6    2.702      50.899
2015    4        6    18  38    3.2521   599.3    2.703      50.852
2015    4        6    18  44    3.2508   599.0    2.704      50.806
2015    4        6    18  50    3.2495   598.7    2.705      50.760
2015    4        6    18  56    3.2481   598.4    2.707      50.715
2015    4        6    19   2    3.2468   598.1    2.708      50.670
2015    4        6    19   9    3.2455   597.8    2.709      50.625
2015    4        6    19  15    3.2442   597.5    2.711      50.581
2015    4        6    19  21    3.2428   597.3    2.712      50.537
2015    4        6    19  27    3.2415   597.0    2.713      50.493
2015    4        6    19  33    3.2402   596.7    2.714      50.449
2015    4        6    19  39    3.2389   596.4    2.716      50.405
2015    4        6    19  45    3.2376   596.1    2.717      50.362
2015    4        6    19  51    3.2364   595.8    2.718      50.319
2015    4        6    19  57    3.2351   595.5    2.720      50.276
2015    4        6    20   3    3.2339   595.3    2.721      50.233
2015    4        6    20   9    3.2326   595.0    2.723      50.191
2015    4        6    20  15    3.2314   594.7    2.724      50.150
2015    4        6    20  21    3.2301   594.4    2.726      50.108
2015    4        6    20  27    3.2289   594.1    2.727      50.067
2015    4        6    20  33    3.2277   593.9    2.729      50.026
2015    4        6    20  39    3.2264   593.6    2.730      49.985
2015    4        6    20  45    3.2251   593.3    2.731      49.944
2015    4        6    20  51    3.2239   593.0    2.733      49.903
2015    4        6    20  57    3.2226   592.8    2.734      49.861
2015    4        6    21   3    3.2212   592.5    2.736      49.820
2015    4        6    21   9    3.2199   592.2    2.737      49.779
2015    4        6    21  15    3.2186   591.9    2.738      49.737
2015    4        6    21  21    3.2172   591.6    2.739      49.695
2015    4        6    21  27    3.2159   591.4    2.740      49.652
2015    4        6    21  33    3.2146   591.1    2.741      49.608
2015    4        6    21  39    3.2132   590.8    2.742      49.564
2015    4        6    21  45    3.2118   590.5    2.743      49.519
2015    4        6    21  51    3.2104   590.2    2.744      49.474
2015    4        6    21  57    3.2091   590.0    2.745      49.428
2015    4        6    22   3    3.2077   589.7    2.746      49.381
2015    4        6    22   9    3.2063   589.4    2.746      49.334
2015    4        6    22  15    3.2049   589.1    2.747      49.287
2015    4        6    22  21    3.2036   588.8    2.748      49.240
2015    4        6    22  27    3.2022   588.5    2.749      49.193
2015    4        6    22  33    3.2008   588.2    2.750      49.145
2015    4        6    22  39    3.1995   587.9    2.751      49.098
2015    4        6    22  45    3.1982   587.7    2.751      49.050
2015    4        6    22  51    3.1968   587.4    2.752      49.003
2015    4        6    22  57    3.1955   587.1    2.753      48.957
2015    4        6    23   3    3.1942   586.8    2.754      48.910
2015    4        6    23   9    3.1929   586.5    2.755      48.865
2015    4        6    23  15    3.1916   586.2    2.756      48.819
2015    4        6    23  21    3.1904   585.9    2.757      48.774
2015    4        6    23  27    3.1891   585.6    2.759      48.730
2015    4        6    23  33    3.1879   585.3    2.760      48.685
2015    4        6    23  39    3.1866   585.0    2.761      48.641
2015    4        6    23  45    3.1854   584.8    2.762      48.597
2015    4        6    23  51    3.1842   584.5    2.763      48.553
2015    4        6    23  57    3.1829   584.2    2.765      48.510
2015    4        7     0   3    3.1817   583.9    2.766      48.466
2015    4        7     0   9    3.1805   583.6    2.767      48.422
2015    4        7     0  15    3.1792   583.3    2.768      48.378
2015    4        7     0  21    3.1780   583.0    2.769      48.334
2015    4        7     0  27    3.1768   582.7    2.771      48.291
2015    4        7     0  33    3.1755   582.4    2.772      48.247
2015    4        7     0  39    3.1743   582.0    2.773      48.203
2015    4        7     0  45    3.1730   581.7    2.774      48.158
2015    4        7     0  51    3.1718   581.4    2.775      48.114
2015    4        7     0  57    3.1706   581.1    2.777      48.071
2015    4        7     1   3    3.1694   580.8    2.778      48.027
2015    4        7     1   9    3.1683   580.5    2.779      47.984
2015    4        7     1  15    3.1671   580.2    2.781      47.941
2015    4        7     1  21    3.1659   579.9    2.782      47.898
2015    4        7     1  27    3.1648   579.6    2.784      47.855
2015    4        7     1  33    3.1637   579.3    2.785      47.813
2015    4        7     1  39    3.1625   579.0    2.787      47.770
2015    4        7     1  45    3.1614   578.7    2.788      47.728
2015    4        7     1  51    3.1602   578.4    2.790      47.685
2015    4        7     1  57    3.1591   578.1    2.791      47.643
2015    4        7     2   3    3.1579   577.8    2.792      47.600
2015    4        7     2   9    3.1568   577.5    2.794      47.557
2015    4        7     2  15    3.1556   577.2    2.795      47.513
2015    4        7     2  21    3.1544   576.9    2.797      47.470
2015    4        7     2  27    3.1533   576.6    2.798      47.425
2015    4        7     2  33    3.1521   576.2    2.799      47.381
2015    4        7     2  39    3.1509   575.9    2.801      47.336
2015    4        7     2  45    3.1498   575.6    2.802      47.290
2015    4        7     2  51    3.1486   575.3    2.803      47.245
2015    4        7     2  57    3.1474   575.0    2.805      47.200
2015    4        7     3   3    3.1463   574.7    2.806      47.154
2015    4        7     3   9    3.1451   574.4    2.807      47.109
2015    4        7     3  15    3.1440   574.1    2.809      47.064
2015    4        7     3  21    3.1429   573.8    2.810      47.019
2015    4        7     3  27    3.1418   573.4    2.812      46.974
2015    4        7     3  33    3.1407   573.1    2.813      46.930
2015    4        7     3  39    3.1396   572.8    2.815      46.886
2015    4        7     3  45    3.1385   572.5    2.816      46.842
2015    4        7     3  51    3.1374   572.2    2.818      46.799
2015    4        7     3  57    3.1364   571.9    2.820      46.756
2015    4        7     4   3    3.1353   571.6    2.821      46.713
2015    4        7     4   9    3.1343   571.3    2.823      46.670
2015    4        7     4  15    3.1332   571.0    2.825      46.627
2015    4        7     4  21    3.1321   570.7    2.826      46.585
2015    4        7     4  27    3.1310   570.4    2.828      46.543
2015    4        7     4  33    3.1299   570.1    2.830      46.501
2015    4        7     4  39    3.1288   569.8    2.831      46.459
2015    4        7     4  45    3.1277   569.5    2.833      46.417
2015    4        7     4  51    3.1266   569.2    2.835      46.376
2015    4        7     4  57    3.1255   568.8    2.836      46.334
2015    4        7     5   3    3.1244   568.5    2.838      46.294
2015    4        7     5   9    3.1233   568.2    2.840      46.253
2015    4        7     5  15    3.1222   567.9    2.841      46.212
2015    4        7     5  21    3.1211   567.6    2.843      46.172
2015    4        7     5  27    3.1200   567.3    2.845      46.132
2015    4        7     5  33    3.1189   567.0    2.846      46.092
2015    4        7     5  39    3.1179   566.7    2.848      46.052
2015    4        7     5  45    3.1168   566.4    2.850      46.013
2015    4        7     5  51    3.1158   566.1    2.852      45.973
2015    4        7     5  57    3.1147   565.7    2.854      45.934
2015    4        7     6   3    3.1137   565.4    2.855      45.896
2015    4        7     6   9    3.1127   565.1    2.857      45.858
2015    4        7     6  15    3.1117   564.8    2.859      45.819
2015    4        7     6  21    3.1107   564.5    2.861      45.782
2015    4        7     6  27    3.1098   564.2    2.863      45.744
2015    4        7     6  33    3.1088   563.9    2.865      45.706
2015    4        7     6  40    3.1078   563.6    2.867      45.668
2015    4        7     6  46    3.1068   563.3    2.868      45.630
2015    4        7     6  52    3.1058   563.0    2.870      45.593
2015    4        7     6  58    3.1048   562.7    2.872      45.554
2015    4        7     7   4    3.1038   562.4    2.874      45.516
2015    4        7     7  10    3.1028   562.1    2.876      45.478
2015    4        7     7  16    3.1018   561.8    2.877      45.439
2015    4        7     7  22    3.1008   561.5    2.879      45.400
2015    4        7     7  28    3.0998   561.2    2.881      45.360
2015    4        7     7  34    3.0988   560.9    2.882      45.320
2015    4        7     7  40    3.0978   560.6    2.884      45.280
2015    4        7     7  46    3.0968   560.3    2.886      45.240
2015    4        7     7  52    3.0957   559.9    2.887      45.200
2015    4        7     7  58    3.0948   559.6    2.889      45.159
2015    4        7     8   4    3.0938   559.3    2.890      45.119
2015    4        7     8  10    3.0928   559.0    2.892      45.078
2015    4        7     8  16    3.0918   558.7    2.894      45.038
2015    4        7     8  22    3.0909   558.4    2.895      44.997
2015    4        7     8  28    3.0899   558.1    2.897      44.957
2015    4        7     8  34    3.0890   557.8    2.899      44.916
2015    4        7     8  40    3.0880   557.5    2.901      44.877
2015    4        7     8  46    3.0871   557.2    2.902      44.837
2015    4        7     8  52    3.0862   556.9    2.904      44.797
2015    4        7     8  58    3.0853   556.6    2.906      44.758
2015    4        7     9   4    3.0844   556.3    2.908      44.718
2015    4        7     9  10    3.0836   555.9    2.910      44.679
2015    4        7     9  16    3.0827   555.6    2.912      44.640
2015    4        7     9  22    3.0818   555.3    2.914      44.601
2015    4        7     9  28    3.0809   555.0    2.916      44.562
2015    4        7     9  34    3.0800   554.7    2.918      44.522
2015    4        7     9  40    3.0791   554.4    2.920      44.483
2015    4        7     9  46    3.0782   554.1    2.921      44.443
2015    4        7     9  52    3.0773   553.8    2.923      44.404
2015    4        7     9  58    3.0764   553.5    2.925      44.364
2015    4        7    10   4    3.0755   553.2    2.927      44.324
2015    4        7    10  10    3.0746   552.9    2.929      44.284
2015    4        7    10  16    3.0737   552.5    2.931      44.244
2015    4        7    10  22    3.0728   552.2    2.933      44.204
2015    4        7    10  28    3.0719   551.9    2.935      44.163
2015    4        7    10  34    3.0710   551.6    2.937      44.123
2015    4        7    10  40    3.0702   551.3    2.939      44.083
2015    4        7    10  46    3.0693   551.0    2.941      44.043
2015    4        7    10  52    3.0684   550.7    2.943      44.003
2015    4        7    10  58    3.0676   550.4    2.944      43.962
2015    4        7    11   4    3.0667   550.0    2.946      43.922
2015    4        7    11  10    3.0659   549.7    2.948      43.882
2015    4        7    11  16    3.0650   549.4    2.950      43.842
2015    4        7    11  22    3.0642   549.1    2.952      43.801
2015    4        7    11  28    3.0634   548.8    2.954      43.761
2015    4        7    11  34    3.0625   548.5    2.956      43.720
2015    4        7    11  40    3.0617   548.2    2.958      43.679
2015    4        7    11  46    3.0609   547.8    2.960      43.639
2015    4        7    11  52    3.0601   547.5    2.962      43.598
2015    4        7    11  58    3.0592   547.2    2.964      43.557
2015    4        7    12   4    3.0584   546.9    2.966      43.516
2015    4        7    12  10    3.0576   546.6    2.968      43.475
2015    4        7    12  16    3.0568   546.3    2.970      43.434
2015    4        7    12  22    3.0560   545.9    2.972      43.393
2015    4        7    12  28    3.0551   545.6    2.974      43.352
2015    4        7    12  34    3.0543   545.3    2.976      43.311
2015    4        7    12  40    3.0536   545.0    2.978      43.271
2015    4        7    12  46    3.0528   544.7    2.980      43.230
2015    4        7    12  52    3.0520   544.3    2.982      43.190
2015    4        7    12  58    3.0512   544.0    2.984      43.151
2015    4        7    13   4    3.0505   543.7    2.986      43.111
2015    4        7    13  10    3.0497   543.4    2.989      43.072
2015    4        7    13  16    3.0490   543.1    2.991      43.033
2015    4        7    13  22    3.0483   542.8    2.993      42.995
2015    4        7    13  28    3.0476   542.5    2.995      42.957
2015    4        7    13  34    3.0469   542.1    2.998      42.919
2015    4        7    13  40    3.0462   541.8    3.000      42.882
2015    4        7    13  46    3.0455   541.5    3.002      42.844
2015    4        7    13  52    3.0448   541.2    3.005      42.807
2015    4        7    13  58    3.0442   540.9    3.007      42.771
2015    4        7    14   4    3.0435   540.6    3.010      42.734
2015    4        7    14  10    3.0429   540.3    3.012      42.698
2015    4        7    14  16    3.0422   540.0    3.015      42.662
2015    4        7    14  22    3.0416   539.6    3.017      42.626
2015    4        7    14  28    3.0409   539.3    3.020      42.589
2015    4        7    14  34    3.0402   539.0    3.022      42.553
2015    4        7    14  40    3.0396   538.7    3.025      42.518
2015    4        7    14  46    3.0390   538.4    3.027      42.482
2015    4        7    14  52    3.0383   538.1    3.030      42.446
2015    4        7    14  58    3.0377   537.8    3.032      42.410
2015    4        7    15   4    3.0371   537.4    3.034      42.374
2015    4        7    15  10    3.0365   537.1    3.037      42.339
2015    4        7    15  16    3.0359   536.8    3.039      42.303
2015    4        7    15  22    3.0353   536.5    3.042      42.267
2015    4        7    15  28    3.0347   536.2    3.044      42.231
2015    4        7    15  34    3.0341   535.9    3.047      42.195
2015    4        7    15  40    3.0335   535.6    3.049      42.159
2015    4        7    15  46    3.0329   535.3    3.052      42.123
2015    4        7    15  52    3.0323   535.0    3.054      42.087
2015    4        7    15  58    3.0318   534.7    3.057      42.051
2015    4        7    16   4    3.0312   534.3    3.059      42.015
2015    4        7    16  10    3.0306   534.0    3.062      41.978
2015    4        7    16  16    3.0300   533.7    3.064      41.941
2015    4        7    16  22    3.0295   533.4    3.067      41.904
2015    4        7    16  28    3.0289   533.1    3.069      41.867
2015    4        7    16  34    3.0283   532.8    3.072      41.830
2015    4        7    16  40    3.0278   532.5    3.074      41.793
2015    4        7    16  46    3.0272   532.2    3.077      41.756
2015    4        7    16  52    3.0266   531.9    3.079      41.718
2015    4        7    16  58    3.0261   531.6    3.082      41.681
2015    4        7    17   4    3.0255   531.2    3.084      41.643
2015    4        7    17  10    3.0250   530.9    3.086      41.605
2015    4        7    17  16    3.0244   530.6    3.089      41.568
2015    4        7    17  22    3.0239   530.3    3.091      41.530
2015    4        7    17  28    3.0234   530.0    3.094      41.493
2015    4        7    17  34    3.0229   529.7    3.096      41.456
2015    4        7    17  40    3.0223   529.4    3.099      41.419
2015    4        7    17  46    3.0218   529.1    3.102      41.382
2015    4        7    17  52    3.0213   528.8    3.104      41.345
2015    4        7    17  58    3.0209   528.5    3.107      41.308
2015    4        7    18   4    3.0204   528.1    3.110      41.272
2015    4        7    18  10    3.0199   527.8    3.112      41.236
2015    4        7    18  16    3.0194   527.5    3.115      41.200
2015    4        7    18  22    3.0190   527.2    3.118      41.164
2015    4        7    18  28    3.0185   526.9    3.120      41.128
2015    4        7    18  34    3.0181   526.6    3.123      41.093
2015    4        7    18  41    3.0177   526.3    3.126      41.058
2015    4        7    18  47    3.0173   526.0    3.129      41.022
2015    4        7    18  53    3.0168   525.7    3.131      40.987
2015    4        7    18  59    3.0164   525.4    3.134      40.952
2015    4        7    19   5    3.0160   525.1    3.137      40.917
2015    4        7    19  11    3.0156   524.8    3.140      40.882
2015    4        7    19  17    3.0152   524.5    3.143      40.847
2015    4        7    19  23    3.0148   524.2    3.145      40.812
2015    4        7    19  29    3.0144   523.9    3.148      40.777
2015    4        7    19  35    3.0140   523.6    3.151      40.741
2015    4        7    19  41    3.0136   523.3    3.154      40.706
2015    4        7    19  47    3.0132   523.0    3.156      40.670
2015    4        7    19  53    3.0128   522.7    3.159      40.634
2015    4        7    19  59    3.0124   522.4    3.162      40.598
2015    4        7    20   5    3.0120   522.1    3.165      40.562
2015    4        7    20  11    3.0116   521.8    3.167      40.525
2015    4        7    20  17    3.0112   521.5    3.170      40.489
2015    4        7    20  23    3.0108   521.2    3.173      40.452
2015    4        7    20  29    3.0103   520.8    3.175      40.414
2015    4        7    20  35    3.0099   520.5    3.178      40.377
2015    4        7    20  41    3.0095   520.2    3.181      40.340
2015    4        7    20  47    3.0092   519.9    3.183      40.302
2015    4        7    20  53    3.0088   519.6    3.186      40.264
2015    4        7    20  59    3.0084   519.3    3.188      40.227
2015    4        7    21   5    3.0080   519.0    3.191      40.189
2015    4        7    21  11    3.0076   518.7    3.194      40.151
2015    4        7    21  17    3.0072   518.4    3.196      40.113
2015    4        7    21  23    3.0069   518.1    3.199      40.075
2015    4        7    21  29    3.0065   517.8    3.202      40.038
2015    4        7    21  35    3.0062   517.5    3.204      40.000
2015    4        7    21  41    3.0059   517.2    3.207      39.963
2015    4        7    21  47    3.0056   516.8    3.210      39.925
2015    4        7    21  53    3.0053   516.5    3.213      39.888
2015    4        7    21  59    3.0050   516.2    3.215      39.851
2015    4        7    22   5    3.0047   515.9    3.218      39.815
2015    4        7    22  11    3.0044   515.6    3.221      39.778
2015    4        7    22  17    3.0042   515.3    3.224      39.742
2015    4        7    22  23    3.0039   515.0    3.227      39.706
2015    4        7    22  29    3.0037   514.7    3.230      39.670
2015    4        7    22  35    3.0034   514.4    3.233      39.634
2015    4        7    22  41    3.0032   514.1    3.236      39.599
2015    4        7    22  47    3.0030   513.8    3.239      39.563
2015    4        7    22  53    3.0028   513.5    3.242      39.528
2015    4        7    22  59    3.0026   513.2    3.246      39.493
2015    4        7    23   5    3.0025   512.9    3.249      39.459
2015    4        7    23  11    3.0023   512.6    3.252      39.424
2015    4        7    23  17    3.0021   512.3    3.255      39.389
2015    4        7    23  23    3.0019   511.9    3.259      39.355
2015    4        7    23  29    3.0018   511.6    3.262      39.321
2015    4        7    23  35    3.0016   511.3    3.265      39.287
2015    4        7    23  41    3.0015   511.0    3.268      39.253
2015    4        7    23  47    3.0013   510.7    3.272      39.219
2015    4        7    23  53    3.0012   510.4    3.275      39.185
2015    4        7    23  59    3.0011   510.1    3.278      39.151
2015    4        8     0   5    3.0009   509.8    3.282      39.117
2015    4        8     0  11    3.0008   509.5    3.285      39.083
2015    4        8     0  17    3.0007   509.2    3.288      39.049
2015    4        8     0  23    3.0005   508.9    3.292      39.016
2015    4        8     0  29    3.0004   508.6    3.295      38.982
2015    4        8     0  35    3.0003   508.3    3.298      38.948
2015    4        8     0  41    3.0002   508.0    3.302      38.914
2015    4        8     0  47    3.0001   507.7    3.305      38.880
2015    4        8     0  53    3.0000   507.4    3.309      38.846
2015    4        8     0  59    2.9999   507.1    3.312      38.812
2015    4        8     1   5    2.9998   506.8    3.315      38.778
2015    4        8     1  11    2.9997   506.5    3.319      38.744
2015    4        8     1  17    2.9996   506.2    3.322      38.710
2015    4        8     1  23    2.9996   505.9    3.326      38.676
2015    4        8     1  29    2.9995   505.6    3.329      38.642
2015    4        8     1  35    2.9994   505.3    3.333      38.608
2015    4        8     1  41    2.9994   505.0    3.336      38.574
2015    4        8     1  47    2.9993   504.7    3.339      38.540
2015    4        8     1  53    2.9993   504.4    3.343      38.506
2015    4        8     1  59    2.9992   504.1    3.346      38.472
2015    4        8     2   5    2.9992   503.8    3.350      38.438
2015    4        8     2  11    2.9992   503.5    3.353      38.404
2015    4        8     2  17    2.9992   503.2    3.357      38.370
2015    4        8     2  23    2.9991   502.9    3.361      38.336
2015    4        8     2  29    2.9991   502.6    3.364      38.303
2015    4        8     2  35    2.9991   502.3    3.368      38.269
2015    4        8     2  41    2.9991   502.0    3.371      38.235
2015    4        8     2  47    2.9991   501.7    3.375      38.202
2015    4        8     2  53    2.9992   501.4    3.378      38.168
2015    4        8     2  59    2.9992   501.1    3.382      38.134
2015    4        8     3   5    2.9992   500.8    3.386      38.101
2015    4        8     3  11    2.9992   500.5    3.389      38.067
2015    4        8     3  17    2.9992   500.2    3.393      38.034
2015    4        8     3  23    2.9993   500.0    3.397      38.001
2015    4        8     3  29    2.9993   499.7    3.400      37.967
2015    4        8     3  35    2.9994   499.4    3.404      37.934
2015    4        8     3  41    2.9994   499.1    3.407      37.901
2015    4        8     3  47    2.9995   498.8    3.411      37.867
2015    4        8     3  53    2.9995   498.5    3.415      37.834
2015    4        8     3  59    2.9996   498.2    3.418      37.801
2015    4        8     4   5    2.9997   497.9    3.422      37.768
2015    4        8     4  11    2.9997   497.6    3.426      37.735
2015    4        8     4  17    2.9998   497.3    3.429      37.703
2015    4        8     4  23    2.9999   497.0    3.433      37.670
2015    4        8     4  29    3.0000   496.7    3.437      37.637
2015    4        8     4  35    3.0001   496.4    3.440      37.604
2015    4        8     4  41    3.0002   496.1    3.444      37.572
2015    4        8     4  47    3.0003   495.8    3.448      37.539
2015    4        8     4  53    3.0005   495.5    3.452      37.507
2015    4        8     4  59    3.0006   495.2    3.455      37.475
2015    4        8     5   5    3.0008   494.9    3.459      37.442
2015    4        8     5  11    3.0009   494.6    3.463      37.410
2015    4        8     5  17    3.0011   494.3    3.467      37.378
2015    4        8     5  23    3.0013   494.0    3.470      37.346
2015    4        8     5  29    3.0014   493.7    3.474      37.314
2015    4        8     5  35    3.0016   493.4    3.478      37.282
2015    4        8     5  41    3.0019   493.1    3.482      37.251
2015    4        8     5  47    3.0021   492.8    3.486      37.219
2015    4        8     5  53    3.0023   492.6    3.490      37.188
2015    4        8     5  59    3.0025   492.3    3.494      37.156
2015    4        8     6   5    3.0028   492.0    3.497      37.125
2015    4        8     6  11    3.0031   491.7    3.501      37.094
2015    4        8     6  17    3.0034   491.4    3.505      37.063
2015    4        8     6  23    3.0036   491.1    3.509      37.031
2015    4        8     6  29    3.0039   490.8    3.514      37.000
2015    4        8     6  35    3.0042   490.5    3.518      36.969
2015    4        8     6  41    3.0045   490.2    3.522      36.938
2015    4        8     6  47    3.0049   489.9    3.526      36.907
2015    4        8     6  54    3.0052   489.6    3.530      36.877
2015    4        8     7   0    3.0055   489.3    3.534      36.846
2015    4        8     7   6    3.0059   489.0    3.538      36.815
2015    4        8     7  12    3.0062   488.8    3.542      36.784
2015    4        8     7  18    3.0066   488.5    3.547      36.754
2015    4        8     7  24    3.0070   488.2    3.551      36.723
2015    4        8     7  30    3.0073   487.9    3.555      36.693
2015    4        8     7  36    3.0077   487.6    3.559      36.662
2015    4        8     7  42    3.0081   487.3    3.564      36.632
2015    4        8     7  48    3.0085   487.0    3.568      36.601
2015    4        8     7  54    3.0089   486.7    3.572      36.571
2015    4        8     8   0    3.0093   486.4    3.577      36.540
2015    4        8     8   6    3.0097   486.1    3.581      36.510
2015    4        8     8  12    3.0101   485.9    3.586      36.480
2015    4        8     8  18    3.0105   485.6    3.590      36.449
2015    4        8     8  24    3.0110   485.3    3.594      36.419
2015    4        8     8  30    3.0114   485.0    3.599      36.389
2015    4        8     8  36    3.0119   484.7    3.603      36.359
2015    4        8     8  42    3.0123   484.4    3.608      36.329
2015    4        8     8  48    3.0128   484.1    3.612      36.299
2015    4        8     8  54    3.0132   483.8    3.617      36.269
2015    4        8     9   0    3.0137   483.5    3.621      36.239
2015    4        8     9   6    3.0142   483.3    3.626      36.209
2015    4        8     9  12    3.0147   483.0    3.630      36.180
2015    4        8     9  18    3.0152   482.7    3.635      36.150
2015    4        8     9  24    3.0157   482.4    3.639      36.120
2015    4        8     9  30    3.0162   482.1    3.644      36.091
2015    4        8     9  36    3.0167   481.8    3.649      36.062
2015    4        8     9  42    3.0172   481.5    3.653      36.032
2015    4        8     9  48    3.0177   481.3    3.658      36.003
2015    4        8     9  54    3.0183   481.0    3.663      35.974
2015    4        8    10   0    3.0188   480.7    3.667      35.945
2015    4        8    10   6    3.0194   480.4    3.672      35.917
2015    4        8    10  12    3.0200   480.1    3.677      35.888
2015    4        8    10  18    3.0205   479.8    3.681      35.859
2015    4        8    10  24    3.0211   479.5    3.686      35.831
2015    4        8    10  30    3.0217   479.3    3.691      35.802
2015    4        8    10  36    3.0223   479.0    3.696      35.774
2015    4        8    10  42    3.0229   478.7    3.700      35.746
2015    4        8    10  48    3.0235   478.4    3.705      35.718
2015    4        8    10  54    3.0241   478.1    3.710      35.690
2015    4        8    11   0    3.0247   477.8    3.715      35.661
2015    4        8    11   6    3.0253   477.6    3.720      35.634
2015    4        8    11  12    3.0260   477.3    3.725      35.606
2015    4        8    11  18    3.0266   477.0    3.729      35.578
2015    4        8    11  24    3.0273   476.7    3.734      35.551
2015    4        8    11  30    3.0279   476.4    3.739      35.523
2015    4        8    11  36    3.0286   476.1    3.744      35.496
2015    4        8    11  42    3.0293   475.9    3.749      35.468
2015    4        8    11  48    3.0299   475.6    3.754      35.441
2015    4        8    11  54    3.0306   475.3    3.759      35.414
2015    4        8    12   0    3.0313   475.0    3.764      35.387
2015    4        8    12   6    3.0320   474.7    3.769      35.360
2015    4        8    12  12    3.0328   474.5    3.774      35.333
2015    4        8    12  18    3.0335   474.2    3.779      35.306
2015    4        8    12  24    3.0342   473.9    3.784      35.280
2015    4        8    12  30    3.0350   473.6    3.789      35.253
2015    4        8    12  36    3.0357   473.3    3.794      35.227
2015    4        8    12  42    3.0365   473.1    3.799      35.200
2015    4        8    12  48    3.0373   472.8    3.804      35.174
2015    4        8    12  54    3.0381   472.5    3.809      35.148
2015    4        8    13   0    3.0389   472.2    3.814      35.122
2015    4        8    13   6    3.0397   472.0    3.819      35.096
2015    4        8    13  12    3.0405   471.7    3.825      35.070
2015    4        8    13  18    3.0414   471.4    3.830      35.045
2015    4        8    13  24    3.0422   471.1    3.835      35.019
2015    4        8    13  30    3.0431   470.9    3.840      34.994
2015    4        8    13  36    3.0440   470.6    3.845      34.968
2015    4        8    13  42    3.0449   470.3    3.851      34.943
2015    4        8    13  48    3.0458   470.0    3.856      34.918
2015    4        8    13  54    3.0467   469.8    3.861      34.893
2015    4        8    14   0    3.0476   469.5    3.866      34.868
2015    4        8    14   6    3.0486   469.2    3.872      34.843
2015    4        8    14  12    3.0495   468.9    3.877      34.818
2015    4        8    14  18    3.0505   468.7    3.882      34.794
2015    4        8    14  24    3.0515   468.4    3.888      34.769
2015    4        8    14  30    3.0525   468.1    3.893      34.744
2015    4        8    14  36    3.0535   467.8    3.898      34.720
2015    4        8    14  42    3.0546   467.6    3.904      34.696
2015    4        8    14  48    3.0556   467.3    3.909      34.671
2015    4        8    14  54    3.0567   467.0    3.914      34.647
2015    4        8    15   0    3.0577   466.8    3.920      34.623
2015    4        8    15   6    3.0588   466.5    3.925      34.599
2015    4        8    15  12    3.0599   466.2    3.931      34.575
2015    4        8    15  18    3.0610   465.9    3.936      34.551
2015    4        8    15  24    3.0621   465.7    3.942      34.527
2015    4        8    15  30    3.0632   465.4    3.947      34.503
2015    4        8    15  36    3.0644   465.1    3.953      34.479
2015    4        8    15  42    3.0655   464.9    3.958      34.456
2015    4        8    15  48    3.0667   464.6    3.964      34.432
2015    4        8    15  54    3.0678   464.3    3.970      34.408
2015    4        8    16   0    3.0690   464.1    3.975      34.384
2015    4        8    16   6    3.0701   463.8    3.981      34.361
2015    4        8    16  12    3.0713   463.5    3.986      34.337
2015    4        8    16  18    3.0725   463.3    3.992      34.313
2015    4        8    16  24    3.0737   463.0    3.998      34.290
2015    4        8    16  30    3.0749   462.7    4.004      34.267
2015    4        8    16  36    3.0762   462.5    4.009      34.243
2015    4        8    16  42    3.0774   462.2    4.015      34.220
2015    4        8    16  48    3.0786   461.9    4.021      34.196
2015    4        8    16  54    3.0798   461.7    4.027      34.173
2015    4        8    17   0    3.0811   461.4    4.032      34.150
2015    4        8    17   6    3.0823   461.2    4.038      34.127
2015    4        8    17  12    3.0836   460.9    4.044      34.103
2015    4        8    17  18    3.0848   460.6    4.050      34.080
2015    4        8    17  24    3.0861   460.4    4.056      34.057
2015    4        8    17  30    3.0873   460.1    4.062      34.034
2015    4        8    17  36    3.0886   459.8    4.068      34.011
2015    4        8    17  42    3.0899   459.6    4.074      33.988
2015    4        8    17  48    3.0911   459.3    4.080      33.965
2015    4        8    17  54    3.0924   459.1    4.086      33.943
2015    4        8    18   0    3.0937   458.8    4.092      33.920
2015    4        8    18   6    3.0950   458.5    4.098      33.897
2015    4        8    18  12    3.0963   458.3    4.104      33.874
2015    4        8    18  18    3.0976   458.0    4.110      33.852
2015    4        8    18  24    3.0989   457.8    4.116      33.829
2015    4        8    18  31    3.1002   457.5    4.122      33.807
2015    4        8    18  37    3.1015   457.2    4.128      33.784
2015    4        8    18  43    3.1029   457.0    4.134      33.762
2015    4        8    18  49    3.1042   456.7    4.141      33.740
2015    4        8    18  55    3.1055   456.5    4.147      33.717
2015    4        8    19   1    3.1069   456.2    4.153      33.695
2015    4        8    19   7    3.1082   455.9    4.159      33.673
2015    4        8    19  13    3.1096   455.7    4.166      33.651
2015    4        8    19  19    3.1109   455.4    4.172      33.629
2015    4        8    19  25    3.1123   455.2    4.178      33.608
2015    4        8    19  31    3.1137   454.9    4.185      33.586
2015    4        8    19  37    3.1151   454.6    4.191      33.564
2015    4        8    19  43    3.1165   454.4    4.197      33.543
2015    4        8    19  49    3.1179   454.1    4.204      33.522
2015    4        8    19  55    3.1194   453.9    4.210      33.501
2015    4        8    20   1    3.1208   453.6    4.217      33.480
2015    4        8    20   7    3.1223   453.3    4.223      33.459
2015    4        8    20  13    3.1238   453.1    4.230      33.438
2015    4        8    20  19    3.1253   452.8    4.237      33.418
2015    4        8    20  25    3.1269   452.6    4.243      33.398
2015    4        8    20  31    3.1284   452.3    4.250      33.378
2015    4        8    20  37    3.1300   452.1    4.257      33.359
2015    4        8    20  43    3.1316   451.8    4.264      33.340
2015    4        8    20  49    3.1332   451.5    4.271      33.321
2015    4        8    20  55    3.1349   451.3    4.278      33.302
2015    4        8    21   1    3.1366   451.0    4.285      33.284
2015    4        8    21   7    3.1383   450.8    4.292      33.267
2015    4        8    21  13    3.1400   450.5    4.299      33.249
2015    4        8    21  19    3.1418   450.3    4.306      33.232
2015    4        8    21  25    3.1436   450.0    4.313      33.216
2015    4        8    21  31    3.1454   449.8    4.321      33.200
2015    4        8    21  37    3.1472   449.5    4.328      33.184
2015    4        8    21  43    3.1491   449.3    4.335      33.168
2015    4        8    21  49    3.1510   449.0    4.343      33.153
2015    4        8    21  55    3.1530   448.8    4.351      33.139
2015    4        8    22   1    3.1549   448.5    4.358      33.124
2015    4        8    22   7    3.1569   448.3    4.366      33.110
2015    4        8    22  13    3.1589   448.0    4.373      33.097
2015    4        8    22  19    3.1610   447.8    4.381      33.083
2015    4        8    22  25    3.1630   447.5    4.389      33.070
2015    4        8    22  31    3.1651   447.3    4.397      33.057
2015    4        8    22  37    3.1672   447.1    4.405      33.045
2015    4        8    22  43    3.1693   446.8    4.412      33.032
2015    4        8    22  49    3.1714   446.6    4.420      33.020
2015    4        8    22  55    3.1735   446.3    4.428      33.008
2015    4        8    23   1    3.1757   446.1    4.436      32.996
2015    4        8    23   7    3.1778   445.9    4.444      32.984
2015    4        8    23  13    3.1800   445.6    4.452      32.972
2015    4        8    23  19    3.1822   445.4    4.459      32.960
2015    4        8    23  25    3.1843   445.2    4.467      32.948
2015    4        8    23  31    3.1865   445.0    4.475      32.936
2015    4        8    23  37    3.1887   444.7    4.483      32.924
2015    4        8    23  43    3.1909   444.5    4.491      32.912
2015    4        8    23  49    3.1930   444.3    4.498      32.901
2015    4        8    23  55    3.1952   444.0    4.506      32.889
2015    4        9     0   1    3.1974   443.8    4.514      32.877
2015    4        9     0   7    3.1996   443.6    4.522      32.865
2015    4        9     0  13    3.2019   443.4    4.529      32.853
2015    4        9     0  19    3.2041   443.1    4.537      32.841
2015    4        9     0  25    3.2063   442.9    4.545      32.829
2015    4        9     0  31    3.2085   442.7    4.553      32.817
2015    4        9     0  37    3.2108   442.5    4.560      32.805
2015    4        9     0  43    3.2130   442.3    4.568      32.793
2015    4        9     0  49    3.2153   442.0    4.576      32.781
2015    4        9     0  55    3.2175   441.8    4.584      32.769
2015    4        9     1   1    3.2198   441.6    4.591      32.757
2015    4        9     1   7    3.2221   441.4    4.599      32.746
2015    4        9     1  13    3.2244   441.2    4.607      32.734
2015    4        9     1  19    3.2267   441.0    4.615      32.722
2015    4        9     1  25    3.2290   440.7    4.623      32.711
2015    4        9     1  31    3.2314   440.5    4.631      32.700
2015    4        9     1  37    3.2338   440.3    4.639      32.689
2015    4        9     1  43    3.2361   440.1    4.647      32.678
2015    4        9     1  49    3.2385   439.9    4.655      32.667
2015    4        9     1  55    3.2409   439.7    4.663      32.657
2015    4        9     2   1    3.2433   439.5    4.671      32.646
2015    4        9     2   7    3.2458   439.3    4.680      32.636
2015    4        9     2  13    3.2483   439.1    4.688      32.626
2015    4        9     2  19    3.2507   438.9    4.696      32.617
2015    4        9     2  25    3.2532   438.7    4.705      32.607
2015    4        9     2  31    3.2557   438.5    4.713      32.598
2015    4        9     2  37    3.2583   438.3    4.722      32.589
2015    4        9     2  43    3.2609   438.1    4.731      32.581
2015    4        9     2  49    3.2635   437.9    4.739      32.573
2015    4        9     2  55    3.2661   437.7    4.748      32.565
2015    4        9     3   1    3.2687   437.5    4.757      32.557
2015    4        9     3   7    3.2714   437.3    4.766      32.550
2015    4        9     3  13    3.2741   437.1    4.775      32.544
2015    4        9     3  19    3.2768   436.9    4.784      32.538
2015    4        9     3  25    3.2796   436.7    4.793      32.532
2015    4        9     3  31    3.2824   436.5    4.802      32.526
2015    4        9     3  37    3.2852   436.3    4.812      32.522
2015    4        9     3  43    3.2881   436.1    4.821      32.517
2015    4        9     3  49    3.2910   435.9    4.831      32.514
2015    4        9     3  55    3.2940   435.7    4.840      32.510
2015    4        9     4   1    3.2970   435.6    4.850      32.508
2015    4        9     4   7    3.3001   435.4    4.860      32.506
2015    4        9     4  13    3.3032   435.2    4.870      32.505
2015    4        9     4  19    3.3064   435.0    4.880      32.505
2015    4        9     4  25    3.3097   434.8    4.890      32.505
2015    4        9     4  31    3.3130   434.7    4.901      32.506
2015    4        9     4  37    3.3165   434.5    4.911      32.508
2015    4        9     4  43    3.3200   434.3    4.922      32.511
2015    4        9     4  49    3.3236   434.1    4.933      32.516
2015    4        9     4  55    3.3272   434.0    4.944      32.520
2015    4        9     5   1    3.3310   433.8    4.955      32.527
2015    4        9     5   7    3.3349   433.6    4.966      32.534
2015    4        9     5  13    3.3390   433.5    4.978      32.542
2015    4        9     5  19    3.3431   433.3    4.989      32.552
2015    4        9     5  25    3.3474   433.1    5.001      32.563
2015    4        9     5  31    3.3518   433.0    5.014      32.575
2015    4        9     5  37    3.3564   432.8    5.026      32.589
2015    4        9     5  43    3.3611   432.7    5.039      32.605
2015    4        9     5  49    3.3660   432.6    5.051      32.622
2015    4        9     5  55    3.3711   432.4    5.065      32.641
2015    4        9     6   1    3.3765   432.3    5.078      32.662
2015    4        9     6   7    3.3820   432.1    5.092      32.684
2015    4        9     6  13    3.3878   432.0    5.106      32.709
2015    4        9     6  19    3.3938   431.9    5.121      32.736
2015    4        9     6  25    3.4002   431.8    5.136      32.766
2015    4        9     6  31    3.4068   431.7    5.151      32.798
2015    4        9     6  38    3.4138   431.6    5.167      32.833
2015    4        9     6  44    3.4211   431.5    5.184      32.870
2015    4        9     6  50    3.4289   431.4    5.201      32.911
2015    4        9     6  56    3.4370   431.3    5.219      32.955
2015    4        9     7   2    3.4456   431.3    5.237      33.002
2015    4        9     7   8    3.4547   431.2    5.256      33.053
2015    4        9     7  14    3.4643   431.2    5.276      33.108
2015    4        9     7  20    3.4745   431.1    5.296      33.167
2015    4        9     7  26    3.4853   431.1    5.318      33.230
2015    4        9     7  32    3.4966   431.1    5.340      33.297
2015    4        9     7  38    3.5088   431.1    5.363      33.368
2015    4        9     7  44    3.5217   431.1    5.388      33.445
2015    4        9     7  50    3.5354   431.1    5.413      33.526
2015    4        9     7  56    3.5500   431.1    5.440      33.614
2015    4        9     8   2    3.5657   431.1    5.468      33.706
2015    4        9     8   8    3.5823   431.2    5.498      33.805
2015    4        9     8  14    3.6001   431.3    5.529      33.910
2015    4        9     8  20    3.6191   431.3    5.561      34.021
2015    4        9     8  26    3.6395   431.4    5.596      34.139
2015    4        9     8  32    3.6612   431.6    5.632      34.264
2015    4        9     8  38    3.6846   431.7    5.670      34.397
2015    4        9     8  44    3.7095   431.8    5.710      34.537
2015    4        9     8  50    3.7364   432.0    5.752      34.684
2015    4        9     8  56    3.7649   432.2    5.797      34.839
2015    4        9     9   2    3.7957   432.4    5.843      35.002
2015    4        9     9   8    3.8285   432.6    5.892      35.173
2015    4        9     9  14    3.8640   432.8    5.944      35.352
2015    4        9     9  20    3.9015   433.1    5.998      35.539
2015    4        9     9  26    3.9417   433.4    6.055      35.734
2015    4        9     9  32    3.9839   433.7    6.115      35.936
2015    4        9     9  38    4.0287   434.0    6.177      36.144
2015    4        9     9  44    4.0759   434.4    6.242      36.356
2015    4        9     9  50    4.1257   434.7    6.308      36.572
2015    4        9     9  56    4.1771   435.1    6.377      36.791
2015    4        9    10   2    4.2301   435.4    6.449      37.010
2015    4        9    10   8    4.2841   435.8    6.521      37.229
2015    4        9    10  14    4.3391   436.2    6.594      37.444
2015    4        9    10  20    4.3934   436.6    6.668      37.652
2015    4        9    10  26    4.4471   437.0    6.741      37.850
2015    4        9    10  32    4.4995   437.3    6.813      38.035
2015    4        9    10  38    4.5507   437.6    6.882      38.208
2015    4        9    10  44    4.6001   437.9    6.950      38.367
2015    4        9    10  50    4.6475   438.2    7.015      38.513
2015    4        9    10  56    4.6928   438.4    7.078      38.648
2015    4        9    11   2    4.7360   438.6    7.138      38.773
2015    4        9    11   8    4.7770   438.8    7.195      38.887
2015    4        9    11  14    4.8158   439.0    7.250      38.993
2015    4        9    11  20    4.8524   439.2    7.302      39.090
2015    4        9    11  26    4.8869   439.3    7.352      39.179
2015    4        9    11  32    4.9193   439.4    7.399      39.262
2015    4        9    11  38    4.9495   439.5    7.444      39.338
2015    4        9    11  44    4.9777   439.6    7.487      39.408
2015    4        9    11  50    5.0039   439.6    7.527      39.473
2015    4        9    11  56    5.0282   439.7    7.565      39.534
2015    4        9    12   2    5.0505   439.7    7.601      39.590
2015    4        9    12   8    5.0712   439.7    7.634      39.641
2015    4        9    12  14    5.0900   439.7    7.666      39.690
2015    4        9    12  20    5.1073   439.7    7.695      39.734
2015    4        9    12  26    5.1229   439.6    7.723      39.776
2015    4        9    12  32    5.1372   439.6    7.748      39.815
2015    4        9    12  38    5.1499   439.5    7.772      39.852
2015    4        9    12  44    5.1615   439.4    7.794      39.886
2015    4        9    12  50    5.1717   439.3    7.815      39.917
2015    4        9    12  56    5.1808   439.2    7.834      39.946
2015    4        9    13   2    5.1888   439.1    7.851      39.973
2015    4        9    13   8    5.1958   439.0    7.866      39.998
2015    4        9    13  14    5.2019   438.9    7.881      40.021
2015    4        9    13  20    5.2072   438.7    7.894      40.042
2015    4        9    13  26    5.2118   438.6    7.905      40.062
2015    4        9    13  32    5.2156   438.4    7.916      40.079
2015    4        9    13  38    5.2187   438.3    7.925      40.094
2015    4        9    13  44    5.2213   438.1    7.932      40.108
2015    4        9    13  50    5.2232   437.9    7.939      40.119
2015    4        9    13  56    5.2247   437.7    7.944      40.128
2015    4        9    14   2    5.2255   437.6    7.949      40.134
2015    4        9    14   8    5.2259   437.4    7.952      40.138
2015    4        9    14  14    5.2256   437.2    7.954      40.139
2015    4        9    14  20    5.2248   437.0    7.955      40.137
2015    4        9    14  26    5.2233   436.8    7.955      40.132
2015    4        9    14  32    5.2214   436.6    7.954      40.124
2015    4        9    14  38    5.2186   436.5    7.951      40.112
2015    4        9    14  44    5.2153   436.3    7.948      40.096
2015    4        9    14  50    5.2112   436.1    7.944      40.077
2015    4        9    14  56    5.2065   435.9    7.939      40.056
2015    4        9    15   2    5.2009   435.7    7.933      40.030
2015    4        9    15   8    5.1947   435.6    7.926      40.001
2015    4        9    15  14    5.1874   435.4    7.918      39.969
2015    4        9    15  20    5.1794   435.2    7.909      39.934
2015    4        9    15  26    5.1703   435.0    7.900      39.897
2015    4        9    15  32    5.1603   434.9    7.890      39.857
2015    4        9    15  38    5.1491   434.7    7.879      39.814
2015    4        9    15  44    5.1370   434.5    7.868      39.772
2015    4        9    15  50    5.1236   434.3    7.856      39.729
2015    4        9    15  56    5.1094   434.1    7.843      39.687
2015    4        9    16   2    5.0939   433.9    7.830      39.645
2015    4        9    16   8    5.0774   433.6    7.815      39.603
2015    4        9    16  14    5.0597   433.4    7.800      39.563
2015    4        9    16  20    5.0411   433.1    7.784      39.523
2015    4        9    16  26    5.0214   432.9    7.767      39.482
2015    4        9    16  32    5.0009   432.6    7.748      39.443
2015    4        9    16  38    4.9795   432.3    7.728      39.404
2015    4        9    16  44    4.9575   432.0    7.708      39.367
2015    4        9    16  50    4.9345   431.7    7.686      39.331
2015    4        9    16  56    4.9112   431.5    7.663      39.297
2015    4        9    17   2    4.8873   431.2    7.640      39.264
2015    4        9    17   8    4.8634   430.9    7.615      39.231
2015    4        9    17  14    4.8391   430.6    7.589      39.197
2015    4        9    17  20    4.8149   430.3    7.562      39.163
2015    4        9    17  26    4.7909   430.0    7.535      39.129
2015    4        9    17  32    4.7672   429.8    7.506      39.097
2015    4        9    17  38    4.7436   429.5    7.477      39.067
2015    4        9    17  44    4.7204   429.2    7.447      39.041
2015    4        9    17  50    4.6973   429.0    7.416      39.018
2015    4        9    17  56    4.6745   428.7    7.385      38.999
2015    4        9    18   2    4.6517   428.5    7.353      38.982
2015    4        9    18   8    4.6292   428.2    7.321      38.967
2015    4        9    18  14    4.6067   428.0    7.288      38.954
2015    4        9    18  20    4.5844   427.8    7.255      38.942
2015    4        9    18  26    4.5620   427.6    7.222      38.931
2015    4        9    18  32    4.5397   427.4    7.188      38.921
2015    4        9    18  38    4.5173   427.2    7.154      38.912
2015    4        9    18  45    4.4951   427.0    7.120      38.902
2015    4        9    18  51    4.4728   426.9    7.085      38.892
2015    4        9    18  57    4.4507   426.7    7.051      38.884
2015    4        9    19   3    4.4285   426.5    7.016      38.878
2015    4        9    19   9    4.4064   426.3    6.980      38.874
2015    4        9    19  15    4.3845   426.1    6.945      38.872
2015    4        9    19  21    4.3628   425.9    6.909      38.872
2015    4        9    19  27    4.3414   425.7    6.872      38.874
2015    4        9    19  33    4.3202   425.5    6.836      38.879
2015    4        9    19  39    4.2996   425.3    6.799      38.886
2015    4        9    19  45    4.2796   425.1    6.762      38.895
2015    4        9    19  51    4.2602   424.9    6.725      38.906
2015    4        9    19  57    4.2413   424.7    6.688      38.919
2015    4        9    20   3    4.2232   424.5    6.652      38.934
2015    4        9    20   9    4.2055   424.3    6.616      38.950
2015    4        9    20  15    4.1886   424.1    6.581      38.965
2015    4        9    20  21    4.1721   423.9    6.547      38.980
2015    4        9    20  27    4.1563   423.7    6.515      38.993
2015    4        9    20  33    4.1410   423.5    6.483      39.005
2015    4        9    20  39    4.1263   423.3    6.452      39.017
2015    4        9    20  45    4.1121   423.1    6.422      39.028
2015    4        9    20  51    4.0984   422.9    6.393      39.038
2015    4        9    20  57    4.0852   422.8    6.365      39.049
2015    4        9    21   3    4.0724   422.6    6.337      39.059
2015    4        9    21   9    4.0602   422.4    6.311      39.070
2015    4        9    21  15    4.0483   422.3    6.285      39.082
2015    4        9    21  21    4.0369   422.1    6.260      39.094
2015    4        9    21  27    4.0259   421.9    6.236      39.107
2015    4        9    21  33    4.0152   421.8    6.213      39.122
2015    4        9    21  39    4.0050   421.6    6.190      39.137
2015    4        9    21  45    3.9951   421.5    6.168      39.153
2015    4        9    21  51    3.9855   421.3    6.147      39.171
2015    4        9    21  57    3.9763   421.2    6.126      39.190
2015    4        9    22   3    3.9674   421.1    6.106      39.209
2015    4        9    22   9    3.9589   420.9    6.087      39.230
2015    4        9    22  15    3.9506   420.8    6.068      39.251
2015    4        9    22  21    3.9427   420.7    6.049      39.273
2015    4        9    22  27    3.9350   420.6    6.031      39.296
2015    4        9    22  33    3.9276   420.4    6.014      39.319
2015    4        9    22  39    3.9205   420.3    5.997      39.343
2015    4        9    22  45    3.9137   420.2    5.980      39.367
2015    4        9    22  51    3.9071   420.1    5.964      39.391
2015    4        9    22  57    3.9008   420.0    5.948      39.417
2015    4        9    23   3    3.8947   419.9    5.932      39.443
2015    4        9    23   9    3.8889   419.7    5.917      39.471
2015    4        9    23  15    3.8833   419.6    5.902      39.499
2015    4        9    23  21    3.8779   419.5    5.888      39.527
2015    4        9    23  27    3.8728   419.4    5.873      39.557
2015    4        9    23  33    3.8678   419.3    5.859      39.587
2015    4        9    23  39    3.8631   419.2    5.846      39.616
2015    4        9    23  45    3.8586   419.1    5.832      39.646
2015    4        9    23  51    3.8543   419.0    5.819      39.676
2015    4        9    23  57    3.8502   418.9    5.806      39.705
2015    4       10     0   3    3.8462   418.8    5.793      39.735
2015    4       10     0   9    3.8425   418.7    5.780      39.765
2015    4       10     0  15    3.8389   418.6    5.767      39.794
2015    4       10     0  21    3.8355   418.5    5.754      39.824
2015    4       10     0  27    3.8323   418.4    5.742      39.853
2015    4       10     0  33    3.8292   418.4    5.729      39.881
2015    4       10     0  39    3.8262   418.3    5.717      39.908
2015    4       10     0  45    3.8234   418.2    5.705      39.933
2015    4       10     0  51    3.8208   418.1    5.693      39.956
2015    4       10     0  57    3.8182   418.0    5.680      39.976
2015    4       10     1   3    3.8158   417.9    5.668      39.994
2015    4       10     1   9    3.8135   417.9    5.656      40.008
2015    4       10     1  15    3.8114   417.8    5.644      40.021
2015    4       10     1  21    3.8093   417.7    5.633      40.031
2015    4       10     1  27    3.8074   417.6    5.621      40.038
2015    4       10     1  33    3.8055   417.5    5.609      40.044
2015    4       10     1  39    3.8037   417.4    5.597      40.047
2015    4       10     1  45    3.8020   417.4    5.586      40.048
2015    4       10     1  51    3.8005   417.3    5.574      40.047
2015    4       10     1  57    3.7989   417.2    5.563      40.045
2015    4       10     2   3    3.7975   417.1    5.551      40.041
2015    4       10     2   9    3.7961   417.0    5.540      40.035
2015    4       10     2  15    3.7948   417.0    5.529      40.028
2015    4       10     2  21    3.7935   416.9    5.518      40.019
2015    4       10     2  27    3.7922   416.8    5.507      40.009
2015    4       10     2  33    3.7910   416.7    5.496      39.997
2015    4       10     2  39    3.7899   416.6    5.485      39.984
2015    4       10     2  45    3.7888   416.6    5.474      39.971
2015    4       10     2  51    3.7877   416.5    5.464      39.956
2015    4       10     2  57    3.7867   416.4    5.453      39.940
2015    4       10     3   3    3.7857   416.3    5.443      39.923
2015    4       10     3   9    3.7847   416.3    5.433      39.906
2015    4       10     3  15    3.7838   416.2    5.423      39.887
2015    4       10     3  21    3.7830   416.1    5.413      39.867
2015    4       10     3  27    3.7822   416.0    5.403      39.847
2015    4       10     3  33    3.7814   415.9    5.394      39.826
2015    4       10     3  39    3.7808   415.9    5.384      39.804
2015    4       10     3  45    3.7802   415.8    5.375      39.781
2015    4       10     3  51    3.7797   415.7    5.366      39.758
2015    4       10     3  57    3.7792   415.6    5.358      39.733
2015    4       10     4   3    3.7789   415.5    5.349      39.708
2015    4       10     4   9    3.7786   415.5    5.341      39.682
2015    4       10     4  15    3.7785   415.4    5.334      39.655
2015    4       10     4  21    3.7784   415.3    5.326      39.627
2015    4       10     4  27    3.7785   415.2    5.319      39.599
2015    4       10     4  33    3.7787   415.1    5.313      39.570
2015    4       10     4  39    3.7790   415.0    5.306      39.540
2015    4       10     4  45    3.7795   414.9    5.301      39.510
2015    4       10     4  51    3.7801   414.9    5.296      39.480
2015    4       10     4  57    3.7808   414.8    5.291      39.450
2015    4       10     5   3    3.7817   414.7    5.288      39.419
2015    4       10     5   9    3.7827   414.6    5.284      39.389
2015    4       10     5  15    3.7839   414.5    5.282      39.360
2015    4       10     5  21    3.7853   414.4    5.281      39.331
2015    4       10     5  27    3.7868   414.3    5.280      39.302
2015    4       10     5  33    3.7885   414.2    5.280      39.275
2015    4       10     5  39    3.7904   414.2    5.281      39.249
2015    4       10     5  45    3.7925   414.1    5.284      39.225
2015    4       10     5  51    3.7948   414.0    5.287      39.203
2015    4       10     5  57    3.7972   413.9    5.291      39.183
2015    4       10     6   3    3.7999   413.8    5.297      39.165
2015    4       10     6   9    3.8027   413.8    5.304      39.150
2015    4       10     6  15    3.8057   413.7    5.312      39.138
2015    4       10     6  21    3.8088   413.6    5.322      39.128
2015    4       10     6  28    3.8121   413.6    5.333      39.121
2015    4       10     6  34    3.8155   413.5    5.346      39.119
2015    4       10     6  40    3.8191   413.5    5.359      39.120
2015    4       10     6  46    3.8227   413.4    5.375      39.124
2015    4       10     6  52    3.8263   413.4    5.392      39.131
2015    4       10     6  58    3.8298   413.4    5.410      39.140
2015    4       10     7   4    3.8333   413.4    5.430      39.151
2015    4       10     7  10    3.8367   413.4    5.452      39.163
2015    4       10     7  16    3.8399   413.4    5.475      39.176
2015    4       10     7  22    3.8430   413.4    5.499      39.189
2015    4       10     7  28    3.8459   413.4    5.525      39.200
2015    4       10     7  34    3.8486   413.4    5.553      39.207
2015    4       10     7  40    3.8511   413.5    5.582      39.210
2015    4       10     7  46    3.8535   413.5    5.612      39.209
2015    4       10     7  52    3.8556   413.6    5.643      39.201
2015    4       10     7  58    3.8577   413.6    5.675      39.184
2015    4       10     8   4    3.8595   413.7    5.709      39.153
2015    4       10     8  10    3.8611   413.8    5.743      39.110
2015    4       10     8  16    3.8626   413.8    5.778      39.055
2015    4       10     8  22    3.8639   413.9    5.813      38.989
2015    4       10     8  28    3.8651   414.0    5.849      38.912
2015    4       10     8  34    3.8661   414.1    5.884      38.827
2015    4       10     8  40    3.8670   414.2    5.919      38.734
2015    4       10     8  46    3.8677   414.2    5.954      38.637
2015    4       10     8  52    3.8683   414.3    5.987      38.540
2015    4       10     8  58    3.8687   414.4    6.019      38.442
2015    4       10     9   4    3.8691   414.5    6.050      38.343
2015    4       10     9  10    3.8694   414.5    6.080      38.244
2015    4       10     9  16    3.8695   414.6    6.110      38.145
2015    4       10     9  22    3.8696   414.6    6.138      38.047
2015    4       10     9  28    3.8697   414.7    6.165      37.950
2015    4       10     9  34    3.8696   414.7    6.192      37.853
2015    4       10     9  40    3.8696   414.8    6.217      37.758
2015    4       10     9  46    3.8695   414.8    6.242      37.664
2015    4       10     9  52    3.8693   414.9    6.266      37.572
2015    4       10     9  58    3.8691   414.9    6.289      37.481
2015    4       10    10   4    3.8690   414.9    6.312      37.393
2015    4       10    10  10    3.8688   414.9    6.334      37.306
2015    4       10    10  16    3.8685   415.0    6.355      37.221
2015    4       10    10  22    3.8683   415.0    6.376      37.139
2015    4       10    10  28    3.8681   415.0    6.395      37.058
2015    4       10    10  34    3.8679   415.0    6.415      36.980
2015    4       10    10  40    3.8677   415.0    6.433      36.903
2015    4       10    10  46    3.8675   415.1    6.451      36.829
2015    4       10    10  52    3.8673   415.1    6.469      36.757
2015    4       10    10  58    3.8671   415.1    6.486      36.686
2015    4       10    11   4    3.8669   415.1    6.502      36.618
2015    4       10    11  10    3.8668   415.1    6.518      36.552
2015    4       10    11  16    3.8666   415.1    6.533      36.488
2015    4       10    11  22    3.8665   415.1    6.547      36.426
2015    4       10    11  28    3.8664   415.1    6.562      36.365
2015    4       10    11  34    3.8663   415.1    6.575      36.307
2015    4       10    11  40    3.8662   415.1    6.588      36.251
2015    4       10    11  46    3.8662   415.1    6.601      36.196
2015    4       10    11  52    3.8662   415.1    6.613      36.143
2015    4       10    11  58    3.8662   415.1    6.625      36.091
2015    4       10    12   4    3.8663   415.1    6.636      36.042
2015    4       10    12  10    3.8664   415.1    6.647      35.993
2015    4       10    12  16    3.8665   415.0    6.657      35.947
2015    4       10    12  22    3.8667   415.0    6.667      35.902
2015    4       10    12  28    3.8669   415.0    6.676      35.858
2015    4       10    12  34    3.8672   415.0    6.685      35.816
2015    4       10    12  40    3.8676   415.0    6.694      35.776
2015    4       10    12  46    3.8680   415.0    6.702      35.736
2015    4       10    12  52    3.8685   415.0    6.710      35.698
2015    4       10    12  58    3.8690   415.0    6.718      35.661
2015    4       10    13   4    3.8696   415.0    6.725      35.625
2015    4       10    13  10    3.8703   415.0    6.732      35.590
2015    4       10    13  16    3.8711   414.9    6.738      35.557
2015    4       10    13  22    3.8719   414.9    6.744      35.524
2015    4       10    13  28    3.8728   414.9    6.749      35.492
2015    4       10    13  34    3.8739   414.9    6.755      35.461
2015    4       10    13  40    3.8749   414.9    6.760      35.431
2015    4       10    13  46    3.8761   414.9    6.764      35.402
2015    4       10    13  52    3.8774   414.9    6.768      35.373
2015    4       10    13  58    3.8788   414.9    6.772      35.345
2015    4       10    14   4    3.8802   414.9    6.776      35.318
2015    4       10    14  10    3.8818   414.9    6.779      35.291
2015    4       10    14  16    3.8834   414.8    6.782      35.265
2015    4       10    14  22    3.8851   414.8    6.785      35.239
2015    4       10    14  28    3.8870   414.8    6.787      35.214
2015    4       10    14  34    3.8889   414.8    6.789      35.189
2015    4       10    14  40    3.8909   414.8    6.791      35.165
2015    4       10    14  46    3.8930   414.8    6.792      35.141
2015    4       10    14  52    3.8952   414.8    6.794      35.117
2015    4       10    14  58    3.8975   414.8    6.795      35.094
2015    4       10    15   4    3.8999   414.8    6.795      35.071
2015    4       10    15  10    3.9023   414.8    6.796      35.049
2015    4       10    15  16    3.9049   414.8    6.796      35.027
2015    4       10    15  22    3.9075   414.8    6.796      35.005
2015    4       10    15  28    3.9101   414.8    6.795      34.983
2015    4       10    15  34    3.9129   414.7    6.795      34.962
2015    4       10    15  40    3.9156   414.7    6.794      34.940
2015    4       10    15  46    3.9185   414.7    6.793      34.919
2015    4       10    15  52    3.9213   414.7    6.792      34.899
2015    4       10    15  58    3.9242   414.7    6.791      34.878
2015    4       10    16   4    3.9271   414.7    6.789      34.858
2015    4       10    16  10    3.9301   414.7    6.788      34.838
2015    4       10    16  16    3.9330   414.7    6.786      34.818
2015    4       10    16  22    3.9359   414.7    6.784      34.798
2015    4       10    16  28    3.9388   414.7    6.781      34.779
2015    4       10    16  34    3.9416   414.7    6.779      34.759
2015    4       10    16  40    3.9444   414.7    6.777      34.740
2015    4       10    16  46    3.9471   414.7    6.774      34.721
2015    4       10    16  52    3.9498   414.7    6.771      34.702
2015    4       10    16  58    3.9525   414.6    6.768      34.683
2015    4       10    17   4    3.9551   414.6    6.765      34.664
2015    4       10    17  10    3.9577   414.6    6.762      34.645
2015    4       10    17  16    3.9603   414.6    6.759      34.627
2015    4       10    17  22    3.9628   414.6    6.756      34.608
2015    4       10    17  28    3.9653   414.6    6.752      34.590
2015    4       10    17  34    3.9678   414.6    6.749      34.572
2015    4       10    17  40    3.9703   414.6    6.745      34.554
2015    4       10    17  46    3.9727   414.6    6.742      34.536
2015    4       10    17  52    3.9752   414.6    6.738      34.518
2015    4       10    17  58    3.9776   414.6    6.734      34.500
2015    4       10    18   4    3.9800   414.6    6.730      34.482
2015    4       10    18  10    3.9824   414.6    6.727      34.465
2015    4       10    18  16    3.9848   414.5    6.723      34.447
2015    4       10    18  22    3.9871   414.5    6.719      34.430
2015    4       10    18  29    3.9895   414.5    6.715      34.413
2015    4       10    18  35    3.9918   414.5    6.710      34.396
2015    4       10    18  41    3.9942   414.5    6.706      34.380
2015    4       10    18  47    3.9965   414.5    6.702      34.363
2015    4       10    18  53    3.9988   414.5    6.698      34.347
2015    4       10    18  59    4.0011   414.5    6.694      34.331
2015    4       10    19   5    4.0034   414.5    6.689      34.315
2015    4       10    19  11    4.0057   414.4    6.685      34.299
2015    4       10    19  17    4.0079   414.4    6.681      34.284
2015    4       10    19  23    4.0102   414.4    6.676      34.269
2015    4       10    19  29    4.0124   414.4    6.672      34.254
2015    4       10    19  35    4.0146   414.4    6.668      34.239
2015    4       10    19  41    4.0168   414.4    6.663      34.225
2015    4       10    19  47    4.0189   414.4    6.659      34.211
2015    4       10    19  53    4.0210   414.4    6.654      34.197
2015    4       10    19  59    4.0230   414.3    6.650      34.184
2015    4       10    20   5    4.0251   414.3    6.645      34.171
2015    4       10    20  11    4.0271   414.3    6.641      34.158
2015    4       10    20  17    4.0290   414.3    6.636      34.145
2015    4       10    20  23    4.0309   414.3    6.632      34.133
2015    4       10    20  29    4.0328   414.3    6.627      34.120
2015    4       10    20  35    4.0346   414.3    6.622      34.109
2015    4       10    20  41    4.0363   414.2    6.618      34.097
2015    4       10    20  47    4.0381   414.2    6.613      34.086
2015    4       10    20  53    4.0397   414.2    6.608      34.074
2015    4       10    20  59    4.0413   414.2    6.604      34.063
2015    4       10    21   5    4.0429   414.2    6.599      34.053
2015    4       10    21  11    4.0444   414.2    6.594      34.042
2015    4       10    21  17    4.0459   414.2    6.590      34.032
2015    4       10    21  23    4.0474   414.1    6.585      34.022
2015    4       10    21  29    4.0487   414.1    6.580      34.012
2015    4       10    21  35    4.0501   414.1    6.575      34.002
2015    4       10    21  41    4.0514   414.1    6.571      33.992
2015    4       10    21  47    4.0526   414.1    6.566      33.983
2015    4       10    21  53    4.0538   414.0    6.561      33.973
2015    4       10    21  59    4.0550   414.0    6.557      33.964
2015    4       10    22   5    4.0561   414.0    6.552      33.955
2015    4       10    22  11    4.0572   414.0    6.547      33.945
2015    4       10    22  17    4.0582   414.0    6.543      33.936
2015    4       10    22  23    4.0592   413.9    6.538      33.927
2015    4       10    22  29    4.0602   413.9    6.534      33.919
2015    4       10    22  35    4.0611   413.9    6.529      33.910
2015    4       10    22  41    4.0620   413.9    6.525      33.901
2015    4       10    22  47    4.0629   413.8    6.521      33.893
2015    4       10    22  53    4.0637   413.8    6.516      33.885
2015    4       10    22  59    4.0645   413.8    6.512      33.876
2015    4       10    23   5    4.0652   413.8    6.508      33.868
2015    4       10    23  11    4.0659   413.7    6.504      33.860
2015    4       10    23  17    4.0666   413.7    6.500      33.852
2015    4       10    23  23    4.0673   413.7    6.496      33.845
2015    4       10    23  29    4.0679   413.7    6.493      33.837
2015    4       10    23  35    4.0686   413.6    6.489      33.830
2015    4       10    23  41    4.0691   413.6    6.486      33.822
2015    4       10    23  47    4.0697   413.6    6.482      33.816
2015    4       10    23  53    4.0702   413.5    6.479      33.809
2015    4       10    23  59    4.0707   413.5    6.476      33.802
2015    4       11     0   5    4.0712   413.5    6.474      33.796
2015    4       11     0  11    4.0717   413.5    6.471      33.789
2015    4       11     0  17    4.0721   413.4    6.468      33.783
2015    4       11     0  23    4.0726   413.4    6.466      33.778
2015    4       11     0  29    4.0730   413.4    6.464      33.772
2015    4       11     0  35    4.0734   413.3    6.462      33.767
2015    4       11     0  41    4.0737   413.3    6.460      33.762
2015    4       11     0  47    4.0741   413.3    6.459      33.757
2015    4       11     0  53    4.0744   413.2    6.457      33.753
2015    4       11     0  59    4.0747   413.2    6.456      33.748
2015    4       11     1   5    4.0750   413.2    6.455      33.744
2015    4       11     1  11    4.0753   413.1    6.454      33.741
2015    4       11     1  17    4.0756   413.1    6.453      33.737
2015    4       11     1  23    4.0758   413.1    6.453      33.734
2015    4       11     1  29    4.0761   413.0    6.452      33.731
2015    4       11     1  35    4.0763   413.0    6.452      33.728
2015    4       11     1  41    4.0765   413.0    6.452      33.726
2015    4       11     1  47    4.0767   412.9    6.452      33.724
2015    4       11     1  53    4.0769   412.9    6.452      33.722
2015    4       11     1  59    4.0771   412.9    6.453      33.720
2015    4       11     2   5    4.0772   412.8    6.453      33.718
2015    4       11     2  11    4.0774   412.8    6.454      33.717
2015    4       11     2  17    4.0775   412.8    6.455      33.716
2015    4       11     2  23    4.0776   412.7    6.456      33.715
2015    4       11     2  29    4.0777   412.7    6.457      33.715
2015    4       11     2  35    4.0778   412.6    6.458      33.714
2015    4       11     2  41    4.0779   412.6    6.459      33.714
2015    4       11     2  47    4.0780   412.6    6.461      33.714
2015    4       11     2  53    4.0780   412.5    6.462      33.714
2015    4       11     2  59    4.0781   412.5    6.463      33.715
2015    4       11     3   5    4.0781   412.4    6.465      33.715
2015    4       11     3  11    4.0781   412.4    6.466      33.716
2015    4       11     3  17    4.0782   412.3    6.468      33.718
2015    4       11     3  23    4.0782   412.3    6.470      33.719
2015    4       11     3  29    4.0782   412.3    6.471      33.721
2015    4       11     3  35    4.0783   412.2    6.473      33.722
2015    4       11     3  41    4.0783   412.2    6.475      33.724
2015    4       11     3  47    4.0783   412.1    6.476      33.727
2015    4       11     3  53    4.0783   412.1    6.478      33.729
2015    4       11     3  59    4.0784   412.0    6.480      33.732
2015    4       11     4   5    4.0784   412.0    6.482      33.736
2015    4       11     4  11    4.0785   411.9    6.483      33.739
2015    4       11     4  17    4.0785   411.9    6.485      33.743
2015    4       11     4  23    4.0786   411.8    6.487      33.747
2015    4       11     4  29    4.0787   411.8    6.488      33.752
2015    4       11     4  35    4.0788   411.7    6.490      33.757
2015    4       11     4  41    4.0790   411.7    6.492      33.762
2015    4       11     4  47    4.0791   411.6    6.493      33.767
2015    4       11     4  53    4.0793   411.6    6.495      33.773
2015    4       11     4  59    4.0795   411.5    6.496      33.780
2015    4       11     5   5    4.0797   411.5    6.498      33.787
2015    4       11     5  11    4.0800   411.4    6.499      33.794
2015    4       11     5  17    4.0803   411.4    6.501      33.802
2015    4       11     5  23    4.0807   411.3    6.502      33.810
2015    4       11     5  29    4.0810   411.2    6.503      33.819
2015    4       11     5  35    4.0814   411.2    6.505      33.828
2015    4       11     5  41    4.0819   411.1    6.506      33.838
2015    4       11     5  47    4.0824   411.1    6.507      33.848
2015    4       11     5  53    4.0829   411.0    6.509      33.858
2015    4       11     5  59    4.0835   411.0    6.510      33.869
2015    4       11     6   5    4.0841   410.9    6.511      33.880
2015    4       11     6  11    4.0847   410.9    6.512      33.892
2015    4       11     6  18    4.0854   410.8    6.514      33.904
2015    4       11     6  24    4.0862   410.7    6.515      33.916
2015    4       11     6  30    4.0869   410.7    6.516      33.929
2015    4       11     6  36    4.0877   410.6    6.517      33.942
2015    4       11     6  42    4.0886   410.6    6.518      33.955
2015    4       11     6  48    4.0895   410.5    6.519      33.968
2015    4       11     6  54    4.0904   410.5    6.520      33.981
2015    4       11     7   0    4.0913   410.4    6.521      33.994
2015    4       11     7   6    4.0923   410.3    6.522      34.007
2015    4       11     7  12    4.0933   410.3    6.523      34.020
2015    4       11     7  18    4.0943   410.2    6.524      34.032
2015    4       11     7  24    4.0953   410.2    6.525      34.045
2015    4       11     7  30    4.0964   410.1    6.526      34.057
2015    4       11     7  36    4.0975   410.1    6.527      34.069
2015    4       11     7  42    4.0985   410.0    6.528      34.080
2015    4       11     7  48    4.0996   410.0    6.529      34.091
2015    4       11     7  54    4.1007   409.9    6.530      34.102
2015    4       11     8   0    4.1019   409.8    6.531      34.111
2015    4       11     8   6    4.1030   409.8    6.531      34.121
2015    4       11     8  12    4.1041   409.7    6.532      34.130
2015    4       11     8  18    4.1052   409.7    6.533      34.138
2015    4       11     8  24    4.1064   409.6    6.534      34.146
2015    4       11     8  30    4.1075   409.6    6.535      34.154
2015    4       11     8  36    4.1086   409.5    6.535      34.161
2015    4       11     8  42    4.1098   409.5    6.536      34.168
2015    4       11     8  48    4.1109   409.4    6.537      34.174
2015    4       11     8  54    4.1120   409.3    6.537      34.180
2015    4       11     9   0    4.1131   409.3    6.538      34.186
2015    4       11     9   6    4.1143   409.2    6.538      34.192
2015    4       11     9  12    4.1154   409.2    6.539      34.197
2015    4       11     9  18    4.1165   409.1    6.539      34.202
2015    4       11     9  24    4.1176   409.1    6.540      34.206
2015    4       11     9  30    4.1187   409.0    6.540      34.211
2015    4       11     9  36    4.1197   409.0    6.541      34.215
2015    4       11     9  42    4.1208   408.9    6.542      34.219
2015    4       11     9  48    4.1219   408.9    6.542      34.222
2015    4       11     9  54    4.1230   408.8    6.542      34.226
2015    4       11    10   0    4.1240   408.8    6.543      34.229
2015    4       11    10   6    4.1250   408.7    6.543      34.232
2015    4       11    10  12    4.1260   408.6    6.544      34.235
2015    4       11    10  18    4.1270   408.6    6.544      34.237
2015    4       11    10  24    4.1280   408.5    6.545      34.239
2015    4       11    10  30    4.1290   408.5    6.545      34.241
2015    4       11    10  36    4.1299   408.4    6.546      34.243
2015    4       11    10  42    4.1309   408.4    6.546      34.245
2015    4       11    10  48    4.1318   408.3    6.547      34.247
2015    4       11    10  54    4.1327   408.3    6.547      34.248
2015    4       11    11   0    4.1335   408.2    6.548      34.249
2015    4       11    11   6    4.1344   408.2    6.548      34.250
2015    4       11    11  12    4.1352   408.1    6.549      34.251
2015    4       11    11  18    4.1360   408.1    6.549      34.252
2015    4       11    11  24    4.1368   408.0    6.550      34.253
2015    4       11    11  30    4.1375   408.0    6.550      34.253
2015    4       11    11  36    4.1383   407.9    6.551      34.254
2015    4       11    11  42    4.1390   407.9    6.552      34.254
2015    4       11    11  48    4.1396   407.8    6.552      34.254
2015    4       11    11  54    4.1403   407.8    6.553      34.254
2015    4       11    12   0    4.1410   407.7    6.553      34.254
2015    4       11    12   6    4.1416   407.7    6.554      34.254
2015    4       11    12  12    4.1422   407.7    6.555      34.254
2015    4       11    12  18    4.1428   407.6    6.555      34.253
2015    4       11    12  24    4.1433   407.6    6.556      34.253
2015    4       11    12  30    4.1439   407.5    6.556      34.252
2015    4       11    12  36    4.1444   407.5    6.557      34.252
2015    4       11    12  42    4.1449   407.4    6.557      34.251
2015    4       11    12  48    4.1454   407.4    6.558      34.251
2015    4       11    12  54    4.1458   407.3    6.559      34.250
2015    4       11    13   0    4.1463   407.3    6.559      34.249
2015    4       11    13   6    4.1467   407.2    6.560      34.248
2015    4       11    13  12    4.1471   407.2    6.560      34.247
2015    4       11    13  18    4.1475   407.1    6.561      34.246
2015    4       11    13  24    4.1479   407.1    6.561      34.245
2015    4       11    13  30    4.1482   407.0    6.562      34.244
2015    4       11    13  36    4.1486   407.0    6.562      34.243
2015    4       11    13  42    4.1490   407.0    6.563      34.242
2015    4       11    13  48    4.1493   406.9    6.563      34.240
2015    4       11    13  54    4.1496   406.9    6.564      34.239
2015    4       11    14   0    4.1499   406.8    6.564      34.238
2015    4       11    14   6    4.1502   406.8    6.565      34.237
2015    4       11    14  12    4.1505   406.7    6.565      34.236
2015    4       11    14  18    4.1508   406.7    6.566      34.235
2015    4       11    14  24    4.1510   406.6    6.566      34.234
2015    4       11    14  30    4.1513   406.6    6.567      34.233
2015    4       11    14  36    4.1516   406.5    6.567      34.232
2015    4       11    14  42    4.1518   406.5    6.567      34.232
2015    4       11    14  48    4.1521   406.4    6.568      34.231
2015    4       11    14  54    4.1523   406.4    6.568      34.230
2015    4       11    15   0    4.1526   406.3    6.569      34.230
2015    4       11    15   6    4.1528   406.3    6.569      34.230
2015    4       11    15  12    4.1531   406.3    6.569      34.230
2015    4       11    15  18    4.1533   406.2    6.570      34.229
2015    4       11    15  24    4.1535   406.2    6.570      34.230
2015    4       11    15  30    4.1538   406.1    6.571      34.230
2015    4       11    15  36    4.1540   406.1    6.571      34.230
2015    4       11    15  42    4.1542   406.0    6.572      34.231
2015    4       11    15  48    4.1544   406.0    6.572      34.231
2015    4       11    15  54    4.1547   405.9    6.573      34.232
2015    4       11    16   0    4.1549   405.9    6.573      34.234
2015    4       11    16   6    4.1551   405.8    6.574      34.235
2015    4       11    16  12    4.1554   405.8    6.575      34.236
2015    4       11    16  18    4.1556   405.7    6.575      34.238
2015    4       11    16  24    4.1558   405.7    6.576      34.240
2015    4       11    16  30    4.1560   405.6    6.577      34.242
2015    4       11    16  36    4.1563   405.6    6.578      34.245
2015    4       11    16  42    4.1565   405.6    6.578      34.247
2015    4       11    16  48    4.1568   405.5    6.579      34.250
2015    4       11    16  54    4.1570   405.5    6.580      34.253
2015    4       11    17   0    4.1572   405.4    6.581      34.256
2015    4       11    17   6    4.1575   405.4    6.582      34.259
2015    4       11    17  12    4.1577   405.3    6.583      34.263
2015    4       11    17  18    4.1580   405.3    6.585      34.266
2015    4       11    17  24    4.1582   405.2    6.586      34.270
2015    4       11    17  30    4.1585   405.2    6.587      34.274
2015    4       11    17  36    4.1587   405.2    6.588      34.278
2015    4       11    17  42    4.1589   405.1    6.589      34.282
2015    4       11    17  48    4.1592   405.1    6.591      34.286
2015    4       11    17  55    4.1594   405.0    6.592      34.290
2015    4       11    18   1    4.1596   405.0    6.594      34.294
2015    4       11    18   7    4.1599   404.9    6.595      34.298
2015    4       11    18  13    4.1601   404.9    6.596      34.303
2015    4       11    18  19    4.1603   404.9    6.598      34.307
2015    4       11    18  25    4.1605   404.8    6.599      34.311
2015    4       11    18  31    4.1607   404.8    6.601      34.315
2015    4       11    18  37    4.1609   404.7    6.602      34.319
2015    4       11    18  43    4.1611   404.7    6.604      34.323
2015    4       11    18  49    4.1613   404.6    6.605      34.327
2015    4       11    18  55    4.1615   404.6    6.607      34.331
2015    4       11    19   1    4.1617   404.6    6.608      34.335
2015    4       11    19   7    4.1619   404.5    6.610      34.338
2015    4       11    19  13    4.1621   404.5    6.611      34.342
2015    4       11    19  19    4.1623   404.4    6.613      34.345
2015    4       11    19  25    4.1625   404.4    6.614      34.349
2015    4       11    19  31    4.1627   404.3    6.616      34.352
2015    4       11    19  37    4.1629   404.3    6.617      34.355
2015    4       11    19  43    4.1631   404.3    6.618      34.358
2015    4       11    19  49    4.1633   404.2    6.620      34.361
2015    4       11    19  55    4.1635   404.2    6.621      34.363
2015    4       11    20   1    4.1637   404.1    6.623      34.366
2015    4       11    20   7    4.1639   404.1    6.624      34.368
2015    4       11    20  13    4.1642   404.0    6.625      34.371
2015    4       11    20  19    4.1644   404.0    6.627      34.373
2015    4       11    20  25    4.1646   403.9    6.628      34.375
2015    4       11    20  31    4.1649   403.9    6.629      34.377
2015    4       11    20  37    4.1651   403.9    6.630      34.378
2015    4       11    20  43    4.1654   403.8    6.632      34.380
2015    4       11    20  49    4.1656   403.8    6.633      34.382
2015    4       11    20  55    4.1659   403.7    6.634      34.383
2015    4       11    21   1    4.1662   403.7    6.635      34.384
2015    4       11    21   7    4.1665   403.7    6.636      34.385
2015    4       11    21  13    4.1668   403.6    6.637      34.386
2015    4       11    21  19    4.1670   403.6    6.638      34.387
2015    4       11    21  25    4.1674   403.5    6.639      34.388
2015    4       11    21  31    4.1677   403.5    6.641      34.389
2015    4       11    21  37    4.1680   403.4    6.642      34.389
2015    4       11    21  43    4.1683   403.4    6.643      34.390
2015    4       11    21  49    4.1687   403.4    6.644      34.390
2015    4       11    21  55    4.1690   403.3    6.644      34.391
2015    4       11    22   1    4.1694   403.3    6.645      34.391
2015    4       11    22   7    4.1697   403.2    6.646      34.391
2015    4       11    22  13    4.1701   403.2    6.647      34.391
2015    4       11    22  19    4.1705   403.2    6.648      34.391
2015    4       11    22  25    4.1709   403.1    6.649      34.391
2015    4       11    22  31    4.1713   403.1    6.650      34.391
2015    4       11    22  37    4.1717   403.0    6.651      34.391
2015    4       11    22  43    4.1721   403.0    6.652      34.391
2015    4       11    22  49    4.1725   403.0    6.653      34.391
2015    4       11    22  55    4.1730   402.9    6.653      34.391
2015    4       11    23   1    4.1734   402.9    6.654      34.391
2015    4       11    23   7    4.1739   402.9    6.655      34.391
2015    4       11    23  13    4.1743   402.8    6.656      34.390
2015    4       11    23  19    4.1748   402.8    6.657      34.390
2015    4       11    23  25    4.1753   402.7    6.658      34.390
2015    4       11    23  31    4.1757   402.7    6.659      34.390
2015    4       11    23  37    4.1762   402.7    6.660      34.390
2015    4       11    23  43    4.1767   402.6    6.660      34.390
2015    4       11    23  49    4.1772   402.6    6.661      34.390
2015    4       11    23  55    4.1776   402.5    6.662      34.390
2015    4       12     0   1    4.1781   402.5    6.663      34.391
2015    4       12     0   7    4.1786   402.5    6.664      34.391
2015    4       12     0  13    4.1790   402.4    6.665      34.391
2015    4       12     0  19    4.1795   402.4    6.666      34.391
2015    4       12     0  25    4.1799   402.4    6.667      34.392
2015    4       12     0  31    4.1804   402.3    6.668      34.392
2015    4       12     0  37    4.1808   402.3    6.669      34.393
2015    4       12     0  43    4.1812   402.2    6.670      34.393
2015    4       12     0  49    4.1816   402.2    6.671      34.394
2015    4       12     0  55    4.1821   402.2    6.673      34.394
2015    4       12     1   1    4.1825   402.1    6.674      34.395
2015    4       12     1   7    4.1829   402.1    6.675      34.396
2015    4       12     1  13    4.1833   402.0    6.676      34.396
2015    4       12     1  19    4.1837   402.0    6.677      34.397
2015    4       12     1  25    4.1840   402.0    6.679      34.398
2015    4       12     1  31    4.1844   401.9    6.680      34.399
2015    4       12     1  37    4.1848   401.9    6.681      34.400
2015    4       12     1  43    4.1852   401.9    6.682      34.401
2015    4       12     1  49    4.1855   401.8    6.684      34.401
2015    4       12     1  55    4.1859   401.8    6.685      34.402
2015    4       12     2   1    4.1863   401.7    6.686      34.403
2015    4       12     2   7    4.1866   401.7    6.688      34.404
2015    4       12     2  13    4.1870   401.7    6.689      34.405
2015    4       12     2  19    4.1874   401.6    6.691      34.406
2015    4       12     2  25    4.1877   401.6    6.692      34.407
2015    4       12     2  31    4.1881   401.6    6.693      34.408
2015    4       12     2  37    4.1884   401.5    6.695      34.408
2015    4       12     2  43    4.1888   401.5    6.696      34.409
2015    4       12     2  49    4.1891   401.4    6.698      34.410
2015    4       12     2  55    4.1895   401.4    6.699      34.411
2015    4       12     3   1    4.1898   401.4    6.701      34.411
2015    4       12     3   7    4.1902   401.3    6.702      34.412
2015    4       12     3  13    4.1906   401.3    6.704      34.412
2015    4       12     3  19    4.1909   401.2    6.705      34.413
2015    4       12     3  25    4.1913   401.2    6.707      34.413
2015    4       12     3  31    4.1917   401.2    6.708      34.414
2015    4       12     3  37    4.1921   401.1    6.710      34.414
2015    4       12     3  43    4.1924   401.1    6.711      34.415
2015    4       12     3  49    4.1928   401.0    6.713      34.415
2015    4       12     3  55    4.1932   401.0    6.715      34.415
2015    4       12     4   1    4.1936   401.0    6.716      34.415
2015    4       12     4   7    4.1940   400.9    6.718      34.416
2015    4       12     4  13    4.1945   400.9    6.719      34.416
2015    4       12     4  19    4.1949   400.8    6.721      34.416
2015    4       12     4  25    4.1954   400.8    6.723      34.416
2015    4       12     4  31    4.1958   400.8    6.725      34.416
2015    4       12     4  37    4.1963   400.7    6.726      34.417
2015    4       12     4  43    4.1968   400.7    6.728      34.417
2015    4       12     4  49    4.1973   400.6    6.730      34.417
2015    4       12     4  55    4.1979   400.6    6.732      34.418
2015    4       12     5   1    4.1984   400.6    6.734      34.418
2015    4       12     5   7    4.1990   400.5    6.735      34.418
2015    4       12     5  13    4.1996   400.5    6.737      34.419
2015    4       12     5  19    4.2002   400.5    6.739      34.419
2015    4       12     5  25    4.2008   400.4    6.741      34.420
2015    4       12     5  31    4.2015   400.4    6.743      34.421
2015    4       12     5  37    4.2021   400.3    6.745      34.421
2015    4       12     5  44    4.2028   400.3    6.748      34.422
2015    4       12     5  50    4.2035   400.3    6.750      34.423
2015    4       12     5  56    4.2042   400.2    6.752      34.424
2015    4       12     6   2    4.2050   400.2    6.754      34.425
2015    4       12     6   8    4.2057   400.1    6.756      34.426
2015    4       12     6  14    4.2065   400.1    6.758      34.428
2015    4       12     6  20    4.2073   400.1    6.761      34.429
2015    4       12     6  26    4.2081   400.0    6.763      34.431
2015    4       12     6  32    4.2089   400.0    6.765      34.432
2015    4       12     6  38    4.2098   399.9    6.768      34.434
2015    4       12     6  44    4.2106   399.9    6.770      34.436
2015    4       12     6  50    4.2115   399.9    6.773      34.438
2015    4       12     6  56    4.2123   399.8    6.775      34.440
2015    4       12     7   2    4.2132   399.8    6.777      34.442
2015    4       12     7   8    4.2141   399.8    6.780      34.444
2015    4       12     7  14    4.2150   399.7    6.782      34.446
2015    4       12     7  20    4.2159   399.7    6.785      34.449
2015    4       12     7  26    4.2168   399.7    6.787      34.451
2015    4       12     7  32    4.2177   399.6    6.790      34.454
2015    4       12     7  38    4.2186   399.6    6.792      34.456
2015    4       12     7  44    4.2195   399.5    6.795      34.459
2015    4       12     7  50    4.2204   399.5    6.798      34.461
2015    4       12     7  56    4.2213   399.5    6.800      34.464
2015    4       12     8   2    4.2222   399.4    6.803      34.467
2015    4       12     8   8    4.2230   399.4    6.805      34.470
2015    4       12     8  14    4.2239   399.4    6.808      34.472
2015    4       12     8  20    4.2247   399.3    6.810      34.475
2015    4       12     8  26    4.2256   399.3    6.813      34.478
2015    4       12     8  32    4.2264   399.2    6.815      34.481
2015    4       12     8  38    4.2273   399.2    6.818      34.484
2015    4       12     8  44    4.2281   399.2    6.820      34.487
2015    4       12     8  50    4.2289   399.1    6.823      34.490
2015    4       12     8  56    4.2298   399.1    6.825      34.492
2015    4       12     9   2    4.2306   399.1    6.828      34.495
2015    4       12     9   8    4.2314   399.0    6.831      34.498
2015    4       12     9  14    4.2323   399.0    6.833      34.501
2015    4       12     9  20    4.2331   398.9    6.836      34.504
2015    4       12     9  26    4.2339   398.9    6.838      34.507
2015    4       12     9  32    4.2348   398.9    6.841      34.509
2015    4       12     9  38    4.2356   398.8    6.843      34.512
2015    4       12     9  44    4.2364   398.8    6.846      34.515
2015    4       12     9  50    4.2373   398.8    6.848      34.517
2015    4       12     9  56    4.2381   398.7    6.851      34.520
2015    4       12    10   2    4.2390   398.7    6.853      34.523
2015    4       12    10   8    4.2398   398.6    6.856      34.525
2015    4       12    10  14    4.2407   398.6    6.858      34.528
2015    4       12    10  20    4.2416   398.6    6.861      34.531
2015    4       12    10  26    4.2425   398.5    6.864      34.533
2015    4       12    10  32    4.2434   398.5    6.866      34.536
2015    4       12    10  38    4.2443   398.5    6.869      34.538
2015    4       12    10  44    4.2453   398.4    6.872      34.541
2015    4       12    10  50    4.2462   398.4    6.874      34.544
2015    4       12    10  56    4.2472   398.4    6.877      34.546
2015    4       12    11   2    4.2482   398.3    6.880      34.549
2015    4       12    11   8    4.2492   398.3    6.883      34.552
2015    4       12    11  14    4.2502   398.2    6.886      34.554
2015    4       12    11  20    4.2513   398.2    6.889      34.557
2015    4       12    11  26    4.2523   398.2    6.892      34.560
2015    4       12    11  32    4.2534   398.1    6.895      34.563
2015    4       12    11  38    4.2545   398.1    6.898      34.566
2015    4       12    11  44    4.2557   398.1    6.901      34.568
2015    4       12    11  50    4.2568   398.0    6.904      34.571
2015    4       12    11  56    4.2580   398.0    6.908      34.574
2015    4       12    12   2    4.2592   398.0    6.911      34.577
2015    4       12    12   8    4.2604   397.9    6.915      34.580
2015    4       12    12  14    4.2616   397.9    6.918      34.583
2015    4       12    12  20    4.2628   397.9    6.921      34.586
2015    4       12    12  26    4.2641   397.8    6.925      34.590
2015    4       12    12  32    4.2654   397.8    6.929      34.593
2015    4       12    12  38    4.2667   397.8    6.932      34.596
2015    4       12    12  44    4.2680   397.7    6.936      34.599
2015    4       12    12  50    4.2693   397.7    6.940      34.602
2015    4       12    12  56    4.2707   397.7    6.944      34.605
2015    4       12    13   2    4.2720   397.6    6.948      34.609
2015    4       12    13   8    4.2734   397.6    6.951      34.612
2015    4       12    13  14    4.2748   397.6    6.955      34.615
2015    4       12    13  20    4.2762   397.5    6.959      34.619
2015    4       12    13  26    4.2776   397.5    6.964      34.622
2015    4       12    13  32    4.2791   397.5    6.968      34.625
2015    4       12    13  38    4.2805   397.4    6.972      34.629
2015    4       12    13  44    4.2819   397.4    6.976      34.632
2015    4       12    13  50    4.2834   397.4    6.980      34.636
2015    4       12    13  56    4.2849   397.3    6.985      34.639
2015    4       12    14   2    4.2863   397.3    6.989      34.643
2015    4       12    14   8    4.2878   397.3    6.993      34.646
2015    4       12    14  14    4.2893   397.2    6.998      34.650
2015    4       12    14  20    4.2909   397.2    7.002      34.654
2015    4       12    14  26    4.2924   397.2    7.007      34.657
2015    4       12    14  32    4.2939   397.1    7.011      34.661
2015    4       12    14  38    4.2954   397.1    7.016      34.665
2015    4       12    14  44    4.2970   397.1    7.020      34.669
2015    4       12    14  50    4.2985   397.0    7.025      34.673
2015    4       12    14  56    4.3001   397.0    7.030      34.677
2015    4       12    15   2    4.3017   396.9    7.035      34.681
2015    4       12    15   8    4.3032   396.9    7.039      34.685
2015    4       12    15  14    4.3048   396.9    7.044      34.690
2015    4       12    15  20    4.3064   396.8    7.049      34.694
2015    4       12    15  26    4.3080   396.8    7.054      34.699
2015    4       12    15  32    4.3097   396.8    7.059      34.704
2015    4       12    15  38    4.3113   396.7    7.064      34.709
2015    4       12    15  44    4.3129   396.7    7.069      34.714
2015    4       12    15  50    4.3146   396.7    7.075      34.719
2015    4       12    15  56    4.3162   396.6    7.080      34.724
2015    4       12    16   2    4.3179   396.6    7.085      34.730
2015    4       12    16   8    4.3196   396.5    7.090      34.736
2015    4       12    16  14    4.3213   396.5    7.096      34.742
2015    4       12    16  20    4.3231   396.5    7.102      34.749
2015    4       12    16  26    4.3248   396.4    7.107      34.755
2015    4       12    16  32    4.3266   396.4    7.113      34.762
2015    4       12    16  38    4.3284   396.4    7.119      34.770
2015    4       12    16  44    4.3302   396.3    7.125      34.778
2015    4       12    16  50    4.3321   396.3    7.131      34.786
2015    4       12    16  56    4.3340   396.3    7.137      34.794
2015    4       12    17   2    4.3359   396.2    7.143      34.803
2015    4       12    17   8    4.3378   396.2    7.149      34.813
2015    4       12    17  14    4.3398   396.1    7.155      34.823
2015    4       12    17  21    4.3418   396.1    7.162      34.833
2015    4       12    17  27    4.3439   396.1    7.168      34.844
2015    4       12    17  33    4.3460   396.1    7.175      34.856
2015    4       12    17  39    4.3481   396.0    7.182      34.867
2015    4       12    17  45    4.3502   396.0    7.188      34.880
2015    4       12    17  51    4.3524   396.0    7.195      34.892
2015    4       12    17  57    4.3546   395.9    7.202      34.905
2015    4       12    18   3    4.3568   395.9    7.209      34.919
2015    4       12    18   9    4.3590   395.9    7.216      34.933
2015    4       12    18  15    4.3613   395.9    7.222      34.948
2015    4       12    18  21    4.3635   395.8    7.229      34.962
2015    4       12    18  27    4.3657   395.8    7.236      34.977
2015    4       12    18  33    4.3679   395.8    7.242      34.993
2015    4       12    18  39    4.3702   395.8    7.249      35.008
2015    4       12    18  45    4.3724   395.8    7.256      35.023
2015    4       12    18  51    4.3746   395.7    7.262      35.039
2015    4       12    18  57    4.3769   395.7    7.268      35.053
2015    4       12    19   3    4.3791   395.7    7.275      35.068
2015    4       12    19   9    4.3814   395.7    7.281      35.082
2015    4       12    19  15    4.3836   395.7    7.288      35.096
2015    4       12    19  21    4.3859   395.7    7.294      35.109
2015    4       12    19  27    4.3881   395.6    7.300      35.123
2015    4       12    19  33    4.3904   395.6    7.306      35.136
2015    4       12    19  39    4.3927   395.6    7.313      35.149
2015    4       12    19  45    4.3950   395.6    7.319      35.161
2015    4       12    19  51    4.3973   395.6    7.325      35.174
2015    4       12    19  57    4.3996   395.6    7.331      35.186
2015    4       12    20   3    4.4018   395.5    7.338      35.198
2015    4       12    20   9    4.4042   395.5    7.344      35.210
2015    4       12    20  15    4.4065   395.5    7.350      35.221
2015    4       12    20  21    4.4088   395.5    7.356      35.233
2015    4       12    20  27    4.4111   395.5    7.362      35.244
2015    4       12    20  33    4.4135   395.5    7.369      35.255
2015    4       12    20  39    4.4158   395.4    7.375      35.266
2015    4       12    20  45    4.4181   395.4    7.381      35.277
2015    4       12    20  51    4.4205   395.4    7.388      35.287
2015    4       12    20  57    4.4229   395.4    7.394      35.298
2015    4       12    21   3    4.4252   395.4    7.400      35.308
2015    4       12    21   9    4.4276   395.4    7.407      35.319
2015    4       12    21  15    4.4300   395.4    7.413      35.329
2015    4       12    21  21    4.4324   395.4    7.420      35.340
2015    4       12    21  27    4.4349   395.3    7.427      35.350
2015    4       12    21  33    4.4373   395.3    7.433      35.361
2015    4       12    21  39    4.4398   395.3    7.440      35.371
2015    4       12    21  45    4.4422   395.3    7.447      35.382
2015    4       12    21  51    4.4447   395.3    7.454      35.393
2015    4       12    21  57    4.4472   395.3    7.461      35.404
2015    4       12    22   3    4.4497   395.3    7.468      35.414
2015    4       12    22   9    4.4523   395.3    7.476      35.425
2015    4       12    22  15    4.4548   395.3    7.483      35.437
2015    4       12    22  21    4.4574   395.3    7.490      35.448
2015    4       12    22  27    4.4600   395.2    7.498      35.460
2015    4       12    22  33    4.4627   395.2    7.506      35.472
2015    4       12    22  39    4.4653   395.2    7.513      35.484
2015    4       12    22  45    4.4681   395.2    7.521      35.497
2015    4       12    22  51    4.4708   395.2    7.530      35.510
2015    4       12    22  57    4.4736   395.2    7.538      35.523
2015    4       12    23   3    4.4764   395.2    7.546      35.537
2015    4       12    23   9    4.4792   395.2    7.554      35.552
2015    4       12    23  15    4.4821   395.2    7.563      35.567
2015    4       12    23  21    4.4850   395.2    7.572      35.582
2015    4       12    23  27    4.4879   395.2    7.580      35.598
2015    4       12    23  33    4.4909   395.2    7.589      35.615
2015    4       12    23  39    4.4939   395.2    7.598      35.633
2015    4       12    23  45    4.4969   395.2    7.607      35.651
2015    4       12    23  51    4.4999   395.3    7.616      35.670
2015    4       12    23  57    4.5030   395.3    7.625      35.689
2015    4       13     0   3    4.5061   395.3    7.634      35.709
2015    4       13     0   9    4.5093   395.3    7.643      35.730
2015    4       13     0  15    4.5124   395.3    7.652      35.750
2015    4       13     0  21    4.5156   395.3    7.661      35.772
2015    4       13     0  27    4.5188   395.3    7.670      35.793
2015    4       13     0  33    4.5221   395.3    7.679      35.815
2015    4       13     0  39    4.5254   395.3    7.689      35.837
2015    4       13     0  45    4.5287   395.3    7.698      35.859
2015    4       13     0  51    4.5321   395.3    7.708      35.881
2015    4       13     0  57    4.5355   395.3    7.717      35.904
2015    4       13     1   3    4.5389   395.3    7.727      35.926
2015    4       13     1   9    4.5423   395.3    7.736      35.950
2015    4       13     1  15    4.5458   395.4    7.746      35.974
2015    4       13     1  21    4.5492   395.4    7.755      35.998
2015    4       13     1  27    4.5527   395.4    7.765      36.023
2015    4       13     1  33    4.5562   395.4    7.774      36.048
2015    4       13     1  39    4.5597   395.4    7.783      36.074
2015    4       13     1  45    4.5632   395.4    7.792      36.100
2015    4       13     1  51    4.5667   395.5    7.801      36.127
2015    4       13     1  57    4.5702   395.5    7.810      36.153
2015    4       13     2   3    4.5737   395.5    7.819      36.180
2015    4       13     2   9    4.5771   395.5    7.828      36.207
2015    4       13     2  15    4.5806   395.5    7.836      36.234
2015    4       13     2  21    4.5840   395.6    7.845      36.261
2015    4       13     2  27    4.5874   395.6    7.853      36.289
2015    4       13     2  33    4.5908   395.6    7.861      36.316
2015    4       13     2  39    4.5941   395.6    7.869      36.344
2015    4       13     2  45    4.5975   395.7    7.877      36.371
2015    4       13     2  51    4.6008   395.7    7.885      36.399
2015    4       13     2  57    4.6042   395.7    7.893      36.426
2015    4       13     3   3    4.6075   395.7    7.901      36.452
2015    4       13     3   9    4.6108   395.8    7.908      36.478
2015    4       13     3  15    4.6140   395.8    7.915      36.504
2015    4       13     3  21    4.6173   395.8    7.923      36.530
2015    4       13     3  27    4.6205   395.9    7.930      36.555
2015    4       13     3  33    4.6238   395.9    7.937      36.580
2015    4       13     3  39    4.6270   395.9    7.944      36.605
2015    4       13     3  45    4.6303   396.0    7.952      36.629
2015    4       13     3  51    4.6335   396.0    7.959      36.653
2015    4       13     3  57    4.6368   396.0    7.966      36.677
2015    4       13     4   3    4.6400   396.0    7.973      36.700
2015    4       13     4   9    4.6432   396.1    7.980      36.724
2015    4       13     4  15    4.6465   396.1    7.987      36.747
2015    4       13     4  21    4.6497   396.1    7.994      36.770
2015    4       13     4  27    4.6530   396.2    8.001      36.793
2015    4       13     4  33    4.6563   396.2    8.008      36.816
2015    4       13     4  39    4.6595   396.3    8.015      36.839
2015    4       13     4  45    4.6628   396.3    8.022      36.861
2015    4       13     4  51    4.6661   396.3    8.030      36.884
2015    4       13     4  57    4.6694   396.4    8.037      36.906
2015    4       13     5   3    4.6728   396.4    8.045      36.929
2015    4       13     5  10    4.6761   396.4    8.052      36.952
2015    4       13     5  16    4.6795   396.5    8.060      36.974
2015    4       13     5  22    4.6829   396.5    8.067      36.997
2015    4       13     5  28    4.6863   396.6    8.075      37.020
2015    4       13     5  34    4.6898   396.6    8.083      37.043
2015    4       13     5  40    4.6932   396.6    8.091      37.066
2015    4       13     5  46    4.6968   396.7    8.099      37.090
2015    4       13     5  52    4.7003   396.7    8.108      37.114
2015    4       13     5  58    4.7039   396.8    8.116      37.139
2015    4       13     6   4    4.7075   396.8    8.124      37.164
2015    4       13     6  10    4.7112   396.9    8.133      37.190
2015    4       13     6  16    4.7148   396.9    8.142      37.216
2015    4       13     6  22    4.7186   397.0    8.150      37.243
2015    4       13     6  28    4.7223   397.1    8.159      37.272
2015    4       13     6  34    4.7260   397.1    8.168      37.300
2015    4       13     6  40    4.7298   397.2    8.177      37.330
2015    4       13     6  46    4.7336   397.2    8.185      37.361
2015    4       13     6  52    4.7375   397.3    8.194      37.392
2015    4       13     6  58    4.7414   397.4    8.203      37.424
2015    4       13     7   4    4.7453   397.4    8.212      37.456
2015    4       13     7  10    4.7492   397.5    8.221      37.488
2015    4       13     7  16    4.7532   397.6    8.230      37.521
2015    4       13     7  22    4.7572   397.6    8.240      37.553
2015    4       13     7  28    4.7613   397.7    8.249      37.586
2015    4       13     7  34    4.7655   397.8    8.259      37.620
2015    4       13     7  40    4.7697   397.8    8.269      37.654
2015    4       13     7  46    4.7740   397.9    8.279      37.689
2015    4       13     7  52    4.7783   398.0    8.289      37.725
2015    4       13     7  58    4.7827   398.0    8.299      37.761
2015    4       13     8   4    4.7872   398.1    8.310      37.798
2015    4       13     8  10    4.7918   398.2    8.321      37.836
2015    4       13     8  16    4.7964   398.2    8.332      37.875
2015    4       13     8  22    4.8011   398.3    8.343      37.915
2015    4       13     8  28    4.8058   398.4    8.354      37.957
2015    4       13     8  34    4.8106   398.5    8.365      38.000
2015    4       13     8  40    4.8154   398.6    8.376      38.044
2015    4       13     8  46    4.8202   398.7    8.387      38.089
2015    4       13     8  52    4.8250   398.8    8.397      38.136
2015    4       13     8  58    4.8297   398.9    8.407      38.184
2015    4       13     9   4    4.8344   399.0    8.417      38.230
2015    4       13     9  10    4.8390   399.1    8.426      38.276
2015    4       13     9  16    4.8436   399.2    8.436      38.321
2015    4       13     9  22    4.8481   399.3    8.445      38.365
2015    4       13     9  28    4.8526   399.4    8.453      38.409
2015    4       13     9  34    4.8570   399.5    8.461      38.451
2015    4       13     9  40    4.8613   399.6    8.469      38.493
2015    4       13     9  46    4.8655   399.7    8.476      38.535
2015    4       13     9  52    4.8697   399.8    8.483      38.575
2015    4       13     9  58    4.8738   399.9    8.490      38.616
2015    4       13    10   4    4.8778   400.1    8.497      38.657
2015    4       13    10  10    4.8817   400.2    8.503      38.697
2015    4       13    10  16    4.8856   400.3    8.508      38.737
2015    4       13    10  22    4.8895   400.4    8.514      38.776
2015    4       13    10  28    4.8933   400.5    8.519      38.815
2015    4       13    10  34    4.8970   400.6    8.524      38.853
2015    4       13    10  40    4.9007   400.7    8.528      38.890
2015    4       13    10  46    4.9043   400.8    8.533      38.926
2015    4       13    10  52    4.9079   400.9    8.537      38.961
2015    4       13    10  58    4.9115   401.0    8.541      38.996
2015    4       13    11   4    4.9150   401.1    8.545      39.029
2015    4       13    11  10    4.9184   401.2    8.548      39.063
2015    4       13    11  16    4.9219   401.3    8.552      39.095
2015    4       13    11  22    4.9253   401.4    8.555      39.127
2015    4       13    11  28    4.9287   401.6    8.558      39.159
2015    4       13    11  34    4.9321   401.7    8.561      39.190
2015    4       13    11  40    4.9355   401.8    8.564      39.221
2015    4       13    11  46    4.9389   401.9    8.567      39.251
2015    4       13    11  52    4.9423   402.0    8.570      39.281
2015    4       13    11  58    4.9456   402.1    8.573      39.310
2015    4       13    12   4    4.9490   402.2    8.576      39.339
2015    4       13    12  10    4.9523   402.3    8.579      39.368
2015    4       13    12  16    4.9557   402.4    8.582      39.397
2015    4       13    12  22    4.9591   402.5    8.584      39.425
2015    4       13    12  28    4.9624   402.6    8.587      39.453
2015    4       13    12  34    4.9658   402.7    8.590      39.481
2015    4       13    12  40    4.9692   402.8    8.593      39.509
2015    4       13    12  46    4.9726   402.9    8.596      39.537
2015    4       13    12  52    4.9760   403.0    8.598      39.564
2015    4       13    12  58    4.9794   403.1    8.601      39.592
2015    4       13    13   4    4.9828   403.2    8.604      39.620
2015    4       13    13  10    4.9863   403.3    8.607      39.647
2015    4       13    13  16    4.9897   403.4    8.610      39.675
2015    4       13    13  22    4.9932   403.5    8.613      39.703
2015    4       13    13  28    4.9968   403.6    8.617      39.731
2015    4       13    13  34    5.0003   403.7    8.620      39.759
2015    4       13    13  40    5.0039   403.8    8.624      39.788
2015    4       13    13  46    5.0076   403.9    8.628      39.817
2015    4       13    13  52    5.0113   404.0    8.632      39.847
2015    4       13    13  58    5.0150   404.1    8.636      39.877
2015    4       13    14   4    5.0188   404.2    8.641      39.908
2015    4       13    14  10    5.0227   404.3    8.645      39.939
2015    4       13    14  16    5.0266   404.4    8.651      39.971
2015    4       13    14  22    5.0306   404.5    8.656      40.004
2015    4       13    14  28    5.0348   404.6    8.662      40.037
2015    4       13    14  34    5.0390   404.7    8.668      40.072
2015    4       13    14  40    5.0433   404.8    8.675      40.108
2015    4       13    14  46    5.0476   404.9    8.682      40.145
2015    4       13    14  52    5.0521   405.0    8.689      40.185
2015    4       13    14  58    5.0567   405.1    8.697      40.225
2015    4       13    15   4    5.0614   405.3    8.706      40.267
2015    4       13    15  10    5.0662   405.4    8.715      40.311
2015    4       13    15  16    5.0712   405.5    8.724      40.356
2015    4       13    15  22    5.0762   405.6    8.734      40.404
2015    4       13    15  28    5.0813   405.8    8.744      40.454
2015    4       13    15  34    5.0865   405.9    8.754      40.507
2015    4       13    15  40    5.0918   406.0    8.765      40.561
2015    4       13    15  46    5.0971   406.2    8.775      40.618
2015    4       13    15  52    5.1024   406.4    8.786      40.678
2015    4       13    15  58    5.1077   406.5    8.797      40.740
2015    4       13    16   4    5.1130   406.7    8.808      40.802
2015    4       13    16  10    5.1183   406.8    8.818      40.866
2015    4       13    16  16    5.1236   407.0    8.829      40.929
2015    4       13    16  22    5.1288   407.2    8.840      40.993
2015    4       13    16  28    5.1341   407.3    8.850      41.057
2015    4       13    16  34    5.1393   407.5    8.861      41.123
2015    4       13    16  40    5.1444   407.7    8.871      41.190
2015    4       13    16  46    5.1495   407.9    8.881      41.258
2015    4       13    16  52    5.1545   408.1    8.890      41.327
2015    4       13    16  58    5.1593   408.3    8.899      41.397
2015    4       13    17   4    5.1640   408.5    8.908      41.468
2015    4       13    17  11    5.1686   408.7    8.916      41.539
2015    4       13    17  17    5.1731   408.9    8.923      41.610
2015    4       13    17  23    5.1775   409.1    8.930      41.678
2015    4       13    17  29    5.1817   409.3    8.936      41.745
2015    4       13    17  35    5.1858   409.4    8.941      41.810
2015    4       13    17  41    5.1898   409.6    8.946      41.874
2015    4       13    17  47    5.1937   409.8    8.951      41.935
2015    4       13    17  53    5.1975   410.0    8.955      41.995
2015    4       13    17  59    5.2012   410.2    8.958      42.054
2015    4       13    18   5    5.2049   410.4    8.961      42.111
2015    4       13    18  11    5.2084   410.6    8.964      42.166
2015    4       13    18  17    5.2119   410.8    8.966      42.220
2015    4       13    18  23    5.2154   411.0    8.968      42.273
2015    4       13    18  29    5.2188   411.1    8.969      42.325
2015    4       13    18  35    5.2222   411.3    8.970      42.377
2015    4       13    18  41    5.2255   411.5    8.971      42.426
2015    4       13    18  47    5.2288   411.7    8.972      42.475
2015    4       13    18  53    5.2321   411.9    8.972      42.524
2015    4       13    18  59    5.2354   412.0    8.972      42.571
2015    4       13    19   5    5.2386   412.2    8.972      42.617
2015    4       13    19  11    5.2418   412.4    8.972      42.663
2015    4       13    19  17    5.2450   412.6    8.971      42.708
2015    4       13    19  23    5.2481   412.8    8.971      42.752
2015    4       13    19  29    5.2513   412.9    8.970      42.796
2015    4       13    19  35    5.2544   413.1    8.969      42.839
2015    4       13    19  41    5.2575   413.3    8.967      42.881
2015    4       13    19  47    5.2605   413.5    8.966      42.922
2015    4       13    19  53    5.2636   413.7    8.964      42.963
2015    4       13    19  59    5.2666   413.8    8.962      43.004
2015    4       13    20   5    5.2696   414.0    8.960      43.043
2015    4       13    20  11    5.2726   414.2    8.958      43.082
2015    4       13    20  17    5.2756   414.4    8.956      43.120
2015    4       13    20  23    5.2785   414.5    8.954      43.158
2015    4       13    20  29    5.2815   414.7    8.951      43.195
2015    4       13    20  35    5.2844   414.9    8.949      43.231
2015    4       13    20  41    5.2874   415.0    8.946      43.268
2015    4       13    20  47    5.2904   415.2    8.944      43.304
2015    4       13    20  53    5.2933   415.4    8.941      43.339
2015    4       13    20  59    5.2963   415.6    8.939      43.374
2015    4       13    21   5    5.2993   415.7    8.936      43.410
2015    4       13    21  11    5.3023   415.9    8.934      43.444
2015    4       13    21  17    5.3053   416.1    8.931      43.479
2015    4       13    21  23    5.3084   416.2    8.929      43.514
2015    4       13    21  29    5.3115   416.4    8.927      43.549
2015    4       13    21  35    5.3146   416.6    8.925      43.584
2015    4       13    21  41    5.3178   416.8    8.923      43.619
2015    4       13    21  47    5.3209   416.9    8.922      43.655
2015    4       13    21  53    5.3242   417.1    8.920      43.690
2015    4       13    21  59    5.3275   417.3    8.919      43.726
2015    4       13    22   5    5.3308   417.4    8.918      43.763
2015    4       13    22  11    5.3342   417.6    8.917      43.800
2015    4       13    22  17    5.3376   417.8    8.917      43.837
2015    4       13    22  23    5.3411   417.9    8.917      43.875
2015    4       13    22  29    5.3446   418.1    8.917      43.914
2015    4       13    22  35    5.3482   418.3    8.918      43.953
2015    4       13    22  41    5.3519   418.5    8.919      43.993
2015    4       13    22  47    5.3556   418.6    8.920      44.034
2015    4       13    22  53    5.3595   418.8    8.922      44.076
2015    4       13    22  59    5.3633   419.0    8.925      44.120
2015    4       13    23   5    5.3673   419.1    8.928      44.165
2015    4       13    23  11    5.3713   419.3    8.931      44.211
2015    4       13    23  17    5.3754   419.5    8.935      44.259
2015    4       13    23  23    5.3795   419.7    8.940      44.308
2015    4       13    23  29    5.3837   419.9    8.944      44.358
2015    4       13    23  35    5.3880   420.0    8.950      44.412
2015    4       13    23  41    5.3922   420.2    8.955      44.468
2015    4       13    23  47    5.3965   420.4    8.961      44.526
2015    4       13    23  53    5.4007   420.6    8.967      44.586
2015    4       13    23  59    5.4049   420.8    8.973      44.649
2015    4       14     0   5    5.4091   421.0    8.979      44.714
2015    4       14     0  11    5.4133   421.2    8.985      44.782
2015    4       14     0  17    5.4174   421.4    8.991      44.849
2015    4       14     0  23    5.4215   421.6    8.997      44.916
2015    4       14     0  29    5.4257   421.8    9.003      44.982
2015    4       14     0  35    5.4298   422.1    9.009      45.049
2015    4       14     0  41    5.4339   422.3    9.015      45.117
2015    4       14     0  47    5.4380   422.5    9.021      45.186
2015    4       14     0  53    5.4421   422.7    9.028      45.257
2015    4       14     0  59    5.4462   422.9    9.034      45.328
2015    4       14     1   5    5.4503   423.1    9.040      45.401
2015    4       14     1  11    5.4545   423.3    9.047      45.473
2015    4       14     1  17    5.4586   423.5    9.054      45.547
2015    4       14     1  23    5.4629   423.8    9.060      45.623
2015    4       14     1  29    5.4670   424.0    9.067      45.700
2015    4       14     1  35    5.4712   424.2    9.073      45.780
2015    4       14     1  41    5.4753   424.5    9.079      45.860
2015    4       14     1  47    5.4794   424.7    9.084      45.942
2015    4       14     1  53    5.4834   425.0    9.089      46.026
2015    4       14     1  59    5.4873   425.2    9.093      46.110
2015    4       14     2   5    5.4910   425.5    9.097      46.193
2015    4       14     2  11    5.4947   425.7    9.100      46.274
2015    4       14     2  17    5.4983   425.9    9.102      46.352
2015    4       14     2  23    5.5018   426.2    9.104      46.429
2015    4       14     2  29    5.5052   426.4    9.106      46.504
2015    4       14     2  35    5.5085   426.7    9.106      46.577
2015    4       14     2  41    5.5117   426.9    9.107      46.648
2015    4       14     2  47    5.5149   427.2    9.106      46.717
2015    4       14     2  53    5.5180   427.4    9.106      46.785
2015    4       14     2  59    5.5211   427.6    9.105      46.852
2015    4       14     3   5    5.5241   427.9    9.103      46.917
2015    4       14     3  11    5.5270   428.1    9.101      46.980
2015    4       14     3  17    5.5300   428.4    9.099      47.043
2015    4       14     3  23    5.5328   428.6    9.097      47.104
2015    4       14     3  29    5.5357   428.9    9.094      47.165
2015    4       14     3  35    5.5385   429.1    9.091      47.224
2015    4       14     3  41    5.5413   429.3    9.087      47.283
2015    4       14     3  47    5.5441   429.6    9.084      47.340
2015    4       14     3  53    5.5468   429.8    9.080      47.397
2015    4       14     3  59    5.5495   430.1    9.075      47.453
2015    4       14     4   5    5.5522   430.3    9.071      47.509
2015    4       14     4  11    5.5548   430.6    9.066      47.563
2015    4       14     4  17    5.5573   430.8    9.060      47.617
2015    4       14     4  23    5.5599   431.1    9.055      47.669
2015    4       14     4  29    5.5623   431.3    9.049      47.720
2015    4       14     4  35    5.5648   431.6    9.043      47.771
2015    4       14     4  41    5.5672   431.8    9.037      47.820
2015    4       14     4  47    5.5696   432.1    9.031      47.869
2015    4       14     4  54    5.5719   432.4    9.025      47.916
2015    4       14     5   0    5.5742   432.6    9.018      47.964
2015    4       14     5   6    5.5764   432.9    9.011      48.010
2015    4       14     5  12    5.5787   433.1    9.004      48.056
2015    4       14     5  18    5.5809   433.4    8.997      48.101
2015    4       14     5  24    5.5831   433.6    8.990      48.145
2015    4       14     5  30    5.5853   433.9    8.983      48.189
2015    4       14     5  36    5.5875   434.1    8.976      48.233
2015    4       14     5  42    5.5897   434.4    8.969      48.276
2015    4       14     5  48    5.5919   434.6    8.962      48.319
2015    4       14     5  54    5.5941   434.9    8.955      48.361
2015    4       14     6   0    5.5963   435.1    8.949      48.403
2015    4       14     6   6    5.5985   435.4    8.942      48.446
2015    4       14     6  12    5.6008   435.6    8.936      48.488
2015    4       14     6  18    5.6030   435.9    8.929      48.530
2015    4       14     6  24    5.6053   436.1    8.923      48.572
2015    4       14     6  30    5.6076   436.4    8.918      48.615
2015    4       14     6  36    5.6100   436.6    8.912      48.657
2015    4       14     6  42    5.6124   436.8    8.907      48.701
2015    4       14     6  48    5.6149   437.1    8.902      48.744
2015    4       14     6  54    5.6174   437.3    8.898      48.788
2015    4       14     7   0    5.6200   437.6    8.894      48.834
2015    4       14     7   6    5.6226   437.8    8.891      48.881
2015    4       14     7  12    5.6253   438.1    8.888      48.930
2015    4       14     7  18    5.6281   438.3    8.885      48.980
2015    4       14     7  24    5.6310   438.6    8.883      49.031
2015    4       14     7  30    5.6341   438.8    8.882      49.084
2015    4       14     7  36    5.6372   439.1    8.882      49.139
2015    4       14     7  42    5.6403   439.3    8.881      49.198
2015    4       14     7  48    5.6436   439.6    8.881      49.260
2015    4       14     7  54    5.6469   439.8    8.882      49.326
2015    4       14     8   0    5.6503   440.1    8.882      49.395
2015    4       14     8   6    5.6536   440.4    8.883      49.466
2015    4       14     8  12    5.6570   440.7    8.884      49.538
2015    4       14     8  18    5.6604   440.9    8.885      49.611
2015    4       14     8  24    5.6637   441.2    8.886      49.687
2015    4       14     8  30    5.6670   441.5    8.887      49.764
2015    4       14     8  36    5.6701   441.8    8.888      49.842
2015    4       14     8  42    5.6732   442.1    8.888      49.921
2015    4       14     8  48    5.6761   442.4    8.888      50.001
2015    4       14     8  54    5.6788   442.7    8.887      50.083
2015    4       14     9   0    5.6814   443.0    8.885      50.165
2015    4       14     9   6    5.6839   443.3    8.883      50.245
2015    4       14     9  12    5.6862   443.6    8.880      50.322
2015    4       14     9  18    5.6884   443.9    8.876      50.397
2015    4       14     9  24    5.6904   444.1    8.872      50.469
2015    4       14     9  30    5.6924   444.4    8.867      50.539
2015    4       14     9  36    5.6942   444.7    8.862      50.608
2015    4       14     9  42    5.6959   445.0    8.857      50.674
2015    4       14     9  48    5.6976   445.3    8.851      50.739
2015    4       14     9  54    5.6992   445.6    8.845      50.802
2015    4       14    10   0    5.7007   445.9    8.838      50.863
2015    4       14    10   6    5.7021   446.2    8.831      50.924
2015    4       14    10  12    5.7035   446.4    8.824      50.983
2015    4       14    10  18    5.7049   446.7    8.817      51.041
2015    4       14    10  24    5.7062   447.0    8.809      51.098
2015    4       14    10  30    5.7075   447.3    8.802      51.154
2015    4       14    10  36    5.7087   447.6    8.794      51.210
2015    4       14    10  42    5.7098   447.9    8.785      51.264
2015    4       14    10  48    5.7109   448.1    8.777      51.318
2015    4       14    10  54    5.7120   448.4    8.768      51.371
2015    4       14    11   0    5.7129   448.7    8.759      51.424
2015    4       14    11   6    5.7139   449.0    8.749      51.475
2015    4       14    11  12    5.7147   449.3    8.740      51.526
2015    4       14    11  18    5.7155   449.6    8.730      51.577
2015    4       14    11  24    5.7162   449.9    8.720      51.626
2015    4       14    11  30    5.7169   450.2    8.709      51.674
2015    4       14    11  36    5.7175   450.5    8.698      51.721
2015    4       14    11  42    5.7181   450.8    8.687      51.767
2015    4       14    11  48    5.7186   451.1    8.676      51.813
2015    4       14    11  54    5.7191   451.4    8.665      51.857
2015    4       14    12   0    5.7195   451.7    8.654      51.901
2015    4       14    12   6    5.7198   452.0    8.642      51.945
2015    4       14    12  12    5.7202   452.3    8.630      51.988
2015    4       14    12  18    5.7204   452.6    8.619      52.031
2015    4       14    12  24    5.7207   452.9    8.607      52.074
2015    4       14    12  30    5.7210   453.2    8.595      52.116
2015    4       14    12  36    5.7212   453.5    8.583      52.159
2015    4       14    12  42    5.7214   453.9    8.571      52.201
2015    4       14    12  48    5.7217   454.2    8.559      52.244
2015    4       14    12  54    5.7219   454.5    8.547      52.286
2015    4       14    13   0    5.7221   454.8    8.535      52.329
2015    4       14    13   6    5.7222   455.1    8.523      52.372
2015    4       14    13  12    5.7224   455.5    8.511      52.415
2015    4       14    13  18    5.7225   455.8    8.500      52.458
2015    4       14    13  24    5.7226   456.1    8.488      52.502
2015    4       14    13  30    5.7227   456.4    8.476      52.545
2015    4       14    13  36    5.7228   456.7    8.464      52.590
2015    4       14    13  42    5.7228   457.1    8.452      52.634
2015    4       14    13  48    5.7228   457.4    8.440      52.679
2015    4       14    13  54    5.7228   457.7    8.428      52.725
2015    4       14    14   0    5.7227   458.0    8.416      52.770
2015    4       14    14   6    5.7227   458.3    8.404      52.815
2015    4       14    14  12    5.7226   458.6    8.392      52.861
2015    4       14    14  18    5.7224   458.9    8.380      52.908
2015    4       14    14  24    5.7223   459.3    8.369      52.954
2015    4       14    14  30    5.7221   459.6    8.357      53.001
2015    4       14    14  36    5.7219   459.9    8.345      53.048
2015    4       14    14  42    5.7217   460.2    8.334      53.095
2015    4       14    14  48    5.7214   460.5    8.322      53.142
2015    4       14    14  54    5.7212   460.8    8.311      53.190
2015    4       14    15   0    5.7209   461.2    8.299      53.239
2015    4       14    15   6    5.7205   461.5    8.287      53.288
2015    4       14    15  12    5.7201   461.8    8.275      53.337
2015    4       14    15  18    5.7196   462.2    8.263      53.387
2015    4       14    15  24    5.7190   462.5    8.250      53.437
2015    4       14    15  30    5.7184   462.9    8.237      53.486
2015    4       14    15  36    5.7176   463.2    8.224      53.533
2015    4       14    15  42    5.7167   463.5    8.210      53.578
2015    4       14    15  48    5.7156   463.9    8.196      53.623
2015    4       14    15  54    5.7145   464.3    8.181      53.665
2015    4       14    16   0    5.7131   464.6    8.166      53.708
2015    4       14    16   6    5.7115   465.0    8.149      53.748
2015    4       14    16  12    5.7097   465.4    8.133      53.787
2015    4       14    16  18    5.7077   465.8    8.116      53.823
2015    4       14    16  24    5.7055   466.1    8.098      53.857
2015    4       14    16  30    5.7030   466.5    8.079      53.890
2015    4       14    16  36    5.7003   466.9    8.059      53.922
2015    4       14    16  42    5.6973   467.2    8.039      53.948
2015    4       14    16  48    5.6939   467.6    8.019      53.968
2015    4       14    16  54    5.6904   467.9    7.997      53.985
2015    4       14    17   1    5.6866   468.2    7.976      53.997
2015    4       14    17   7    5.6828   468.5    7.955      54.006
2015    4       14    17  13    5.6788   468.8    7.934      54.010
2015    4       14    17  19    5.6750   469.1    7.913      54.011
2015    4       14    17  25    5.6712   469.3    7.893      54.013
2015    4       14    17  31    5.6676   469.6    7.873      54.014
2015    4       14    17  37    5.6640   469.9    7.854      54.017
2015    4       14    17  43    5.6605   470.1    7.836      54.019
2015    4       14    17  49    5.6570   470.4    7.817      54.022
2015    4       14    17  55    5.6537   470.6    7.799      54.025
2015    4       14    18   1    5.6504   470.9    7.782      54.028
2015    4       14    18   7    5.6473   471.1    7.765      54.032
2015    4       14    18  13    5.6442   471.3    7.748      54.038
2015    4       14    18  19    5.6413   471.6    7.732      54.044
2015    4       14    18  25    5.6383   471.8    7.716      54.051
2015    4       14    18  31    5.6356   472.1    7.700      54.059
2015    4       14    18  37    5.6328   472.3    7.685      54.069
2015    4       14    18  43    5.6302   472.6    7.670      54.081
2015    4       14    18  49    5.6276   472.8    7.656      54.096
2015    4       14    18  55    5.6250   473.1    7.641      54.112
2015    4       14    19   1    5.6224   473.4    7.627      54.131
2015    4       14    19   7    5.6198   473.6    7.613      54.153
2015    4       14    19  13    5.6172   474.0    7.599      54.177
2015    4       14    19  19    5.6146   474.3    7.585      54.202
2015    4       14    19  25    5.6119   474.6    7.572      54.228
2015    4       14    19  31    5.6092   474.9    7.558      54.254
2015    4       14    19  37    5.6064   475.2    7.544      54.281
2015    4       14    19  43    5.6035   475.5    7.530      54.307
2015    4       14    19  49    5.6006   475.8    7.516      54.331
2015    4       14    19  55    5.5976   476.1    7.502      54.353
2015    4       14    20   1    5.5945   476.4    7.488      54.375
2015    4       14    20   7    5.5913   476.7    7.474      54.397
2015    4       14    20  13    5.5880   477.0    7.459      54.419
2015    4       14    20  19    5.5847   477.3    7.445      54.441
2015    4       14    20  25    5.5813   477.6    7.430      54.464
2015    4       14    20  31    5.5777   477.9    7.416      54.486
2015    4       14    20  37    5.5741   478.2    7.401      54.508
2015    4       14    20  43    5.5704   478.5    7.386      54.531
2015    4       14    20  49    5.5666   478.8    7.371      54.554
2015    4       14    20  55    5.5627   479.1    7.356      54.576
2015    4       14    21   1    5.5587   479.4    7.341      54.598
2015    4       14    21   7    5.5546   479.7    7.325      54.618
2015    4       14    21  13    5.5505   480.0    7.310      54.638
2015    4       14    21  19    5.5463   480.3    7.294      54.657
2015    4       14    21  25    5.5420   480.6    7.278      54.674
2015    4       14    21  31    5.5376   480.9    7.262      54.690
2015    4       14    21  37    5.5331   481.2    7.246      54.704
2015    4       14    21  43    5.5285   481.5    7.230      54.716
2015    4       14    21  49    5.5238   481.8    7.213      54.726
2015    4       14    21  55    5.5191   482.1    7.197      54.735
2015    4       14    22   1    5.5144   482.4    7.180      54.740
2015    4       14    22   7    5.5096   482.7    7.164      54.743
2015    4       14    22  13    5.5049   483.0    7.148      54.744
2015    4       14    22  19    5.5001   483.2    7.131      54.743
2015    4       14    22  25    5.4954   483.5    7.115      54.741
2015    4       14    22  31    5.4906   483.8    7.099      54.739
2015    4       14    22  37    5.4859   484.0    7.082      54.735
2015    4       14    22  43    5.4811   484.3    7.066      54.731
2015    4       14    22  49    5.4763   484.6    7.050      54.728
2015    4       14    22  55    5.4714   484.9    7.033      54.725
2015    4       14    23   1    5.4664   485.2    7.017      54.723
2015    4       14    23   7    5.4613   485.5    7.000      54.721
2015    4       14    23  13    5.4560   485.8    6.982      54.718
2015    4       14    23  19    5.4506   486.1    6.964      54.716
2015    4       14    23  25    5.4451   486.4    6.946      54.715
2015    4       14    23  31    5.4393   486.8    6.927      54.716
2015    4       14    23  37    5.4332   487.1    6.908      54.712
2015    4       14    23  43    5.4270   487.4    6.888      54.703
2015    4       14    23  49    5.4205   487.7    6.868      54.690
2015    4       14    23  55    5.4140   488.0    6.848      54.672
2015    4       15     0   1    5.4074   488.3    6.827      54.650
