year    month   day   hour  minute  B_enl V_enl   n_enl       T_enl
[year] [month] [day] [hour][minute] [nT]  [km/s]  [cm-3]      [kK]
2015    4       22     0   0    3.7924   424.0    6.429      35.171
2015    4       22     0   6    3.7907   424.0    6.424      35.147
2015    4       22     0  12    3.7891   423.9    6.419      35.123
2015    4       22     0  18    3.7874   423.9    6.414      35.099
2015    4       22     0  24    3.7858   423.9    6.409      35.075
2015    4       22     0  30    3.7841   423.8    6.405      35.051
2015    4       22     0  36    3.7824   423.8    6.400      35.027
2015    4       22     0  42    3.7808   423.7    6.395      35.003
2015    4       22     0  49    3.7791   423.7    6.390      34.979
2015    4       22     0  55    3.7775   423.6    6.385      34.955
2015    4       22     1   1    3.7758   423.6    6.381      34.931
2015    4       22     1   7    3.7742   423.6    6.376      34.907
2015    4       22     1  13    3.7725   423.5    6.371      34.883
2015    4       22     1  19    3.7709   423.5    6.367      34.859
2015    4       22     1  25    3.7693   423.4    6.362      34.834
2015    4       22     1  32    3.7677   423.4    6.358      34.810
2015    4       22     1  38    3.7660   423.3    6.353      34.786
2015    4       22     1  44    3.7644   423.3    6.349      34.762
2015    4       22     1  50    3.7628   423.2    6.344      34.738
2015    4       22     1  56    3.7612   423.1    6.340      34.715
2015    4       22     2   2    3.7596   423.1    6.336      34.691
2015    4       22     2   8    3.7580   423.0    6.332      34.667
2015    4       22     2  15    3.7565   423.0    6.328      34.643
2015    4       22     2  21    3.7549   422.9    6.324      34.620
2015    4       22     2  27    3.7534   422.9    6.320      34.597
2015    4       22     2  33    3.7518   422.8    6.316      34.573
2015    4       22     2  39    3.7503   422.8    6.313      34.550
2015    4       22     2  45    3.7488   422.7    6.309      34.528
2015    4       22     2  51    3.7473   422.7    6.306      34.505
2015    4       22     2  57    3.7458   422.6    6.302      34.482
2015    4       22     3   4    3.7443   422.5    6.299      34.460
2015    4       22     3  10    3.7429   422.5    6.296      34.438
2015    4       22     3  16    3.7414   422.4    6.293      34.416
2015    4       22     3  22    3.7400   422.4    6.290      34.395
2015    4       22     3  28    3.7386   422.3    6.287      34.373
2015    4       22     3  34    3.7372   422.2    6.284      34.352
2015    4       22     3  40    3.7358   422.2    6.281      34.330
2015    4       22     3  47    3.7344   422.1    6.279      34.309
2015    4       22     3  53    3.7331   422.1    6.276      34.288
2015    4       22     3  59    3.7317   422.0    6.274      34.268
2015    4       22     4   5    3.7303   421.9    6.271      34.247
2015    4       22     4  11    3.7290   421.9    6.269      34.226
2015    4       22     4  17    3.7276   421.8    6.267      34.206
2015    4       22     4  23    3.7262   421.8    6.264      34.185
2015    4       22     4  30    3.7248   421.7    6.262      34.165
2015    4       22     4  36    3.7235   421.6    6.260      34.144
2015    4       22     4  42    3.7221   421.6    6.258      34.123
2015    4       22     4  48    3.7207   421.5    6.256      34.103
2015    4       22     4  54    3.7193   421.4    6.254      34.082
2015    4       22     5   0    3.7179   421.4    6.252      34.061
2015    4       22     5   6    3.7165   421.3    6.250      34.040
2015    4       22     5  13    3.7150   421.2    6.248      34.019
2015    4       22     5  19    3.7136   421.2    6.245      33.997
2015    4       22     5  25    3.7122   421.1    6.243      33.975
2015    4       22     5  31    3.7108   421.0    6.241      33.953
2015    4       22     5  37    3.7094   420.9    6.239      33.931
2015    4       22     5  43    3.7079   420.9    6.237      33.909
2015    4       22     5  49    3.7065   420.8    6.235      33.886
2015    4       22     5  55    3.7050   420.7    6.233      33.863
2015    4       22     6   2    3.7036   420.6    6.230      33.840
2015    4       22     6   8    3.7022   420.6    6.228      33.817
2015    4       22     6  14    3.7007   420.5    6.226      33.794
2015    4       22     6  20    3.6993   420.4    6.223      33.770
2015    4       22     6  26    3.6979   420.3    6.221      33.746
2015    4       22     6  32    3.6964   420.2    6.219      33.722
2015    4       22     6  38    3.6950   420.2    6.216      33.699
2015    4       22     6  45    3.6936   420.1    6.214      33.675
2015    4       22     6  51    3.6922   420.0    6.212      33.651
2015    4       22     6  57    3.6908   419.9    6.209      33.627
2015    4       22     7   3    3.6894   419.8    6.207      33.602
2015    4       22     7   9    3.6880   419.7    6.205      33.578
2015    4       22     7  15    3.6866   419.7    6.202      33.554
2015    4       22     7  21    3.6852   419.6    6.200      33.530
2015    4       22     7  28    3.6839   419.5    6.198      33.506
2015    4       22     7  34    3.6825   419.4    6.195      33.482
2015    4       22     7  40    3.6812   419.3    6.193      33.458
2015    4       22     7  46    3.6799   419.2    6.191      33.434
2015    4       22     7  52    3.6785   419.1    6.189      33.410
2015    4       22     7  58    3.6772   419.1    6.187      33.386
2015    4       22     8   4    3.6759   419.0    6.184      33.362
2015    4       22     8  10    3.6746   418.9    6.182      33.338
2015    4       22     8  17    3.6734   418.8    6.180      33.314
2015    4       22     8  23    3.6721   418.7    6.178      33.290
2015    4       22     8  29    3.6708   418.6    6.176      33.267
2015    4       22     8  35    3.6696   418.5    6.174      33.243
2015    4       22     8  41    3.6684   418.4    6.172      33.220
2015    4       22     8  47    3.6671   418.3    6.171      33.197
2015    4       22     8  53    3.6659   418.2    6.169      33.174
2015    4       22     9   0    3.6648   418.2    6.167      33.151
2015    4       22     9   6    3.6636   418.1    6.166      33.129
2015    4       22     9  12    3.6624   418.0    6.164      33.106
2015    4       22     9  18    3.6612   417.9    6.163      33.084
2015    4       22     9  24    3.6601   417.8    6.161      33.062
2015    4       22     9  30    3.6590   417.7    6.160      33.040
2015    4       22     9  36    3.6579   417.6    6.159      33.019
2015    4       22     9  43    3.6568   417.5    6.157      32.997
2015    4       22     9  49    3.6557   417.4    6.156      32.976
2015    4       22     9  55    3.6546   417.3    6.155      32.956
2015    4       22    10   1    3.6536   417.2    6.155      32.935
2015    4       22    10   7    3.6525   417.1    6.154      32.915
2015    4       22    10  13    3.6515   417.0    6.153      32.895
2015    4       22    10  19    3.6505   417.0    6.152      32.875
2015    4       22    10  25    3.6494   416.9    6.152      32.855
2015    4       22    10  32    3.6484   416.8    6.151      32.836
2015    4       22    10  38    3.6475   416.7    6.151      32.817
2015    4       22    10  44    3.6465   416.6    6.150      32.798
2015    4       22    10  50    3.6455   416.5    6.150      32.779
2015    4       22    10  56    3.6446   416.4    6.150      32.760
2015    4       22    11   2    3.6436   416.3    6.150      32.742
2015    4       22    11   8    3.6426   416.2    6.149      32.723
2015    4       22    11  15    3.6417   416.1    6.149      32.705
2015    4       22    11  21    3.6407   416.1    6.149      32.687
2015    4       22    11  27    3.6397   416.0    6.149      32.669
2015    4       22    11  33    3.6388   415.9    6.149      32.651
2015    4       22    11  39    3.6378   415.8    6.149      32.633
2015    4       22    11  45    3.6368   415.7    6.149      32.614
2015    4       22    11  51    3.6358   415.6    6.149      32.596
2015    4       22    11  58    3.6348   415.5    6.149      32.578
2015    4       22    12   4    3.6338   415.4    6.149      32.560
2015    4       22    12  10    3.6328   415.3    6.149      32.542
2015    4       22    12  16    3.6318   415.2    6.149      32.524
2015    4       22    12  22    3.6308   415.1    6.149      32.505
2015    4       22    12  28    3.6298   415.1    6.149      32.487
2015    4       22    12  34    3.6288   415.0    6.149      32.468
2015    4       22    12  41    3.6278   414.9    6.148      32.450
2015    4       22    12  47    3.6268   414.8    6.148      32.431
2015    4       22    12  53    3.6258   414.7    6.148      32.412
2015    4       22    12  59    3.6248   414.6    6.148      32.393
2015    4       22    13   5    3.6238   414.5    6.148      32.373
2015    4       22    13  11    3.6227   414.4    6.147      32.354
2015    4       22    13  17    3.6217   414.3    6.147      32.335
2015    4       22    13  23    3.6207   414.2    6.147      32.315
2015    4       22    13  30    3.6197   414.1    6.147      32.295
2015    4       22    13  36    3.6187   414.0    6.146      32.276
2015    4       22    13  42    3.6177   413.9    6.146      32.256
2015    4       22    13  48    3.6167   413.8    6.145      32.236
2015    4       22    13  54    3.6157   413.7    6.145      32.216
2015    4       22    14   0    3.6147   413.6    6.145      32.196
2015    4       22    14   6    3.6138   413.5    6.144      32.176
2015    4       22    14  13    3.6128   413.4    6.144      32.156
2015    4       22    14  19    3.6118   413.3    6.143      32.135
2015    4       22    14  25    3.6109   413.2    6.143      32.115
2015    4       22    14  31    3.6099   413.1    6.142      32.095
2015    4       22    14  37    3.6089   413.0    6.142      32.074
2015    4       22    14  43    3.6080   412.9    6.141      32.054
2015    4       22    14  49    3.6071   412.8    6.141      32.033
2015    4       22    14  56    3.6061   412.7    6.140      32.013
2015    4       22    15   2    3.6052   412.6    6.140      31.992
2015    4       22    15   8    3.6043   412.5    6.139      31.971
2015    4       22    15  14    3.6033   412.4    6.139      31.951
2015    4       22    15  20    3.6024   412.3    6.138      31.930
2015    4       22    15  26    3.6015   412.2    6.138      31.910
2015    4       22    15  32    3.6006   412.1    6.137      31.889
2015    4       22    15  38    3.5997   411.9    6.137      31.868
2015    4       22    15  45    3.5989   411.8    6.136      31.847
2015    4       22    15  51    3.5980   411.7    6.136      31.827
2015    4       22    15  57    3.5971   411.6    6.135      31.806
2015    4       22    16   3    3.5963   411.5    6.135      31.785
2015    4       22    16   9    3.5954   411.4    6.135      31.765
2015    4       22    16  15    3.5946   411.3    6.134      31.744
2015    4       22    16  21    3.5937   411.2    6.134      31.723
2015    4       22    16  28    3.5929   411.1    6.134      31.703
2015    4       22    16  34    3.5921   410.9    6.134      31.682
2015    4       22    16  40    3.5913   410.8    6.133      31.662
2015    4       22    16  46    3.5905   410.7    6.133      31.641
2015    4       22    16  52    3.5897   410.6    6.133      31.621
2015    4       22    16  58    3.5889   410.5    6.133      31.601
2015    4       22    17   4    3.5881   410.4    6.133      31.581
2015    4       22    17  11    3.5873   410.3    6.133      31.560
2015    4       22    17  17    3.5866   410.1    6.133      31.540
2015    4       22    17  23    3.5858   410.0    6.133      31.520
2015    4       22    17  29    3.5851   409.9    6.134      31.500
2015    4       22    17  35    3.5844   409.8    6.134      31.480
2015    4       22    17  41    3.5836   409.7    6.134      31.461
2015    4       22    17  47    3.5829   409.6    6.134      31.441
2015    4       22    17  53    3.5822   409.5    6.135      31.421
2015    4       22    18   0    3.5815   409.3    6.135      31.401
2015    4       22    18   6    3.5808   409.2    6.135      31.382
2015    4       22    18  12    3.5801   409.1    6.136      31.362
2015    4       22    18  18    3.5795   409.0    6.136      31.343
2015    4       22    18  24    3.5788   408.9    6.136      31.323
2015    4       22    18  30    3.5781   408.8    6.137      31.303
2015    4       22    18  36    3.5774   408.6    6.137      31.284
2015    4       22    18  43    3.5767   408.5    6.138      31.264
2015    4       22    18  49    3.5761   408.4    6.138      31.245
2015    4       22    18  55    3.5754   408.3    6.139      31.225
2015    4       22    19   1    3.5747   408.2    6.139      31.206
2015    4       22    19   7    3.5741   408.1    6.140      31.186
2015    4       22    19  13    3.5734   407.9    6.140      31.166
2015    4       22    19  19    3.5728   407.8    6.141      31.147
2015    4       22    19  26    3.5722   407.7    6.141      31.127
2015    4       22    19  32    3.5715   407.6    6.142      31.108
2015    4       22    19  38    3.5709   407.5    6.142      31.088
2015    4       22    19  44    3.5703   407.4    6.143      31.069
2015    4       22    19  50    3.5696   407.2    6.144      31.049
2015    4       22    19  56    3.5690   407.1    6.144      31.030
2015    4       22    20   2    3.5684   407.0    6.145      31.011
2015    4       22    20   9    3.5678   406.9    6.145      30.992
2015    4       22    20  15    3.5673   406.8    6.146      30.973
2015    4       22    20  21    3.5667   406.6    6.147      30.953
2015    4       22    20  27    3.5661   406.5    6.147      30.935
2015    4       22    20  33    3.5656   406.4    6.148      30.916
2015    4       22    20  39    3.5650   406.3    6.149      30.897
2015    4       22    20  45    3.5645   406.2    6.150      30.878
2015    4       22    20  51    3.5640   406.1    6.151      30.860
2015    4       22    20  58    3.5634   405.9    6.152      30.841
2015    4       22    21   4    3.5629   405.8    6.152      30.823
2015    4       22    21  10    3.5624   405.7    6.153      30.805
2015    4       22    21  16    3.5619   405.6    6.154      30.787
2015    4       22    21  22    3.5614   405.5    6.155      30.769
2015    4       22    21  28    3.5610   405.3    6.156      30.751
2015    4       22    21  34    3.5605   405.2    6.158      30.733
2015    4       22    21  41    3.5600   405.1    6.159      30.715
2015    4       22    21  47    3.5595   405.0    6.160      30.698
2015    4       22    21  53    3.5591   404.9    6.161      30.680
2015    4       22    21  59    3.5586   404.7    6.162      30.663
2015    4       22    22   5    3.5581   404.6    6.164      30.645
2015    4       22    22  11    3.5577   404.5    6.165      30.628
2015    4       22    22  17    3.5572   404.4    6.166      30.611
2015    4       22    22  24    3.5567   404.3    6.168      30.594
2015    4       22    22  30    3.5563   404.1    6.169      30.577
2015    4       22    22  36    3.5558   404.0    6.171      30.560
2015    4       22    22  42    3.5554   403.9    6.172      30.543
2015    4       22    22  48    3.5549   403.8    6.174      30.526
2015    4       22    22  54    3.5545   403.7    6.175      30.509
2015    4       22    23   0    3.5540   403.5    6.177      30.492
2015    4       22    23   6    3.5536   403.4    6.179      30.475
2015    4       22    23  13    3.5531   403.3    6.180      30.458
2015    4       22    23  19    3.5527   403.2    6.182      30.441
2015    4       22    23  25    3.5522   403.0    6.184      30.424
2015    4       22    23  31    3.5518   402.9    6.185      30.407
2015    4       22    23  37    3.5514   402.8    6.187      30.390
2015    4       22    23  43    3.5509   402.7    6.189      30.373
2015    4       22    23  49    3.5505   402.5    6.191      30.355
2015    4       22    23  56    3.5501   402.4    6.193      30.338
2015    4       23     0   2    3.5496   402.3    6.195      30.321
2015    4       23     0   8    3.5492   402.2    6.196      30.304
2015    4       23     0  14    3.5488   402.0    6.198      30.286
2015    4       23     0  20    3.5484   401.9    6.200      30.269
2015    4       23     0  26    3.5480   401.8    6.202      30.251
2015    4       23     0  32    3.5475   401.6    6.204      30.234
2015    4       23     0  39    3.5471   401.5    6.206      30.216
2015    4       23     0  45    3.5467   401.4    6.208      30.198
2015    4       23     0  51    3.5463   401.2    6.210      30.181
2015    4       23     0  57    3.5460   401.1    6.211      30.163
2015    4       23     1   3    3.5456   401.0    6.213      30.145
2015    4       23     1   9    3.5452   400.8    6.215      30.127
2015    4       23     1  15    3.5448   400.7    6.217      30.109
2015    4       23     1  21    3.5445   400.6    6.219      30.091
2015    4       23     1  28    3.5442   400.4    6.221      30.073
2015    4       23     1  34    3.5438   400.3    6.223      30.055
2015    4       23     1  40    3.5435   400.2    6.225      30.037
2015    4       23     1  46    3.5432   400.0    6.227      30.019
2015    4       23     1  52    3.5429   399.9    6.229      30.001
2015    4       23     1  58    3.5427   399.7    6.231      29.983
2015    4       23     2   4    3.5424   399.6    6.233      29.965
2015    4       23     2  11    3.5422   399.5    6.235      29.947
2015    4       23     2  17    3.5420   399.3    6.237      29.929
2015    4       23     2  23    3.5418   399.2    6.239      29.912
2015    4       23     2  29    3.5416   399.0    6.241      29.894
2015    4       23     2  35    3.5414   398.9    6.243      29.876
2015    4       23     2  41    3.5413   398.8    6.246      29.859
2015    4       23     2  47    3.5412   398.6    6.248      29.842
2015    4       23     2  54    3.5411   398.5    6.250      29.824
2015    4       23     3   0    3.5410   398.3    6.253      29.807
2015    4       23     3   6    3.5410   398.2    6.255      29.791
2015    4       23     3  12    3.5410   398.1    6.258      29.774
2015    4       23     3  18    3.5410   397.9    6.260      29.757
2015    4       23     3  24    3.5410   397.8    6.263      29.741
2015    4       23     3  30    3.5410   397.6    6.266      29.725
2015    4       23     3  37    3.5411   397.5    6.269      29.709
2015    4       23     3  43    3.5412   397.4    6.272      29.694
2015    4       23     3  49    3.5414   397.2    6.275      29.678
2015    4       23     3  55    3.5415   397.1    6.278      29.663
2015    4       23     4   1    3.5417   396.9    6.281      29.649
2015    4       23     4   7    3.5419   396.8    6.284      29.634
2015    4       23     4  13    3.5422   396.6    6.288      29.620
2015    4       23     4  19    3.5425   396.5    6.292      29.606
2015    4       23     4  26    3.5427   396.4    6.295      29.593
2015    4       23     4  32    3.5431   396.2    6.299      29.579
2015    4       23     4  38    3.5434   396.1    6.303      29.566
2015    4       23     4  44    3.5437   395.9    6.307      29.554
2015    4       23     4  50    3.5441   395.8    6.312      29.541
2015    4       23     4  56    3.5445   395.7    6.316      29.529
2015    4       23     5   2    3.5449   395.5    6.321      29.518
2015    4       23     5   9    3.5453   395.4    6.325      29.506
2015    4       23     5  15    3.5458   395.3    6.330      29.495
2015    4       23     5  21    3.5462   395.1    6.335      29.484
2015    4       23     5  27    3.5467   395.0    6.340      29.474
2015    4       23     5  33    3.5472   394.8    6.345      29.463
2015    4       23     5  39    3.5477   394.7    6.350      29.453
2015    4       23     5  45    3.5482   394.6    6.355      29.444
2015    4       23     5  52    3.5488   394.4    6.361      29.434
2015    4       23     5  58    3.5493   394.3    6.366      29.425
2015    4       23     6   4    3.5499   394.2    6.372      29.416
2015    4       23     6  10    3.5504   394.0    6.378      29.407
2015    4       23     6  16    3.5510   393.9    6.384      29.398
2015    4       23     6  22    3.5515   393.8    6.389      29.389
2015    4       23     6  28    3.5521   393.6    6.395      29.381
2015    4       23     6  34    3.5527   393.5    6.401      29.372
2015    4       23     6  41    3.5532   393.4    6.407      29.364
2015    4       23     6  47    3.5538   393.2    6.413      29.356
2015    4       23     6  53    3.5544   393.1    6.419      29.347
2015    4       23     6  59    3.5550   393.0    6.426      29.339
2015    4       23     7   5    3.5556   392.8    6.432      29.331
2015    4       23     7  11    3.5562   392.7    6.438      29.323
2015    4       23     7  17    3.5568   392.6    6.444      29.315
2015    4       23     7  24    3.5574   392.4    6.450      29.307
2015    4       23     7  30    3.5581   392.3    6.456      29.299
2015    4       23     7  36    3.5587   392.2    6.463      29.290
2015    4       23     7  42    3.5593   392.0    6.469      29.282
2015    4       23     7  48    3.5600   391.9    6.475      29.274
2015    4       23     7  54    3.5606   391.8    6.481      29.265
2015    4       23     8   0    3.5613   391.6    6.488      29.257
2015    4       23     8   7    3.5620   391.5    6.494      29.249
2015    4       23     8  13    3.5627   391.4    6.500      29.241
2015    4       23     8  19    3.5634   391.2    6.506      29.232
2015    4       23     8  25    3.5641   391.1    6.512      29.224
2015    4       23     8  31    3.5648   391.0    6.519      29.215
2015    4       23     8  37    3.5655   390.8    6.525      29.207
2015    4       23     8  43    3.5663   390.7    6.531      29.199
2015    4       23     8  49    3.5671   390.6    6.537      29.190
2015    4       23     8  56    3.5679   390.4    6.544      29.182
2015    4       23     9   2    3.5687   390.3    6.550      29.174
2015    4       23     9   8    3.5695   390.2    6.556      29.166
2015    4       23     9  14    3.5704   390.0    6.562      29.158
2015    4       23     9  20    3.5712   389.9    6.569      29.150
2015    4       23     9  26    3.5721   389.8    6.575      29.142
2015    4       23     9  32    3.5730   389.6    6.581      29.134
2015    4       23     9  39    3.5739   389.5    6.588      29.126
2015    4       23     9  45    3.5749   389.4    6.594      29.119
2015    4       23     9  51    3.5759   389.2    6.601      29.111
2015    4       23     9  57    3.5769   389.1    6.607      29.104
2015    4       23    10   3    3.5779   389.0    6.614      29.097
2015    4       23    10   9    3.5789   388.8    6.620      29.090
2015    4       23    10  15    3.5800   388.7    6.627      29.084
2015    4       23    10  22    3.5811   388.6    6.634      29.078
2015    4       23    10  28    3.5822   388.4    6.640      29.071
2015    4       23    10  34    3.5834   388.3    6.647      29.066
2015    4       23    10  40    3.5845   388.2    6.654      29.060
2015    4       23    10  46    3.5857   388.0    6.661      29.055
2015    4       23    10  52    3.5870   387.9    6.668      29.050
2015    4       23    10  58    3.5882   387.8    6.675      29.045
2015    4       23    11   4    3.5895   387.6    6.682      29.041
2015    4       23    11  11    3.5908   387.5    6.690      29.037
2015    4       23    11  17    3.5922   387.4    6.697      29.033
2015    4       23    11  23    3.5936   387.3    6.705      29.029
2015    4       23    11  29    3.5950   387.1    6.712      29.026
2015    4       23    11  35    3.5964   387.0    6.720      29.023
2015    4       23    11  41    3.5979   386.9    6.728      29.021
2015    4       23    11  47    3.5994   386.7    6.735      29.019
2015    4       23    11  54    3.6010   386.6    6.743      29.017
2015    4       23    12   0    3.6026   386.5    6.752      29.016
2015    4       23    12   6    3.6042   386.4    6.760      29.015
2015    4       23    12  12    3.6058   386.2    6.768      29.014
2015    4       23    12  18    3.6075   386.1    6.776      29.014
2015    4       23    12  24    3.6092   386.0    6.785      29.014
2015    4       23    12  30    3.6109   385.9    6.794      29.014
2015    4       23    12  37    3.6127   385.7    6.802      29.015
2015    4       23    12  43    3.6145   385.6    6.811      29.016
2015    4       23    12  49    3.6164   385.5    6.820      29.017
2015    4       23    12  55    3.6182   385.4    6.829      29.019
2015    4       23    13   1    3.6201   385.3    6.838      29.021
2015    4       23    13   7    3.6220   385.1    6.847      29.023
2015    4       23    13  13    3.6239   385.0    6.856      29.026
2015    4       23    13  20    3.6259   384.9    6.866      29.029
2015    4       23    13  26    3.6278   384.8    6.875      29.032
2015    4       23    13  32    3.6298   384.7    6.884      29.036
2015    4       23    13  38    3.6318   384.6    6.894      29.040
2015    4       23    13  44    3.6338   384.4    6.903      29.044
2015    4       23    13  50    3.6358   384.3    6.913      29.048
2015    4       23    13  56    3.6378   384.2    6.922      29.052
2015    4       23    14   2    3.6398   384.1    6.932      29.057
2015    4       23    14   9    3.6418   384.0    6.941      29.062
2015    4       23    14  15    3.6438   383.9    6.951      29.067
2015    4       23    14  21    3.6458   383.8    6.960      29.072
2015    4       23    14  27    3.6479   383.7    6.970      29.078
2015    4       23    14  33    3.6499   383.6    6.979      29.083
2015    4       23    14  39    3.6519   383.4    6.989      29.089
2015    4       23    14  45    3.6540   383.3    6.998      29.094
2015    4       23    14  52    3.6561   383.2    7.008      29.100
2015    4       23    14  58    3.6581   383.1    7.017      29.106
2015    4       23    15   4    3.6602   383.0    7.027      29.111
2015    4       23    15  10    3.6623   382.9    7.036      29.117
2015    4       23    15  16    3.6644   382.8    7.046      29.123
2015    4       23    15  22    3.6665   382.7    7.055      29.128
2015    4       23    15  28    3.6687   382.6    7.065      29.134
2015    4       23    15  35    3.6708   382.5    7.074      29.140
2015    4       23    15  41    3.6730   382.4    7.084      29.145
2015    4       23    15  47    3.6751   382.3    7.094      29.151
2015    4       23    15  53    3.6773   382.2    7.103      29.156
2015    4       23    15  59    3.6795   382.1    7.113      29.162
2015    4       23    16   5    3.6817   382.0    7.122      29.167
2015    4       23    16  11    3.6839   381.9    7.132      29.172
2015    4       23    16  17    3.6862   381.8    7.141      29.178
2015    4       23    16  24    3.6884   381.7    7.151      29.183
2015    4       23    16  30    3.6907   381.6    7.161      29.188
2015    4       23    16  36    3.6929   381.5    7.170      29.194
2015    4       23    16  42    3.6952   381.4    7.180      29.199
2015    4       23    16  48    3.6975   381.3    7.189      29.204
2015    4       23    16  54    3.6998   381.2    7.199      29.209
2015    4       23    17   0    3.7021   381.1    7.209      29.215
2015    4       23    17   7    3.7044   381.0    7.219      29.220
2015    4       23    17  13    3.7068   380.9    7.228      29.225
2015    4       23    17  19    3.7091   380.8    7.238      29.231
2015    4       23    17  25    3.7115   380.8    7.248      29.236
2015    4       23    17  31    3.7139   380.7    7.258      29.242
2015    4       23    17  37    3.7163   380.6    7.268      29.247
2015    4       23    17  43    3.7188   380.5    7.278      29.253
2015    4       23    17  50    3.7212   380.4    7.288      29.259
2015    4       23    17  56    3.7238   380.3    7.298      29.266
2015    4       23    18   2    3.7263   380.2    7.308      29.272
2015    4       23    18   8    3.7288   380.1    7.319      29.279
2015    4       23    18  14    3.7314   380.0    7.329      29.286
2015    4       23    18  20    3.7341   379.9    7.339      29.293
2015    4       23    18  26    3.7367   379.8    7.350      29.301
2015    4       23    18  32    3.7394   379.7    7.360      29.309
2015    4       23    18  39    3.7422   379.7    7.371      29.317
2015    4       23    18  45    3.7449   379.6    7.382      29.326
2015    4       23    18  51    3.7477   379.5    7.392      29.336
2015    4       23    18  57    3.7505   379.4    7.403      29.347
2015    4       23    19   3    3.7533   379.3    7.413      29.358
2015    4       23    19   9    3.7561   379.2    7.423      29.369
2015    4       23    19  15    3.7589   379.2    7.434      29.382
2015    4       23    19  22    3.7618   379.1    7.444      29.394
2015    4       23    19  28    3.7647   379.0    7.454      29.407
2015    4       23    19  34    3.7675   378.9    7.465      29.420
2015    4       23    19  40    3.7704   378.8    7.475      29.433
2015    4       23    19  46    3.7733   378.8    7.485      29.446
2015    4       23    19  52    3.7762   378.7    7.495      29.459
2015    4       23    19  58    3.7792   378.6    7.505      29.472
2015    4       23    20   5    3.7821   378.5    7.515      29.485
2015    4       23    20  11    3.7850   378.5    7.524      29.498
2015    4       23    20  17    3.7880   378.4    7.534      29.512
2015    4       23    20  23    3.7909   378.3    7.544      29.525
2015    4       23    20  29    3.7939   378.2    7.553      29.538
2015    4       23    20  35    3.7969   378.2    7.563      29.551
2015    4       23    20  41    3.7999   378.1    7.573      29.564
2015    4       23    20  47    3.8029   378.0    7.582      29.577
2015    4       23    20  54    3.8058   378.0    7.592      29.590
2015    4       23    21   0    3.8089   377.9    7.601      29.603
2015    4       23    21   6    3.8119   377.8    7.611      29.616
2015    4       23    21  12    3.8148   377.8    7.620      29.629
2015    4       23    21  18    3.8178   377.7    7.629      29.642
2015    4       23    21  24    3.8208   377.6    7.638      29.655
2015    4       23    21  30    3.8238   377.6    7.648      29.668
2015    4       23    21  37    3.8268   377.5    7.657      29.681
2015    4       23    21  43    3.8298   377.4    7.666      29.694
2015    4       23    21  49    3.8328   377.4    7.675      29.707
2015    4       23    21  55    3.8358   377.3    7.684      29.720
2015    4       23    22   1    3.8388   377.2    7.693      29.733
2015    4       23    22   7    3.8419   377.2    7.702      29.746
2015    4       23    22  13    3.8449   377.1    7.710      29.758
2015    4       23    22  20    3.8479   377.0    7.719      29.771
2015    4       23    22  26    3.8509   377.0    7.728      29.784
2015    4       23    22  32    3.8540   376.9    7.737      29.796
2015    4       23    22  38    3.8570   376.9    7.746      29.809
2015    4       23    22  44    3.8601   376.8    7.755      29.821
2015    4       23    22  50    3.8631   376.7    7.763      29.834
2015    4       23    22  56    3.8662   376.7    7.772      29.846
2015    4       23    23   3    3.8693   376.6    7.781      29.859
2015    4       23    23   9    3.8724   376.6    7.790      29.871
2015    4       23    23  15    3.8756   376.5    7.799      29.884
2015    4       23    23  21    3.8787   376.5    7.808      29.896
2015    4       23    23  27    3.8818   376.4    7.817      29.909
2015    4       23    23  33    3.8850   376.4    7.825      29.921
2015    4       23    23  39    3.8882   376.3    7.834      29.934
2015    4       23    23  45    3.8914   376.3    7.843      29.946
2015    4       23    23  52    3.8946   376.2    7.853      29.959
2015    4       23    23  58    3.8978   376.2    7.862      29.972
2015    4       24     0   4    3.9011   376.1    7.871      29.984
2015    4       24     0  10    3.9043   376.1    7.880      29.997
2015    4       24     0  16    3.9076   376.0    7.890      30.010
2015    4       24     0  22    3.9109   376.0    7.899      30.024
2015    4       24     0  28    3.9143   375.9    7.909      30.037
2015    4       24     0  35    3.9176   375.9    7.918      30.050
2015    4       24     0  41    3.9210   375.8    7.928      30.064
2015    4       24     0  47    3.9244   375.8    7.938      30.078
2015    4       24     0  53    3.9279   375.7    7.948      30.092
2015    4       24     0  59    3.9313   375.7    7.958      30.106
2015    4       24     1   5    3.9349   375.7    7.968      30.121
2015    4       24     1  11    3.9384   375.6    7.979      30.136
2015    4       24     1  18    3.9420   375.6    7.989      30.151
2015    4       24     1  24    3.9456   375.6    8.000      30.166
2015    4       24     1  30    3.9493   375.5    8.011      30.182
2015    4       24     1  36    3.9530   375.5    8.022      30.198
2015    4       24     1  42    3.9567   375.4    8.034      30.214
2015    4       24     1  48    3.9604   375.4    8.045      30.231
2015    4       24     1  54    3.9641   375.4    8.056      30.250
2015    4       24     2   0    3.9678   375.4    8.067      30.269
2015    4       24     2   7    3.9716   375.3    8.079      30.290
2015    4       24     2  13    3.9753   375.3    8.090      30.312
2015    4       24     2  19    3.9790   375.3    8.100      30.335
2015    4       24     2  25    3.9827   375.3    8.111      30.359
2015    4       24     2  31    3.9864   375.3    8.121      30.383
2015    4       24     2  37    3.9900   375.2    8.132      30.408
2015    4       24     2  43    3.9937   375.2    8.142      30.433
2015    4       24     2  50    3.9973   375.2    8.152      30.457
2015    4       24     2  56    4.0009   375.2    8.162      30.482
2015    4       24     3   2    4.0044   375.2    8.171      30.506
2015    4       24     3   8    4.0080   375.1    8.181      30.530
2015    4       24     3  14    4.0115   375.1    8.190      30.553
2015    4       24     3  20    4.0150   375.1    8.199      30.577
2015    4       24     3  26    4.0185   375.1    8.208      30.600
2015    4       24     3  33    4.0219   375.1    8.217      30.622
2015    4       24     3  39    4.0254   375.0    8.225      30.645
2015    4       24     3  45    4.0288   375.0    8.234      30.666
2015    4       24     3  51    4.0322   375.0    8.242      30.688
2015    4       24     3  57    4.0356   375.0    8.250      30.709
2015    4       24     4   3    4.0390   375.0    8.258      30.730
2015    4       24     4   9    4.0424   374.9    8.266      30.751
2015    4       24     4  15    4.0457   374.9    8.274      30.772
2015    4       24     4  22    4.0491   374.9    8.282      30.792
2015    4       24     4  28    4.0524   374.9    8.290      30.812
2015    4       24     4  34    4.0557   374.9    8.297      30.831
2015    4       24     4  40    4.0591   374.8    8.305      30.851
2015    4       24     4  46    4.0624   374.8    8.312      30.870
2015    4       24     4  52    4.0657   374.8    8.319      30.889
2015    4       24     4  58    4.0690   374.8    8.327      30.907
2015    4       24     5   5    4.0723   374.8    8.334      30.925
2015    4       24     5  11    4.0756   374.7    8.341      30.944
2015    4       24     5  17    4.0789   374.7    8.348      30.961
2015    4       24     5  23    4.0822   374.7    8.355      30.979
2015    4       24     5  29    4.0855   374.7    8.362      30.997
2015    4       24     5  35    4.0888   374.7    8.369      31.014
2015    4       24     5  41    4.0921   374.7    8.376      31.031
2015    4       24     5  48    4.0954   374.6    8.383      31.048
2015    4       24     5  54    4.0987   374.6    8.389      31.064
2015    4       24     6   0    4.1021   374.6    8.396      31.081
2015    4       24     6   6    4.1054   374.6    8.403      31.098
2015    4       24     6  12    4.1087   374.6    8.410      31.114
2015    4       24     6  18    4.1120   374.6    8.416      31.130
2015    4       24     6  24    4.1153   374.5    8.423      31.147
2015    4       24     6  30    4.1187   374.5    8.430      31.163
2015    4       24     6  37    4.1220   374.5    8.437      31.179
2015    4       24     6  43    4.1254   374.5    8.443      31.195
2015    4       24     6  49    4.1288   374.5    8.450      31.212
2015    4       24     6  55    4.1322   374.5    8.457      31.228
2015    4       24     7   1    4.1356   374.5    8.464      31.244
2015    4       24     7   7    4.1390   374.5    8.471      31.261
2015    4       24     7  13    4.1424   374.5    8.478      31.278
2015    4       24     7  20    4.1458   374.5    8.485      31.294
2015    4       24     7  26    4.1493   374.5    8.492      31.311
2015    4       24     7  32    4.1528   374.4    8.499      31.329
2015    4       24     7  38    4.1563   374.4    8.506      31.346
2015    4       24     7  44    4.1598   374.4    8.513      31.364
2015    4       24     7  50    4.1634   374.4    8.521      31.381
2015    4       24     7  56    4.1669   374.4    8.529      31.400
2015    4       24     8   3    4.1705   374.4    8.536      31.418
2015    4       24     8   9    4.1742   374.4    8.544      31.437
2015    4       24     8  15    4.1778   374.4    8.553      31.456
2015    4       24     8  21    4.1815   374.4    8.561      31.476
2015    4       24     8  27    4.1852   374.4    8.569      31.495
2015    4       24     8  33    4.1890   374.4    8.578      31.516
2015    4       24     8  39    4.1928   374.4    8.587      31.536
2015    4       24     8  46    4.1966   374.5    8.596      31.557
2015    4       24     8  52    4.2004   374.5    8.606      31.579
2015    4       24     8  58    4.2043   374.5    8.615      31.601
2015    4       24     9   4    4.2082   374.5    8.625      31.623
2015    4       24     9  10    4.2121   374.5    8.635      31.647
2015    4       24     9  16    4.2160   374.5    8.645      31.673
2015    4       24     9  22    4.2200   374.5    8.655      31.699
2015    4       24     9  28    4.2239   374.5    8.666      31.726
2015    4       24     9  35    4.2279   374.5    8.676      31.755
2015    4       24     9  41    4.2319   374.6    8.687      31.783
2015    4       24     9  47    4.2359   374.6    8.698      31.813
2015    4       24     9  53    4.2399   374.6    8.709      31.845
2015    4       24     9  59    4.2438   374.6    8.720      31.877
2015    4       24    10   5    4.2477   374.6    8.730      31.910
2015    4       24    10  11    4.2516   374.7    8.741      31.944
2015    4       24    10  18    4.2554   374.7    8.752      31.979
2015    4       24    10  24    4.2591   374.7    8.762      32.015
2015    4       24    10  30    4.2628   374.8    8.772      32.051
2015    4       24    10  36    4.2665   374.8    8.782      32.088
2015    4       24    10  42    4.2701   374.8    8.791      32.123
2015    4       24    10  48    4.2736   374.8    8.800      32.159
2015    4       24    10  54    4.2771   374.9    8.809      32.194
2015    4       24    11   1    4.2805   374.9    8.818      32.228
2015    4       24    11   7    4.2838   374.9    8.826      32.261
2015    4       24    11  13    4.2871   375.0    8.834      32.295
2015    4       24    11  19    4.2904   375.0    8.842      32.327
2015    4       24    11  25    4.2935   375.0    8.850      32.359
2015    4       24    11  31    4.2967   375.1    8.857      32.391
2015    4       24    11  37    4.2998   375.1    8.864      32.421
2015    4       24    11  43    4.3029   375.1    8.871      32.451
2015    4       24    11  50    4.3059   375.2    8.877      32.481
2015    4       24    11  56    4.3089   375.2    8.884      32.510
2015    4       24    12   2    4.3119   375.2    8.890      32.538
2015    4       24    12   8    4.3148   375.2    8.896      32.566
2015    4       24    12  14    4.3177   375.3    8.902      32.593
2015    4       24    12  20    4.3206   375.3    8.907      32.620
2015    4       24    12  26    4.3235   375.3    8.913      32.646
2015    4       24    12  33    4.3263   375.4    8.918      32.671
2015    4       24    12  39    4.3292   375.4    8.923      32.697
2015    4       24    12  45    4.3320   375.4    8.929      32.721
2015    4       24    12  51    4.3348   375.5    8.934      32.746
2015    4       24    12  57    4.3376   375.5    8.938      32.770
2015    4       24    13   3    4.3404   375.5    8.943      32.794
2015    4       24    13   9    4.3431   375.5    8.948      32.817
2015    4       24    13  16    4.3459   375.6    8.953      32.840
2015    4       24    13  22    4.3486   375.6    8.957      32.862
2015    4       24    13  28    4.3514   375.6    8.962      32.885
2015    4       24    13  34    4.3541   375.7    8.966      32.907
2015    4       24    13  40    4.3568   375.7    8.970      32.929
2015    4       24    13  46    4.3595   375.7    8.974      32.950
2015    4       24    13  52    4.3623   375.8    8.979      32.972
2015    4       24    13  58    4.3650   375.8    8.983      32.993
2015    4       24    14   5    4.3677   375.8    8.987      33.014
2015    4       24    14  11    4.3704   375.9    8.991      33.035
2015    4       24    14  17    4.3730   375.9    8.995      33.055
2015    4       24    14  23    4.3757   375.9    8.999      33.076
2015    4       24    14  29    4.3784   376.0    9.003      33.096
2015    4       24    14  35    4.3811   376.0    9.007      33.116
2015    4       24    14  41    4.3838   376.0    9.011      33.136
2015    4       24    14  48    4.3865   376.1    9.015      33.157
2015    4       24    14  54    4.3892   376.1    9.019      33.176
2015    4       24    15   0    4.3919   376.1    9.023      33.197
2015    4       24    15   6    4.3946   376.2    9.027      33.217
2015    4       24    15  12    4.3973   376.2    9.031      33.236
2015    4       24    15  18    4.4000   376.2    9.035      33.257
2015    4       24    15  24    4.4027   376.3    9.039      33.277
2015    4       24    15  31    4.4055   376.3    9.044      33.297
2015    4       24    15  37    4.4082   376.3    9.048      33.317
2015    4       24    15  43    4.4109   376.4    9.053      33.338
2015    4       24    15  49    4.4137   376.4    9.057      33.358
2015    4       24    15  55    4.4165   376.4    9.062      33.379
2015    4       24    16   1    4.4193   376.5    9.067      33.400
2015    4       24    16   7    4.4221   376.5    9.072      33.421
2015    4       24    16  14    4.4250   376.5    9.077      33.443
2015    4       24    16  20    4.4278   376.6    9.082      33.464
2015    4       24    16  26    4.4307   376.6    9.088      33.486
2015    4       24    16  32    4.4336   376.6    9.093      33.509
2015    4       24    16  38    4.4366   376.7    9.099      33.532
2015    4       24    16  44    4.4396   376.7    9.105      33.555
2015    4       24    16  50    4.4426   376.8    9.112      33.578
2015    4       24    16  56    4.4456   376.8    9.119      33.602
2015    4       24    17   3    4.4487   376.8    9.126      33.626
2015    4       24    17   9    4.4517   376.9    9.133      33.652
2015    4       24    17  15    4.4547   376.9    9.140      33.679
2015    4       24    17  21    4.4577   376.9    9.148      33.707
2015    4       24    17  27    4.4607   377.0    9.155      33.736
2015    4       24    17  33    4.4636   377.0    9.163      33.766
2015    4       24    17  39    4.4665   377.1    9.170      33.797
2015    4       24    17  46    4.4693   377.1    9.177      33.829
2015    4       24    17  52    4.4721   377.2    9.184      33.862
2015    4       24    17  58    4.4748   377.2    9.191      33.895
2015    4       24    18   4    4.4774   377.3    9.198      33.928
2015    4       24    18  10    4.4800   377.3    9.204      33.961
2015    4       24    18  16    4.4825   377.4    9.210      33.993
2015    4       24    18  22    4.4849   377.4    9.216      34.025
2015    4       24    18  29    4.4872   377.5    9.222      34.057
2015    4       24    18  35    4.4895   377.5    9.227      34.089
2015    4       24    18  41    4.4918   377.6    9.232      34.120
2015    4       24    18  47    4.4939   377.6    9.237      34.150
2015    4       24    18  53    4.4961   377.7    9.242      34.179
2015    4       24    18  59    4.4981   377.7    9.246      34.208
2015    4       24    19   5    4.5002   377.8    9.250      34.236
2015    4       24    19  11    4.5022   377.8    9.254      34.263
2015    4       24    19  18    4.5041   377.9    9.257      34.289
2015    4       24    19  24    4.5060   378.0    9.261      34.315
2015    4       24    19  30    4.5078   378.0    9.264      34.340
2015    4       24    19  36    4.5096   378.1    9.267      34.365
2015    4       24    19  42    4.5114   378.1    9.269      34.388
2015    4       24    19  48    4.5132   378.2    9.272      34.411
2015    4       24    19  54    4.5149   378.2    9.274      34.434
2015    4       24    20   1    4.5166   378.3    9.276      34.456
2015    4       24    20   7    4.5183   378.3    9.278      34.477
2015    4       24    20  13    4.5199   378.4    9.280      34.498
2015    4       24    20  19    4.5215   378.5    9.282      34.518
2015    4       24    20  25    4.5231   378.5    9.283      34.538
2015    4       24    20  31    4.5247   378.6    9.285      34.558
2015    4       24    20  37    4.5263   378.6    9.286      34.577
2015    4       24    20  44    4.5278   378.7    9.287      34.595
2015    4       24    20  50    4.5293   378.8    9.288      34.613
2015    4       24    20  56    4.5308   378.8    9.289      34.631
2015    4       24    21   2    4.5323   378.9    9.290      34.648
2015    4       24    21   8    4.5338   378.9    9.291      34.665
2015    4       24    21  14    4.5352   379.0    9.291      34.682
2015    4       24    21  20    4.5367   379.1    9.292      34.698
2015    4       24    21  26    4.5381   379.1    9.293      34.714
2015    4       24    21  33    4.5395   379.2    9.293      34.730
2015    4       24    21  39    4.5409   379.2    9.294      34.745
2015    4       24    21  45    4.5423   379.3    9.294      34.760
2015    4       24    21  51    4.5437   379.4    9.294      34.775
2015    4       24    21  57    4.5451   379.4    9.295      34.790
2015    4       24    22   3    4.5465   379.5    9.295      34.804
2015    4       24    22   9    4.5478   379.5    9.295      34.819
2015    4       24    22  16    4.5492   379.6    9.295      34.833
2015    4       24    22  22    4.5505   379.7    9.295      34.847
2015    4       24    22  28    4.5518   379.7    9.295      34.861
2015    4       24    22  34    4.5531   379.8    9.295      34.874
2015    4       24    22  40    4.5545   379.8    9.295      34.888
2015    4       24    22  46    4.5558   379.9    9.295      34.901
2015    4       24    22  52    4.5571   380.0    9.296      34.914
2015    4       24    22  59    4.5584   380.0    9.296      34.927
2015    4       24    23   5    4.5597   380.1    9.296      34.940
2015    4       24    23  11    4.5610   380.2    9.296      34.953
2015    4       24    23  17    4.5624   380.2    9.296      34.966
2015    4       24    23  23    4.5636   380.3    9.296      34.979
2015    4       24    23  29    4.5650   380.3    9.296      34.992
2015    4       24    23  35    4.5663   380.4    9.296      35.005
2015    4       24    23  41    4.5676   380.5    9.297      35.019
2015    4       24    23  48    4.5689   380.5    9.297      35.032
2015    4       24    23  54    4.5702   380.6    9.297      35.045
2015    4       25     0   0    4.5716   380.7    9.298      35.058
2015    4       25     0   6    4.5729   380.7    9.298      35.072
2015    4       25     0  12    4.5742   380.8    9.299      35.086
2015    4       25     0  18    4.5755   380.8    9.300      35.100
2015    4       25     0  24    4.5768   380.9    9.301      35.114
2015    4       25     0  31    4.5781   381.0    9.302      35.129
2015    4       25     0  37    4.5793   381.0    9.303      35.144
2015    4       25     0  43    4.5806   381.1    9.304      35.160
2015    4       25     0  49    4.5818   381.2    9.305      35.175
2015    4       25     0  55    4.5830   381.2    9.306      35.191
2015    4       25     1   1    4.5842   381.3    9.308      35.208
2015    4       25     1   7    4.5853   381.3    9.309      35.224
2015    4       25     1  14    4.5864   381.4    9.310      35.242
2015    4       25     1  20    4.5874   381.5    9.312      35.260
2015    4       25     1  26    4.5884   381.5    9.313      35.279
2015    4       25     1  32    4.5894   381.6    9.314      35.299
2015    4       25     1  38    4.5904   381.7    9.315      35.319
2015    4       25     1  44    4.5913   381.7    9.316      35.340
2015    4       25     1  50    4.5921   381.8    9.317      35.361
2015    4       25     1  57    4.5930   381.9    9.318      35.383
2015    4       25     2   3    4.5938   381.9    9.319      35.404
2015    4       25     2   9    4.5945   382.0    9.319      35.425
2015    4       25     2  15    4.5952   382.1    9.319      35.446
2015    4       25     2  21    4.5959   382.1    9.319      35.466
2015    4       25     2  27    4.5965   382.2    9.319      35.486
2015    4       25     2  33    4.5972   382.3    9.319      35.505
2015    4       25     2  39    4.5978   382.3    9.319      35.523
2015    4       25     2  46    4.5983   382.4    9.318      35.541
2015    4       25     2  52    4.5988   382.5    9.318      35.559
2015    4       25     2  58    4.5994   382.5    9.317      35.575
2015    4       25     3   4    4.5998   382.6    9.316      35.591
2015    4       25     3  10    4.6003   382.7    9.314      35.607
2015    4       25     3  16    4.6007   382.7    9.313      35.621
2015    4       25     3  22    4.6011   382.8    9.311      35.636
2015    4       25     3  29    4.6014   382.9    9.310      35.649
2015    4       25     3  35    4.6018   382.9    9.308      35.662
2015    4       25     3  41    4.6021   383.0    9.306      35.674
2015    4       25     3  47    4.6023   383.1    9.304      35.685
2015    4       25     3  53    4.6026   383.1    9.301      35.696
2015    4       25     3  59    4.6028   383.2    9.299      35.707
2015    4       25     4   5    4.6030   383.3    9.296      35.716
2015    4       25     4  12    4.6032   383.4    9.294      35.725
2015    4       25     4  18    4.6033   383.4    9.291      35.734
2015    4       25     4  24    4.6034   383.5    9.288      35.742
2015    4       25     4  30    4.6035   383.6    9.284      35.749
2015    4       25     4  36    4.6035   383.6    9.281      35.756
2015    4       25     4  42    4.6035   383.7    9.277      35.762
2015    4       25     4  48    4.6035   383.8    9.274      35.768
2015    4       25     4  54    4.6034   383.9    9.270      35.773
2015    4       25     5   1    4.6034   383.9    9.266      35.777
2015    4       25     5   7    4.6033   384.0    9.262      35.781
2015    4       25     5  13    4.6031   384.1    9.257      35.785
2015    4       25     5  19    4.6029   384.2    9.253      35.788
2015    4       25     5  25    4.6027   384.2    9.249      35.790
2015    4       25     5  31    4.6025   384.3    9.244      35.792
2015    4       25     5  37    4.6022   384.4    9.239      35.794
2015    4       25     5  44    4.6019   384.5    9.234      35.795
2015    4       25     5  50    4.6016   384.5    9.229      35.795
2015    4       25     5  56    4.6013   384.6    9.224      35.796
2015    4       25     6   2    4.6009   384.7    9.219      35.795
2015    4       25     6   8    4.6005   384.8    9.213      35.795
2015    4       25     6  14    4.6001   384.8    9.208      35.794
2015    4       25     6  20    4.5996   384.9    9.203      35.793
2015    4       25     6  27    4.5991   385.0    9.197      35.791
2015    4       25     6  33    4.5986   385.1    9.191      35.789
2015    4       25     6  39    4.5981   385.1    9.186      35.787
2015    4       25     6  45    4.5976   385.2    9.180      35.785
2015    4       25     6  51    4.5970   385.3    9.174      35.782
2015    4       25     6  57    4.5964   385.3    9.169      35.779
2015    4       25     7   3    4.5959   385.4    9.163      35.776
2015    4       25     7   9    4.5953   385.5    9.157      35.773
2015    4       25     7  16    4.5947   385.6    9.151      35.769
2015    4       25     7  22    4.5940   385.6    9.145      35.766
2015    4       25     7  28    4.5934   385.7    9.140      35.762
2015    4       25     7  34    4.5927   385.8    9.134      35.759
2015    4       25     7  40    4.5921   385.8    9.128      35.755
2015    4       25     7  46    4.5914   385.9    9.123      35.751
2015    4       25     7  52    4.5907   386.0    9.117      35.748
2015    4       25     7  59    4.5899   386.0    9.112      35.744
2015    4       25     8   5    4.5892   386.1    9.106      35.741
2015    4       25     8  11    4.5884   386.2    9.101      35.737
2015    4       25     8  17    4.5876   386.3    9.096      35.734
2015    4       25     8  23    4.5868   386.3    9.090      35.731
2015    4       25     8  29    4.5859   386.4    9.085      35.729
2015    4       25     8  35    4.5850   386.5    9.080      35.726
2015    4       25     8  42    4.5842   386.5    9.074      35.725
2015    4       25     8  48    4.5832   386.6    9.069      35.724
2015    4       25     8  54    4.5823   386.7    9.064      35.723
2015    4       25     9   0    4.5813   386.7    9.058      35.724
2015    4       25     9   6    4.5804   386.8    9.053      35.724
2015    4       25     9  12    4.5794   386.9    9.047      35.725
2015    4       25     9  18    4.5784   386.9    9.042      35.725
2015    4       25     9  25    4.5773   387.0    9.036      35.727
2015    4       25     9  31    4.5762   387.1    9.030      35.727
2015    4       25     9  37    4.5751   387.1    9.025      35.728
2015    4       25     9  43    4.5741   387.2    9.019      35.728
2015    4       25     9  49    4.5729   387.3    9.013      35.728
2015    4       25     9  55    4.5718   387.3    9.007      35.728
2015    4       25    10   1    4.5707   387.4    9.001      35.727
2015    4       25    10   7    4.5695   387.5    8.995      35.727
2015    4       25    10  14    4.5683   387.5    8.989      35.726
2015    4       25    10  20    4.5671   387.6    8.983      35.724
2015    4       25    10  26    4.5659   387.7    8.976      35.722
2015    4       25    10  32    4.5646   387.7    8.970      35.720
2015    4       25    10  38    4.5633   387.8    8.963      35.718
2015    4       25    10  44    4.5621   387.8    8.957      35.715
2015    4       25    10  50    4.5607   387.9    8.950      35.712
2015    4       25    10  57    4.5594   388.0    8.943      35.708
2015    4       25    11   3    4.5579   388.0    8.936      35.705
2015    4       25    11   9    4.5565   388.1    8.929      35.700
2015    4       25    11  15    4.5551   388.2    8.922      35.696
2015    4       25    11  21    4.5536   388.2    8.915      35.690
2015    4       25    11  27    4.5520   388.3    8.908      35.685
2015    4       25    11  33    4.5505   388.3    8.900      35.679
2015    4       25    11  40    4.5489   388.4    8.893      35.673
2015    4       25    11  46    4.5473   388.5    8.885      35.666
2015    4       25    11  52    4.5456   388.5    8.877      35.659
2015    4       25    11  58    4.5439   388.6    8.869      35.651
2015    4       25    12   4    4.5422   388.6    8.861      35.643
2015    4       25    12  10    4.5404   388.7    8.853      35.634
2015    4       25    12  16    4.5386   388.8    8.845      35.625
2015    4       25    12  22    4.5367   388.8    8.836      35.616
2015    4       25    12  29    4.5348   388.9    8.828      35.606
2015    4       25    12  35    4.5329   388.9    8.819      35.596
2015    4       25    12  41    4.5310   389.0    8.810      35.585
2015    4       25    12  47    4.5290   389.0    8.801      35.574
2015    4       25    12  53    4.5270   389.1    8.792      35.562
2015    4       25    12  59    4.5249   389.2    8.783      35.550
2015    4       25    13   5    4.5228   389.2    8.774      35.537
2015    4       25    13  12    4.5207   389.3    8.765      35.524
2015    4       25    13  18    4.5186   389.3    8.755      35.511
2015    4       25    13  24    4.5164   389.4    8.746      35.497
2015    4       25    13  30    4.5142   389.4    8.736      35.483
2015    4       25    13  36    4.5120   389.5    8.726      35.468
2015    4       25    13  42    4.5097   389.5    8.717      35.453
2015    4       25    13  48    4.5074   389.6    8.707      35.437
2015    4       25    13  55    4.5051   389.6    8.697      35.422
2015    4       25    14   1    4.5028   389.7    8.687      35.405
2015    4       25    14   7    4.5005   389.7    8.677      35.389
2015    4       25    14  13    4.4981   389.8    8.667      35.372
2015    4       25    14  19    4.4958   389.8    8.657      35.355
2015    4       25    14  25    4.4934   389.9    8.647      35.337
2015    4       25    14  31    4.4910   389.9    8.637      35.319
2015    4       25    14  37    4.4886   390.0    8.627      35.301
2015    4       25    14  44    4.4862   390.0    8.617      35.283
2015    4       25    14  50    4.4838   390.0    8.607      35.264
2015    4       25    14  56    4.4813   390.1    8.597      35.245
2015    4       25    15   2    4.4789   390.1    8.587      35.225
2015    4       25    15   8    4.4764   390.2    8.576      35.206
2015    4       25    15  14    4.4739   390.2    8.566      35.186
2015    4       25    15  20    4.4714   390.2    8.556      35.166
2015    4       25    15  27    4.4690   390.3    8.546      35.146
2015    4       25    15  33    4.4665   390.3    8.536      35.125
2015    4       25    15  39    4.4640   390.3    8.526      35.105
2015    4       25    15  45    4.4615   390.4    8.516      35.084
2015    4       25    15  51    4.4590   390.4    8.506      35.063
2015    4       25    15  57    4.4565   390.4    8.496      35.042
2015    4       25    16   3    4.4540   390.5    8.486      35.020
2015    4       25    16  10    4.4515   390.5    8.476      34.999
2015    4       25    16  16    4.4490   390.5    8.466      34.977
2015    4       25    16  22    4.4465   390.6    8.456      34.956
2015    4       25    16  28    4.4440   390.6    8.446      34.934
2015    4       25    16  34    4.4415   390.6    8.436      34.912
2015    4       25    16  40    4.4390   390.6    8.426      34.890
2015    4       25    16  46    4.4365   390.7    8.416      34.868
2015    4       25    16  52    4.4340   390.7    8.406      34.846
2015    4       25    16  59    4.4315   390.7    8.396      34.824
2015    4       25    17   5    4.4290   390.8    8.387      34.801
2015    4       25    17  11    4.4265   390.8    8.377      34.779
2015    4       25    17  17    4.4241   390.8    8.367      34.756
2015    4       25    17  23    4.4216   390.8    8.357      34.734
2015    4       25    17  29    4.4191   390.9    8.348      34.711
2015    4       25    17  35    4.4166   390.9    8.338      34.689
2015    4       25    17  42    4.4142   390.9    8.328      34.666
2015    4       25    17  48    4.4116   390.9    8.319      34.644
2015    4       25    17  54    4.4092   390.9    8.309      34.621
2015    4       25    18   0    4.4066   391.0    8.300      34.598
2015    4       25    18   6    4.4041   391.0    8.290      34.576
2015    4       25    18  12    4.4016   391.0    8.280      34.553
2015    4       25    18  18    4.3990   391.0    8.271      34.531
2015    4       25    18  25    4.3964   391.0    8.261      34.508
2015    4       25    18  31    4.3938   391.1    8.252      34.486
2015    4       25    18  37    4.3912   391.1    8.242      34.463
2015    4       25    18  43    4.3886   391.1    8.233      34.440
2015    4       25    18  49    4.3860   391.1    8.223      34.418
2015    4       25    18  55    4.3834   391.1    8.214      34.395
2015    4       25    19   1    4.3807   391.1    8.205      34.373
2015    4       25    19   8    4.3781   391.1    8.195      34.350
2015    4       25    19  14    4.3754   391.2    8.186      34.328
2015    4       25    19  20    4.3727   391.2    8.177      34.306
2015    4       25    19  26    4.3700   391.2    8.167      34.283
2015    4       25    19  32    4.3673   391.2    8.158      34.261
2015    4       25    19  38    4.3646   391.2    8.149      34.239
2015    4       25    19  44    4.3619   391.2    8.140      34.217
2015    4       25    19  50    4.3592   391.2    8.131      34.195
2015    4       25    19  57    4.3565   391.2    8.122      34.173
2015    4       25    20   3    4.3538   391.2    8.113      34.151
2015    4       25    20   9    4.3511   391.2    8.105      34.130
2015    4       25    20  15    4.3484   391.2    8.096      34.108
2015    4       25    20  21    4.3457   391.3    8.087      34.087
2015    4       25    20  27    4.3430   391.3    8.079      34.066
2015    4       25    20  33    4.3403   391.3    8.070      34.045
2015    4       25    20  40    4.3376   391.3    8.062      34.024
2015    4       25    20  46    4.3349   391.3    8.054      34.003
2015    4       25    20  52    4.3322   391.3    8.045      33.983
2015    4       25    20  58    4.3295   391.3    8.037      33.962
2015    4       25    21   4    4.3269   391.3    8.029      33.942
2015    4       25    21  10    4.3242   391.3    8.021      33.922
2015    4       25    21  16    4.3216   391.3    8.013      33.902
2015    4       25    21  23    4.3190   391.3    8.005      33.882
2015    4       25    21  29    4.3163   391.3    7.998      33.862
2015    4       25    21  35    4.3137   391.3    7.990      33.843
2015    4       25    21  41    4.3111   391.3    7.982      33.823
2015    4       25    21  47    4.3085   391.3    7.974      33.803
2015    4       25    21  53    4.3059   391.3    7.967      33.784
2015    4       25    21  59    4.3033   391.3    7.959      33.764
2015    4       25    22   5    4.3007   391.3    7.952      33.745
2015    4       25    22  12    4.2982   391.3    7.944      33.725
2015    4       25    22  18    4.2956   391.3    7.936      33.705
2015    4       25    22  24    4.2930   391.3    7.929      33.685
2015    4       25    22  30    4.2905   391.3    7.921      33.666
2015    4       25    22  36    4.2879   391.3    7.914      33.645
2015    4       25    22  42    4.2854   391.3    7.906      33.625
2015    4       25    22  48    4.2828   391.2    7.898      33.605
2015    4       25    22  55    4.2803   391.2    7.891      33.584
2015    4       25    23   1    4.2778   391.2    7.883      33.563
2015    4       25    23   7    4.2753   391.2    7.876      33.542
2015    4       25    23  13    4.2728   391.2    7.868      33.522
2015    4       25    23  19    4.2703   391.2    7.860      33.501
2015    4       25    23  25    4.2679   391.2    7.853      33.479
2015    4       25    23  31    4.2654   391.2    7.845      33.458
2015    4       25    23  38    4.2630   391.1    7.838      33.437
2015    4       25    23  44    4.2606   391.1    7.830      33.415
2015    4       25    23  50    4.2582   391.1    7.823      33.394
2015    4       25    23  56    4.2558   391.1    7.815      33.372
2015    4       26     0   2    4.2535   391.1    7.807      33.350
2015    4       26     0   8    4.2511   391.1    7.800      33.328
2015    4       26     0  14    4.2488   391.1    7.792      33.306
2015    4       26     0  20    4.2465   391.0    7.785      33.284
2015    4       26     0  27    4.2442   391.0    7.777      33.262
2015    4       26     0  33    4.2419   391.0    7.770      33.240
2015    4       26     0  39    4.2396   391.0    7.762      33.217
2015    4       26     0  45    4.2374   391.0    7.755      33.195
2015    4       26     0  51    4.2351   390.9    7.747      33.173
2015    4       26     0  57    4.2328   390.9    7.740      33.150
2015    4       26     1   3    4.2306   390.9    7.732      33.128
2015    4       26     1  10    4.2283   390.9    7.725      33.105
2015    4       26     1  16    4.2260   390.9    7.717      33.083
2015    4       26     1  22    4.2238   390.8    7.710      33.060
2015    4       26     1  28    4.2215   390.8    7.703      33.037
2015    4       26     1  34    4.2193   390.8    7.695      33.014
2015    4       26     1  40    4.2171   390.8    7.688      32.992
2015    4       26     1  46    4.2148   390.7    7.680      32.969
2015    4       26     1  53    4.2126   390.7    7.673      32.946
2015    4       26     1  59    4.2104   390.7    7.666      32.924
2015    4       26     2   5    4.2081   390.7    7.659      32.901
2015    4       26     2  11    4.2059   390.6    7.652      32.878
2015    4       26     2  17    4.2037   390.6    7.644      32.856
2015    4       26     2  23    4.2015   390.6    7.637      32.833
2015    4       26     2  29    4.1993   390.6    7.630      32.811
2015    4       26     2  36    4.1970   390.5    7.623      32.788
2015    4       26     2  42    4.1948   390.5    7.616      32.766
2015    4       26     2  48    4.1927   390.5    7.609      32.743
2015    4       26     2  54    4.1905   390.5    7.603      32.721
2015    4       26     3   0    4.1883   390.4    7.596      32.699
2015    4       26     3   6    4.1861   390.4    7.589      32.677
2015    4       26     3  12    4.1840   390.4    7.583      32.656
2015    4       26     3  18    4.1819   390.3    7.576      32.634
2015    4       26     3  25    4.1798   390.3    7.570      32.613
2015    4       26     3  31    4.1776   390.3    7.564      32.591
2015    4       26     3  37    4.1756   390.3    7.557      32.570
2015    4       26     3  43    4.1735   390.2    7.551      32.550
2015    4       26     3  49    4.1714   390.2    7.545      32.529
2015    4       26     3  55    4.1694   390.2    7.539      32.509
2015    4       26     4   1    4.1674   390.1    7.534      32.489
2015    4       26     4   8    4.1654   390.1    7.528      32.470
2015    4       26     4  14    4.1634   390.1    7.523      32.450
2015    4       26     4  20    4.1614   390.0    7.517      32.431
2015    4       26     4  26    4.1595   390.0    7.512      32.413
2015    4       26     4  32    4.1575   390.0    7.507      32.394
2015    4       26     4  38    4.1556   390.0    7.502      32.376
2015    4       26     4  44    4.1538   389.9    7.497      32.358
2015    4       26     4  51    4.1519   389.9    7.492      32.341
2015    4       26     4  57    4.1500   389.9    7.487      32.324
2015    4       26     5   3    4.1482   389.8    7.483      32.307
2015    4       26     5   9    4.1464   389.8    7.478      32.290
2015    4       26     5  15    4.1446   389.8    7.474      32.273
2015    4       26     5  21    4.1428   389.7    7.469      32.257
2015    4       26     5  27    4.1411   389.7    7.465      32.241
2015    4       26     5  33    4.1393   389.7    7.461      32.225
2015    4       26     5  40    4.1376   389.6    7.457      32.209
2015    4       26     5  46    4.1359   389.6    7.453      32.194
2015    4       26     5  52    4.1342   389.6    7.449      32.178
2015    4       26     5  58    4.1325   389.5    7.445      32.162
2015    4       26     6   4    4.1309   389.5    7.442      32.147
2015    4       26     6  10    4.1292   389.5    7.438      32.132
2015    4       26     6  16    4.1276   389.4    7.434      32.117
2015    4       26     6  23    4.1260   389.4    7.431      32.102
2015    4       26     6  29    4.1245   389.4    7.427      32.087
2015    4       26     6  35    4.1229   389.3    7.424      32.072
2015    4       26     6  41    4.1214   389.3    7.421      32.058
2015    4       26     6  47    4.1199   389.3    7.417      32.043
2015    4       26     6  53    4.1184   389.2    7.414      32.029
2015    4       26     6  59    4.1169   389.2    7.411      32.014
2015    4       26     7   6    4.1154   389.2    7.408      32.000
2015    4       26     7  12    4.1140   389.1    7.405      31.986
2015    4       26     7  18    4.1126   389.1    7.402      31.972
2015    4       26     7  24    4.1112   389.0    7.399      31.958
2015    4       26     7  30    4.1098   389.0    7.396      31.944
2015    4       26     7  36    4.1085   389.0    7.393      31.930
2015    4       26     7  42    4.1071   388.9    7.390      31.916
2015    4       26     7  48    4.1057   388.9    7.387      31.901
2015    4       26     7  55    4.1044   388.9    7.384      31.887
2015    4       26     8   1    4.1031   388.8    7.381      31.873
2015    4       26     8   7    4.1017   388.8    7.378      31.859
2015    4       26     8  13    4.1004   388.8    7.376      31.845
2015    4       26     8  19    4.0991   388.7    7.373      31.831
2015    4       26     8  25    4.0977   388.7    7.370      31.816
2015    4       26     8  31    4.0964   388.6    7.367      31.802
2015    4       26     8  38    4.0951   388.6    7.364      31.787
2015    4       26     8  44    4.0938   388.6    7.361      31.773
2015    4       26     8  50    4.0924   388.5    7.358      31.758
2015    4       26     8  56    4.0911   388.5    7.355      31.743
2015    4       26     9   2    4.0898   388.4    7.351      31.728
2015    4       26     9   8    4.0884   388.4    7.348      31.713
2015    4       26     9  14    4.0871   388.3    7.345      31.698
2015    4       26     9  21    4.0858   388.3    7.342      31.683
2015    4       26     9  27    4.0844   388.3    7.339      31.668
2015    4       26     9  33    4.0831   388.2    7.336      31.652
2015    4       26     9  39    4.0818   388.2    7.332      31.637
2015    4       26     9  45    4.0805   388.1    7.329      31.621
2015    4       26     9  51    4.0792   388.1    7.326      31.605
2015    4       26     9  57    4.0779   388.1    7.322      31.590
2015    4       26    10   4    4.0766   388.0    7.319      31.574
2015    4       26    10  10    4.0753   388.0    7.316      31.558
2015    4       26    10  16    4.0740   387.9    7.312      31.542
2015    4       26    10  22    4.0728   387.9    7.309      31.526
2015    4       26    10  28    4.0715   387.8    7.306      31.510
2015    4       26    10  34    4.0703   387.8    7.302      31.494
2015    4       26    10  40    4.0690   387.7    7.299      31.477
2015    4       26    10  46    4.0678   387.7    7.296      31.461
2015    4       26    10  53    4.0666   387.7    7.292      31.445
2015    4       26    10  59    4.0653   387.6    7.289      31.428
2015    4       26    11   5    4.0641   387.6    7.286      31.412
2015    4       26    11  11    4.0629   387.5    7.282      31.395
2015    4       26    11  17    4.0617   387.5    7.279      31.379
2015    4       26    11  23    4.0605   387.4    7.276      31.362
2015    4       26    11  29    4.0594   387.4    7.273      31.345
2015    4       26    11  36    4.0582   387.3    7.269      31.329
2015    4       26    11  42    4.0571   387.3    7.266      31.312
2015    4       26    11  48    4.0559   387.2    7.263      31.296
2015    4       26    11  54    4.0548   387.2    7.260      31.279
2015    4       26    12   0    4.0537   387.1    7.257      31.263
2015    4       26    12   6    4.0526   387.1    7.254      31.247
2015    4       26    12  12    4.0515   387.1    7.252      31.230
2015    4       26    12  19    4.0504   387.0    7.249      31.214
2015    4       26    12  25    4.0494   387.0    7.246      31.198
2015    4       26    12  31    4.0483   386.9    7.244      31.182
2015    4       26    12  37    4.0473   386.9    7.241      31.166
2015    4       26    12  43    4.0463   386.8    7.239      31.151
2015    4       26    12  49    4.0453   386.8    7.236      31.135
2015    4       26    12  55    4.0443   386.7    7.234      31.120
2015    4       26    13   1    4.0434   386.7    7.232      31.105
2015    4       26    13   8    4.0425   386.6    7.230      31.090
2015    4       26    13  14    4.0416   386.6    7.228      31.075
2015    4       26    13  20    4.0407   386.5    7.226      31.060
2015    4       26    13  26    4.0398   386.5    7.225      31.046
2015    4       26    13  32    4.0389   386.4    7.223      31.032
2015    4       26    13  38    4.0381   386.4    7.222      31.018
2015    4       26    13  44    4.0373   386.4    7.220      31.004
2015    4       26    13  51    4.0365   386.3    7.219      30.991
2015    4       26    13  57    4.0357   386.3    7.218      30.977
2015    4       26    14   3    4.0350   386.2    7.217      30.964
2015    4       26    14   9    4.0342   386.2    7.216      30.951
2015    4       26    14  15    4.0335   386.1    7.215      30.939
2015    4       26    14  21    4.0328   386.1    7.215      30.926
2015    4       26    14  27    4.0321   386.0    7.214      30.914
2015    4       26    14  34    4.0314   386.0    7.214      30.902
2015    4       26    14  40    4.0307   386.0    7.213      30.890
2015    4       26    14  46    4.0301   385.9    7.213      30.878
2015    4       26    14  52    4.0294   385.9    7.213      30.866
2015    4       26    14  58    4.0288   385.8    7.212      30.854
2015    4       26    15   4    4.0282   385.8    7.212      30.843
2015    4       26    15  10    4.0275   385.7    7.212      30.831
2015    4       26    15  16    4.0269   385.7    7.212      30.820
2015    4       26    15  23    4.0263   385.7    7.212      30.808
2015    4       26    15  29    4.0257   385.6    7.212      30.797
2015    4       26    15  35    4.0251   385.6    7.212      30.786
2015    4       26    15  41    4.0245   385.5    7.212      30.775
2015    4       26    15  47    4.0239   385.5    7.212      30.764
2015    4       26    15  53    4.0233   385.4    7.212      30.753
2015    4       26    15  59    4.0228   385.4    7.212      30.741
2015    4       26    16   6    4.0222   385.3    7.212      30.730
2015    4       26    16  12    4.0216   385.3    7.213      30.719
2015    4       26    16  18    4.0210   385.3    7.213      30.708
2015    4       26    16  24    4.0205   385.2    7.213      30.697
2015    4       26    16  30    4.0199   385.2    7.213      30.686
2015    4       26    16  36    4.0194   385.1    7.213      30.675
2015    4       26    16  42    4.0188   385.1    7.213      30.663
2015    4       26    16  49    4.0183   385.0    7.213      30.652
2015    4       26    16  55    4.0177   385.0    7.213      30.641
2015    4       26    17   1    4.0172   384.9    7.214      30.630
2015    4       26    17   7    4.0167   384.9    7.214      30.619
2015    4       26    17  13    4.0162   384.8    7.214      30.608
2015    4       26    17  19    4.0157   384.8    7.214      30.597
2015    4       26    17  25    4.0152   384.8    7.214      30.586
2015    4       26    17  31    4.0147   384.7    7.214      30.575
2015    4       26    17  38    4.0142   384.7    7.214      30.564
2015    4       26    17  44    4.0138   384.6    7.214      30.552
2015    4       26    17  50    4.0133   384.6    7.214      30.541
2015    4       26    17  56    4.0128   384.5    7.214      30.530
2015    4       26    18   2    4.0124   384.5    7.214      30.519
2015    4       26    18   8    4.0119   384.4    7.214      30.508
2015    4       26    18  14    4.0115   384.4    7.214      30.496
2015    4       26    18  21    4.0110   384.3    7.214      30.485
2015    4       26    18  27    4.0106   384.3    7.214      30.474
2015    4       26    18  33    4.0101   384.3    7.214      30.462
2015    4       26    18  39    4.0097   384.2    7.214      30.451
2015    4       26    18  45    4.0093   384.2    7.213      30.439
2015    4       26    18  51    4.0088   384.1    7.213      30.428
2015    4       26    18  57    4.0084   384.1    7.213      30.416
2015    4       26    19   4    4.0080   384.0    7.213      30.405
2015    4       26    19  10    4.0076   384.0    7.212      30.393
2015    4       26    19  16    4.0072   383.9    7.212      30.381
2015    4       26    19  22    4.0068   383.9    7.211      30.369
2015    4       26    19  28    4.0064   383.8    7.211      30.358
2015    4       26    19  34    4.0059   383.8    7.211      30.346
2015    4       26    19  40    4.0055   383.7    7.210      30.334
2015    4       26    19  47    4.0052   383.7    7.210      30.321
2015    4       26    19  53    4.0047   383.6    7.209      30.309
2015    4       26    19  59    4.0044   383.6    7.209      30.297
2015    4       26    20   5    4.0040   383.5    7.208      30.285
2015    4       26    20  11    4.0036   383.5    7.208      30.272
2015    4       26    20  17    4.0032   383.5    7.208      30.260
2015    4       26    20  23    4.0029   383.4    7.207      30.247
2015    4       26    20  29    4.0025   383.4    7.207      30.235
2015    4       26    20  36    4.0021   383.3    7.206      30.222
2015    4       26    20  42    4.0018   383.3    7.206      30.209
2015    4       26    20  48    4.0015   383.2    7.205      30.197
2015    4       26    20  54    4.0011   383.2    7.205      30.184
2015    4       26    21   0    4.0008   383.1    7.205      30.172
2015    4       26    21   6    4.0004   383.1    7.204      30.159
2015    4       26    21  12    4.0001   383.0    7.204      30.146
2015    4       26    21  19    3.9998   383.0    7.204      30.134
2015    4       26    21  25    3.9995   382.9    7.204      30.121
2015    4       26    21  31    3.9992   382.9    7.203      30.108
2015    4       26    21  37    3.9989   382.8    7.203      30.096
2015    4       26    21  43    3.9987   382.8    7.203      30.083
2015    4       26    21  49    3.9984   382.7    7.203      30.070
2015    4       26    21  55    3.9981   382.7    7.203      30.058
2015    4       26    22   2    3.9978   382.6    7.203      30.045
2015    4       26    22   8    3.9976   382.6    7.203      30.032
2015    4       26    22  14    3.9973   382.5    7.203      30.020
2015    4       26    22  20    3.9971   382.5    7.203      30.007
2015    4       26    22  26    3.9968   382.5    7.203      29.995
2015    4       26    22  32    3.9966   382.4    7.203      29.982
2015    4       26    22  38    3.9964   382.4    7.203      29.970
2015    4       26    22  44    3.9962   382.3    7.204      29.957
2015    4       26    22  51    3.9960   382.3    7.204      29.945
2015    4       26    22  57    3.9958   382.2    7.204      29.933
2015    4       26    23   3    3.9956   382.2    7.205      29.920
2015    4       26    23   9    3.9954   382.1    7.205      29.908
2015    4       26    23  15    3.9952   382.1    7.205      29.896
2015    4       26    23  21    3.9950   382.0    7.206      29.884
2015    4       26    23  27    3.9948   382.0    7.206      29.872
2015    4       26    23  34    3.9947   381.9    7.207      29.860
2015    4       26    23  40    3.9945   381.9    7.208      29.848
2015    4       26    23  46    3.9944   381.8    7.208      29.836
2015    4       26    23  52    3.9943   381.8    7.209      29.824
2015    4       26    23  58    3.9941   381.7    7.210      29.812
2015    4       27     0   4    3.9940   381.7    7.211      29.801
2015    4       27     0  10    3.9939   381.6    7.212      29.790
2015    4       27     0  17    3.9938   381.6    7.212      29.778
2015    4       27     0  23    3.9937   381.5    7.213      29.767
2015    4       27     0  29    3.9936   381.5    7.215      29.756
2015    4       27     0  35    3.9936   381.4    7.216      29.745
2015    4       27     0  41    3.9935   381.4    7.217      29.734
2015    4       27     0  47    3.9935   381.4    7.218      29.723
2015    4       27     0  53    3.9934   381.3    7.219      29.712
2015    4       27     0  59    3.9934   381.3    7.221      29.702
2015    4       27     1   6    3.9933   381.2    7.222      29.692
2015    4       27     1  12    3.9933   381.2    7.223      29.681
2015    4       27     1  18    3.9933   381.1    7.225      29.671
2015    4       27     1  24    3.9933   381.1    7.226      29.661
2015    4       27     1  30    3.9933   381.0    7.228      29.651
2015    4       27     1  36    3.9933   381.0    7.229      29.642
2015    4       27     1  42    3.9933   380.9    7.231      29.632
2015    4       27     1  49    3.9933   380.9    7.232      29.622
2015    4       27     1  55    3.9933   380.8    7.234      29.613
2015    4       27     2   1    3.9934   380.8    7.236      29.604
2015    4       27     2   7    3.9934   380.7    7.237      29.594
2015    4       27     2  13    3.9934   380.7    7.239      29.585
2015    4       27     2  19    3.9935   380.6    7.241      29.576
2015    4       27     2  25    3.9936   380.6    7.242      29.567
2015    4       27     2  32    3.9936   380.5    7.244      29.558
2015    4       27     2  38    3.9937   380.5    7.246      29.549
2015    4       27     2  44    3.9938   380.4    7.248      29.540
2015    4       27     2  50    3.9939   380.4    7.249      29.531
2015    4       27     2  56    3.9939   380.3    7.251      29.522
2015    4       27     3   2    3.9940   380.3    7.253      29.513
2015    4       27     3   8    3.9941   380.2    7.255      29.504
2015    4       27     3  14    3.9942   380.2    7.257      29.495
2015    4       27     3  21    3.9943   380.2    7.258      29.486
2015    4       27     3  27    3.9944   380.1    7.260      29.477
2015    4       27     3  33    3.9945   380.1    7.262      29.468
2015    4       27     3  39    3.9946   380.0    7.264      29.459
2015    4       27     3  45    3.9947   380.0    7.266      29.450
2015    4       27     3  51    3.9948   379.9    7.267      29.441
2015    4       27     3  57    3.9949   379.9    7.269      29.432
2015    4       27     4   4    3.9950   379.8    7.271      29.423
2015    4       27     4  10    3.9951   379.8    7.273      29.413
2015    4       27     4  16    3.9952   379.7    7.275      29.404
2015    4       27     4  22    3.9954   379.7    7.276      29.395
2015    4       27     4  28    3.9955   379.6    7.278      29.385
2015    4       27     4  34    3.9956   379.6    7.280      29.376
2015    4       27     4  40    3.9958   379.5    7.281      29.366
2015    4       27     4  47    3.9959   379.4    7.283      29.357
2015    4       27     4  53    3.9961   379.4    7.285      29.347
2015    4       27     4  59    3.9962   379.3    7.286      29.337
2015    4       27     5   5    3.9964   379.3    7.288      29.327
2015    4       27     5  11    3.9966   379.2    7.290      29.317
2015    4       27     5  17    3.9968   379.2    7.291      29.307
2015    4       27     5  23    3.9970   379.1    7.293      29.297
2015    4       27     5  30    3.9971   379.1    7.294      29.287
2015    4       27     5  36    3.9974   379.0    7.296      29.277
2015    4       27     5  42    3.9976   379.0    7.298      29.267
2015    4       27     5  48    3.9978   378.9    7.299      29.256
2015    4       27     5  54    3.9981   378.9    7.301      29.246
2015    4       27     6   0    3.9983   378.8    7.302      29.235
2015    4       27     6   6    3.9986   378.8    7.304      29.225
2015    4       27     6  12    3.9989   378.7    7.305      29.214
2015    4       27     6  19    3.9991   378.6    7.307      29.204
2015    4       27     6  25    3.9994   378.6    7.309      29.193
2015    4       27     6  31    3.9998   378.5    7.310      29.182
2015    4       27     6  37    4.0001   378.5    7.312      29.172
2015    4       27     6  43    4.0004   378.4    7.314      29.161
2015    4       27     6  49    4.0008   378.4    7.315      29.150
2015    4       27     6  55    4.0011   378.3    7.317      29.140
2015    4       27     7   2    4.0015   378.3    7.319      29.129
2015    4       27     7   8    4.0019   378.2    7.321      29.118
2015    4       27     7  14    4.0024   378.1    7.323      29.108
2015    4       27     7  20    4.0028   378.1    7.325      29.097
2015    4       27     7  26    4.0033   378.0    7.326      29.087
2015    4       27     7  32    4.0037   378.0    7.329      29.076
2015    4       27     7  38    4.0042   377.9    7.331      29.066
2015    4       27     7  45    4.0047   377.9    7.333      29.055
2015    4       27     7  51    4.0052   377.8    7.335      29.045
2015    4       27     7  57    4.0058   377.7    7.337      29.035
2015    4       27     8   3    4.0064   377.7    7.340      29.025
2015    4       27     8   9    4.0069   377.6    7.342      29.015
2015    4       27     8  15    4.0076   377.6    7.345      29.005
2015    4       27     8  21    4.0082   377.5    7.347      28.996
2015    4       27     8  27    4.0089   377.5    7.350      28.986
2015    4       27     8  34    4.0095   377.4    7.353      28.977
2015    4       27     8  40    4.0102   377.4    7.356      28.968
2015    4       27     8  46    4.0110   377.3    7.359      28.958
2015    4       27     8  52    4.0117   377.2    7.362      28.949
2015    4       27     8  58    4.0125   377.2    7.365      28.941
2015    4       27     9   4    4.0133   377.1    7.369      28.932
2015    4       27     9  10    4.0141   377.1    7.372      28.923
2015    4       27     9  17    4.0150   377.0    7.376      28.915
2015    4       27     9  23    4.0159   377.0    7.379      28.907
2015    4       27     9  29    4.0168   376.9    7.383      28.899
2015    4       27     9  35    4.0177   376.9    7.387      28.891
2015    4       27     9  41    4.0187   376.8    7.391      28.883
2015    4       27     9  47    4.0196   376.7    7.395      28.875
2015    4       27     9  53    4.0206   376.7    7.399      28.868
2015    4       27    10   0    4.0217   376.6    7.404      28.861
2015    4       27    10   6    4.0228   376.6    7.408      28.854
2015    4       27    10  12    4.0239   376.5    7.413      28.847
2015    4       27    10  18    4.0250   376.5    7.417      28.840
2015    4       27    10  24    4.0262   376.4    7.422      28.834
2015    4       27    10  30    4.0274   376.4    7.427      28.827
2015    4       27    10  36    4.0286   376.3    7.432      28.821
2015    4       27    10  42    4.0298   376.3    7.437      28.815
2015    4       27    10  49    4.0311   376.2    7.443      28.809
2015    4       27    10  55    4.0325   376.2    7.448      28.803
2015    4       27    11   1    4.0338   376.1    7.454      28.798
2015    4       27    11   7    4.0352   376.0    7.459      28.792
2015    4       27    11  13    4.0367   376.0    7.465      28.787
2015    4       27    11  19    4.0382   375.9    7.471      28.782
2015    4       27    11  25    4.0397   375.9    7.477      28.777
2015    4       27    11  32    4.0412   375.8    7.483      28.773
2015    4       27    11  38    4.0428   375.8    7.490      28.768
2015    4       27    11  44    4.0444   375.7    7.496      28.764
2015    4       27    11  50    4.0461   375.7    7.503      28.760
2015    4       27    11  56    4.0478   375.6    7.509      28.756
2015    4       27    12   2    4.0496   375.6    7.516      28.752
2015    4       27    12   8    4.0514   375.5    7.523      28.748
2015    4       27    12  15    4.0532   375.5    7.530      28.744
2015    4       27    12  21    4.0550   375.4    7.537      28.741
2015    4       27    12  27    4.0569   375.4    7.544      28.738
2015    4       27    12  33    4.0589   375.4    7.551      28.735
2015    4       27    12  39    4.0609   375.3    7.558      28.732
2015    4       27    12  45    4.0629   375.3    7.565      28.729
2015    4       27    12  51    4.0650   375.2    7.572      28.727
2015    4       27    12  57    4.0671   375.2    7.579      28.726
2015    4       27    13   4    4.0692   375.1    7.587      28.724
2015    4       27    13  10    4.0714   375.1    7.594      28.724
2015    4       27    13  16    4.0736   375.0    7.601      28.723
2015    4       27    13  22    4.0758   375.0    7.608      28.723
2015    4       27    13  28    4.0781   375.0    7.615      28.722
2015    4       27    13  34    4.0804   374.9    7.622      28.722
2015    4       27    13  40    4.0827   374.9    7.629      28.722
2015    4       27    13  47    4.0851   374.8    7.635      28.722
2015    4       27    13  53    4.0875   374.8    7.642      28.722
2015    4       27    13  59    4.0899   374.8    7.649      28.722
2015    4       27    14   5    4.0924   374.7    7.655      28.722
2015    4       27    14  11    4.0949   374.7    7.662      28.722
2015    4       27    14  17    4.0974   374.7    7.669      28.722
2015    4       27    14  23    4.0999   374.6    7.675      28.722
2015    4       27    14  30    4.1025   374.6    7.682      28.722
2015    4       27    14  36    4.1051   374.5    7.688      28.722
2015    4       27    14  42    4.1078   374.5    7.695      28.721
2015    4       27    14  48    4.1104   374.5    7.701      28.721
2015    4       27    14  54    4.1131   374.4    7.708      28.721
2015    4       27    15   0    4.1159   374.4    7.714      28.720
2015    4       27    15   6    4.1186   374.4    7.721      28.720
2015    4       27    15  13    4.1215   374.3    7.727      28.720
2015    4       27    15  19    4.1243   374.3    7.734      28.719
2015    4       27    15  25    4.1272   374.3    7.740      28.719
2015    4       27    15  31    4.1301   374.2    7.747      28.718
2015    4       27    15  37    4.1330   374.2    7.753      28.718
2015    4       27    15  43    4.1360   374.2    7.760      28.717
2015    4       27    15  49    4.1390   374.1    7.766      28.717
2015    4       27    15  55    4.1421   374.1    7.773      28.717
2015    4       27    16   2    4.1451   374.1    7.780      28.716
2015    4       27    16   8    4.1483   374.0    7.786      28.716
2015    4       27    16  14    4.1514   374.0    7.793      28.716
2015    4       27    16  20    4.1547   374.0    7.800      28.716
2015    4       27    16  26    4.1579   373.9    7.807      28.716
2015    4       27    16  32    4.1612   373.9    7.814      28.717
2015    4       27    16  38    4.1645   373.9    7.821      28.717
2015    4       27    16  45    4.1679   373.8    7.828      28.718
2015    4       27    16  51    4.1713   373.8    7.835      28.719
2015    4       27    16  57    4.1748   373.8    7.842      28.720
2015    4       27    17   3    4.1783   373.8    7.849      28.721
2015    4       27    17   9    4.1818   373.7    7.857      28.722
2015    4       27    17  15    4.1854   373.7    7.865      28.723
2015    4       27    17  21    4.1890   373.7    7.872      28.725
2015    4       27    17  28    4.1927   373.6    7.880      28.727
2015    4       27    17  34    4.1964   373.6    7.888      28.729
2015    4       27    17  40    4.2002   373.6    7.896      28.732
2015    4       27    17  46    4.2040   373.6    7.904      28.734
2015    4       27    17  52    4.2078   373.6    7.913      28.737
2015    4       27    17  58    4.2117   373.5    7.921      28.740
2015    4       27    18   4    4.2156   373.5    7.930      28.744
2015    4       27    18  10    4.2195   373.5    7.939      28.747
2015    4       27    18  17    4.2235   373.5    7.948      28.751
2015    4       27    18  23    4.2275   373.4    7.957      28.756
2015    4       27    18  29    4.2316   373.4    7.966      28.760
2015    4       27    18  35    4.2356   373.4    7.975      28.765
2015    4       27    18  41    4.2397   373.4    7.985      28.770
2015    4       27    18  47    4.2437   373.4    7.995      28.776
2015    4       27    18  53    4.2478   373.4    8.005      28.781
2015    4       27    19   0    4.2520   373.4    8.015      28.787
2015    4       27    19   6    4.2561   373.3    8.025      28.793
2015    4       27    19  12    4.2603   373.3    8.036      28.800
2015    4       27    19  18    4.2645   373.3    8.047      28.806
2015    4       27    19  24    4.2687   373.3    8.058      28.813
2015    4       27    19  30    4.2729   373.3    8.069      28.820
2015    4       27    19  36    4.2771   373.3    8.080      28.828
2015    4       27    19  43    4.2813   373.3    8.091      28.835
2015    4       27    19  49    4.2855   373.3    8.103      28.844
2015    4       27    19  55    4.2897   373.3    8.115      28.852
2015    4       27    20   1    4.2939   373.3    8.126      28.861
2015    4       27    20   7    4.2981   373.3    8.138      28.871
2015    4       27    20  13    4.3022   373.3    8.150      28.882
2015    4       27    20  19    4.3064   373.3    8.162      28.894
2015    4       27    20  25    4.3105   373.3    8.173      28.906
2015    4       27    20  32    4.3146   373.3    8.185      28.919
2015    4       27    20  38    4.3187   373.3    8.197      28.932
2015    4       27    20  44    4.3228   373.3    8.208      28.946
2015    4       27    20  50    4.3269   373.3    8.220      28.961
2015    4       27    20  56    4.3309   373.3    8.231      28.976
2015    4       27    21   2    4.3349   373.3    8.242      28.992
2015    4       27    21   8    4.3388   373.3    8.253      29.008
2015    4       27    21  15    4.3428   373.3    8.264      29.024
2015    4       27    21  21    4.3467   373.3    8.275      29.040
2015    4       27    21  27    4.3506   373.3    8.285      29.056
2015    4       27    21  33    4.3545   373.3    8.296      29.072
2015    4       27    21  39    4.3583   373.3    8.306      29.089
2015    4       27    21  45    4.3621   373.3    8.316      29.105
2015    4       27    21  51    4.3659   373.3    8.326      29.121
2015    4       27    21  58    4.3697   373.3    8.335      29.137
2015    4       27    22   4    4.3735   373.4    8.345      29.153
2015    4       27    22  10    4.3772   373.4    8.354      29.169
2015    4       27    22  16    4.3810   373.4    8.364      29.185
2015    4       27    22  22    4.3847   373.4    8.373      29.200
2015    4       27    22  28    4.3884   373.4    8.382      29.215
2015    4       27    22  34    4.3921   373.4    8.390      29.231
2015    4       27    22  41    4.3957   373.4    8.399      29.246
2015    4       27    22  47    4.3994   373.4    8.408      29.261
2015    4       27    22  53    4.4031   373.5    8.416      29.276
2015    4       27    22  59    4.4067   373.5    8.425      29.290
2015    4       27    23   5    4.4104   373.5    8.433      29.305
2015    4       27    23  11    4.4140   373.5    8.442      29.319
2015    4       27    23  17    4.4176   373.5    8.450      29.334
2015    4       27    23  23    4.4212   373.5    8.458      29.348
2015    4       27    23  30    4.4248   373.5    8.466      29.362
2015    4       27    23  36    4.4284   373.6    8.474      29.376
2015    4       27    23  42    4.4320   373.6    8.482      29.390
2015    4       27    23  48    4.4356   373.6    8.490      29.404
2015    4       27    23  54    4.4392   373.6    8.498      29.418
2015    4       28     0   0    4.4428   373.6    8.506      29.432
2015    4       28     0   6    4.4464   373.6    8.514      29.446
2015    4       28     0  13    4.4500   373.7    8.522      29.460
2015    4       28     0  19    4.4536   373.7    8.530      29.474
2015    4       28     0  25    4.4572   373.7    8.538      29.487
2015    4       28     0  31    4.4608   373.7    8.546      29.501
2015    4       28     0  37    4.4644   373.7    8.554      29.515
2015    4       28     0  43    4.4680   373.8    8.561      29.529
2015    4       28     0  49    4.4716   373.8    8.569      29.543
2015    4       28     0  56    4.4752   373.8    8.577      29.557
2015    4       28     1   2    4.4789   373.8    8.586      29.571
2015    4       28     1   8    4.4825   373.9    8.594      29.585
2015    4       28     1  14    4.4861   373.9    8.602      29.599
2015    4       28     1  20    4.4898   373.9    8.610      29.614
2015    4       28     1  26    4.4934   373.9    8.618      29.628
2015    4       28     1  32    4.4970   374.0    8.627      29.643
2015    4       28     1  38    4.5007   374.0    8.635      29.657
2015    4       28     1  45    4.5044   374.0    8.644      29.672
2015    4       28     1  51    4.5081   374.0    8.653      29.688
2015    4       28     1  57    4.5117   374.1    8.661      29.703
2015    4       28     2   3    4.5154   374.1    8.670      29.719
2015    4       28     2   9    4.5191   374.1    8.679      29.734
2015    4       28     2  15    4.5229   374.1    8.689      29.750
2015    4       28     2  21    4.5266   374.2    8.698      29.767
2015    4       28     2  28    4.5304   374.2    8.708      29.784
2015    4       28     2  34    4.5341   374.2    8.717      29.800
2015    4       28     2  40    4.5379   374.3    8.727      29.818
2015    4       28     2  46    4.5417   374.3    8.737      29.835
2015    4       28     2  52    4.5456   374.3    8.748      29.853
2015    4       28     2  58    4.5494   374.4    8.758      29.872
2015    4       28     3   4    4.5533   374.4    8.769      29.890
2015    4       28     3  11    4.5573   374.4    8.781      29.909
2015    4       28     3  17    4.5612   374.4    8.792      29.928
2015    4       28     3  23    4.5652   374.5    8.804      29.948
2015    4       28     3  29    4.5692   374.5    8.816      29.969
2015    4       28     3  35    4.5732   374.6    8.828      29.991
2015    4       28     3  41    4.5772   374.6    8.840      30.014
2015    4       28     3  47    4.5812   374.6    8.852      30.040
2015    4       28     3  53    4.5852   374.7    8.864      30.067
2015    4       28     4   0    4.5892   374.7    8.876      30.095
2015    4       28     4   6    4.5932   374.8    8.888      30.125
2015    4       28     4  12    4.5972   374.8    8.900      30.156
2015    4       28     4  18    4.6011   374.9    8.912      30.188
2015    4       28     4  24    4.6050   374.9    8.924      30.221
2015    4       28     4  30    4.6089   375.0    8.935      30.256
2015    4       28     4  36    4.6128   375.1    8.946      30.291
2015    4       28     4  43    4.6166   375.1    8.957      30.327
2015    4       28     4  49    4.6204   375.2    8.968      30.364
2015    4       28     4  55    4.6242   375.2    8.978      30.401
2015    4       28     5   1    4.6279   375.3    8.988      30.439
2015    4       28     5   7    4.6316   375.3    8.997      30.476
2015    4       28     5  13    4.6353   375.4    9.006      30.514
2015    4       28     5  19    4.6390   375.5    9.015      30.552
2015    4       28     5  26    4.6426   375.5    9.024      30.589
2015    4       28     5  32    4.6462   375.6    9.032      30.625
2015    4       28     5  38    4.6497   375.6    9.040      30.662
2015    4       28     5  44    4.6533   375.7    9.048      30.697
2015    4       28     5  50    4.6568   375.8    9.055      30.733
2015    4       28     5  56    4.6603   375.8    9.063      30.768
2015    4       28     6   2    4.6639   375.9    9.070      30.802
2015    4       28     6   8    4.6673   375.9    9.076      30.836
2015    4       28     6  15    4.6708   376.0    9.083      30.870
2015    4       28     6  21    4.6743   376.1    9.089      30.903
2015    4       28     6  27    4.6778   376.1    9.095      30.936
2015    4       28     6  33    4.6813   376.2    9.101      30.968
2015    4       28     6  39    4.6847   376.3    9.107      31.000
2015    4       28     6  45    4.6882   376.3    9.112      31.031
2015    4       28     6  51    4.6916   376.4    9.118      31.062
2015    4       28     6  58    4.6951   376.4    9.123      31.093
2015    4       28     7   4    4.6985   376.5    9.128      31.123
2015    4       28     7  10    4.7020   376.6    9.133      31.154
2015    4       28     7  16    4.7054   376.6    9.138      31.183
2015    4       28     7  22    4.7088   376.7    9.142      31.213
2015    4       28     7  28    4.7123   376.8    9.147      31.242
2015    4       28     7  34    4.7157   376.8    9.151      31.271
2015    4       28     7  41    4.7192   376.9    9.156      31.299
2015    4       28     7  47    4.7227   377.0    9.160      31.328
2015    4       28     7  53    4.7261   377.0    9.164      31.356
2015    4       28     7  59    4.7296   377.1    9.168      31.383
2015    4       28     8   5    4.7331   377.2    9.172      31.411
2015    4       28     8  11    4.7366   377.2    9.176      31.438
2015    4       28     8  17    4.7401   377.3    9.180      31.465
2015    4       28     8  23    4.7436   377.4    9.184      31.492
2015    4       28     8  30    4.7472   377.4    9.188      31.519
2015    4       28     8  36    4.7508   377.5    9.192      31.546
2015    4       28     8  42    4.7544   377.5    9.196      31.572
2015    4       28     8  48    4.7580   377.6    9.200      31.598
2015    4       28     8  54    4.7617   377.7    9.204      31.625
2015    4       28     9   0    4.7654   377.7    9.208      31.651
2015    4       28     9   6    4.7691   377.8    9.212      31.678
2015    4       28     9  13    4.7728   377.9    9.216      31.705
2015    4       28     9  19    4.7766   378.0    9.220      31.732
2015    4       28     9  25    4.7803   378.0    9.224      31.760
2015    4       28     9  31    4.7841   378.1    9.228      31.788
2015    4       28     9  37    4.7879   378.2    9.232      31.817
2015    4       28     9  43    4.7917   378.3    9.236      31.845
2015    4       28     9  49    4.7955   378.3    9.239      31.874
2015    4       28     9  56    4.7993   378.4    9.243      31.902
2015    4       28    10   2    4.8031   378.5    9.246      31.930
2015    4       28    10   8    4.8068   378.6    9.250      31.958
2015    4       28    10  14    4.8106   378.6    9.253      31.986
2015    4       28    10  20    4.8144   378.7    9.257      32.014
2015    4       28    10  26    4.8182   378.8    9.260      32.042
2015    4       28    10  32    4.8220   378.9    9.263      32.070
2015    4       28    10  39    4.8258   379.0    9.266      32.098
2015    4       28    10  45    4.8296   379.0    9.269      32.125
2015    4       28    10  51    4.8334   379.1    9.272      32.153
2015    4       28    10  57    4.8372   379.2    9.275      32.181
2015    4       28    11   3    4.8410   379.3    9.278      32.209
2015    4       28    11   9    4.8449   379.4    9.282      32.236
2015    4       28    11  15    4.8487   379.4    9.285      32.264
2015    4       28    11  21    4.8525   379.5    9.288      32.291
2015    4       28    11  28    4.8564   379.6    9.292      32.319
2015    4       28    11  34    4.8602   379.7    9.295      32.347
2015    4       28    11  40    4.8641   379.8    9.298      32.376
2015    4       28    11  46    4.8680   379.8    9.302      32.405
2015    4       28    11  52    4.8718   379.9    9.305      32.434
2015    4       28    11  58    4.8757   380.0    9.309      32.464
2015    4       28    12   4    4.8795   380.1    9.313      32.495
2015    4       28    12  11    4.8834   380.2    9.316      32.526
2015    4       28    12  17    4.8872   380.3    9.319      32.558
2015    4       28    12  23    4.8910   380.4    9.323      32.590
2015    4       28    12  29    4.8948   380.5    9.326      32.622
2015    4       28    12  35    4.8986   380.6    9.329      32.655
2015    4       28    12  41    4.9023   380.7    9.332      32.688
2015    4       28    12  47    4.9060   380.8    9.335      32.721
2015    4       28    12  54    4.9097   380.9    9.338      32.754
2015    4       28    13   0    4.9134   381.0    9.340      32.787
2015    4       28    13   6    4.9170   381.0    9.343      32.820
2015    4       28    13  12    4.9206   381.1    9.345      32.852
2015    4       28    13  18    4.9242   381.2    9.347      32.885
2015    4       28    13  24    4.9277   381.3    9.349      32.917
2015    4       28    13  30    4.9313   381.4    9.351      32.950
2015    4       28    13  36    4.9348   381.5    9.353      32.981
2015    4       28    13  43    4.9384   381.6    9.354      33.014
2015    4       28    13  49    4.9419   381.7    9.356      33.046
2015    4       28    13  55    4.9454   381.8    9.358      33.078
2015    4       28    14   1    4.9489   381.9    9.359      33.110
2015    4       28    14   7    4.9524   382.0    9.360      33.142
2015    4       28    14  13    4.9559   382.1    9.362      33.174
2015    4       28    14  19    4.9593   382.2    9.363      33.206
2015    4       28    14  26    4.9628   382.3    9.364      33.237
2015    4       28    14  32    4.9662   382.4    9.365      33.269
2015    4       28    14  38    4.9696   382.5    9.366      33.301
2015    4       28    14  44    4.9730   382.6    9.367      33.332
2015    4       28    14  50    4.9763   382.7    9.368      33.363
2015    4       28    14  56    4.9797   382.8    9.368      33.394
2015    4       28    15   2    4.9830   382.9    9.369      33.424
2015    4       28    15   9    4.9863   383.0    9.369      33.455
2015    4       28    15  15    4.9897   383.1    9.370      33.484
2015    4       28    15  21    4.9930   383.2    9.370      33.514
2015    4       28    15  27    4.9962   383.4    9.370      33.544
2015    4       28    15  33    4.9995   383.5    9.371      33.573
2015    4       28    15  39    5.0027   383.6    9.371      33.602
2015    4       28    15  45    5.0060   383.7    9.371      33.631
2015    4       28    15  51    5.0093   383.8    9.371      33.659
2015    4       28    15  58    5.0125   383.9    9.372      33.688
2015    4       28    16   4    5.0158   384.0    9.372      33.716
2015    4       28    16  10    5.0191   384.1    9.372      33.744
2015    4       28    16  16    5.0223   384.2    9.373      33.772
2015    4       28    16  22    5.0256   384.3    9.373      33.800
2015    4       28    16  28    5.0289   384.4    9.374      33.829
2015    4       28    16  34    5.0321   384.5    9.374      33.858
2015    4       28    16  41    5.0354   384.6    9.375      33.886
2015    4       28    16  47    5.0387   384.7    9.376      33.916
2015    4       28    16  53    5.0419   384.8    9.376      33.946
2015    4       28    16  59    5.0452   384.9    9.377      33.976
2015    4       28    17   5    5.0485   385.0    9.378      34.005
2015    4       28    17  11    5.0518   385.1    9.379      34.035
2015    4       28    17  17    5.0551   385.3    9.379      34.066
2015    4       28    17  24    5.0583   385.4    9.380      34.096
2015    4       28    17  30    5.0616   385.5    9.381      34.127
2015    4       28    17  36    5.0649   385.6    9.382      34.158
2015    4       28    17  42    5.0682   385.7    9.382      34.189
2015    4       28    17  48    5.0714   385.8    9.383      34.220
2015    4       28    17  54    5.0747   386.0    9.384      34.252
2015    4       28    18   0    5.0779   386.1    9.384      34.283
2015    4       28    18   6    5.0811   386.2    9.384      34.315
2015    4       28    18  13    5.0843   386.3    9.385      34.346
2015    4       28    18  19    5.0875   386.4    9.385      34.378
2015    4       28    18  25    5.0907   386.6    9.385      34.410
2015    4       28    18  31    5.0939   386.7    9.385      34.442
2015    4       28    18  37    5.0970   386.8    9.385      34.474
2015    4       28    18  43    5.1001   387.0    9.384      34.506
2015    4       28    18  49    5.1032   387.1    9.383      34.538
2015    4       28    18  56    5.1062   387.2    9.383      34.571
2015    4       28    19   2    5.1092   387.4    9.382      34.602
2015    4       28    19   8    5.1121   387.5    9.380      34.634
2015    4       28    19  14    5.1151   387.6    9.379      34.665
2015    4       28    19  20    5.1179   387.8    9.377      34.696
2015    4       28    19  26    5.1208   387.9    9.375      34.726
2015    4       28    19  32    5.1236   388.0    9.374      34.756
2015    4       28    19  39    5.1263   388.2    9.371      34.786
2015    4       28    19  45    5.1290   388.3    9.369      34.816
2015    4       28    19  51    5.1317   388.4    9.367      34.845
2015    4       28    19  57    5.1344   388.6    9.364      34.874
2015    4       28    20   3    5.1370   388.7    9.362      34.903
2015    4       28    20   9    5.1396   388.8    9.359      34.932
2015    4       28    20  15    5.1422   389.0    9.356      34.960
2015    4       28    20  22    5.1447   389.1    9.353      34.988
2015    4       28    20  28    5.1472   389.3    9.350      35.016
2015    4       28    20  34    5.1498   389.4    9.347      35.044
2015    4       28    20  40    5.1522   389.5    9.344      35.072
2015    4       28    20  46    5.1547   389.7    9.341      35.099
2015    4       28    20  52    5.1572   389.8    9.337      35.126
2015    4       28    20  58    5.1596   389.9    9.334      35.154
2015    4       28    21   4    5.1620   390.1    9.331      35.181
2015    4       28    21  11    5.1645   390.2    9.328      35.208
2015    4       28    21  17    5.1669   390.4    9.324      35.235
2015    4       28    21  23    5.1693   390.5    9.321      35.261
2015    4       28    21  29    5.1717   390.6    9.318      35.288
2015    4       28    21  35    5.1741   390.8    9.314      35.315
2015    4       28    21  41    5.1764   390.9    9.311      35.342
2015    4       28    21  47    5.1788   391.0    9.307      35.369
2015    4       28    21  54    5.1812   391.2    9.304      35.395
2015    4       28    22   0    5.1836   391.3    9.301      35.422
2015    4       28    22   6    5.1860   391.5    9.298      35.449
2015    4       28    22  12    5.1883   391.6    9.294      35.476
2015    4       28    22  18    5.1907   391.7    9.291      35.503
2015    4       28    22  24    5.1932   391.9    9.288      35.531
2015    4       28    22  30    5.1956   392.0    9.285      35.558
2015    4       28    22  37    5.1980   392.1    9.283      35.586
2015    4       28    22  43    5.2005   392.3    9.280      35.614
2015    4       28    22  49    5.2030   392.4    9.278      35.643
2015    4       28    22  55    5.2055   392.5    9.275      35.671
2015    4       28    23   1    5.2081   392.7    9.273      35.701
2015    4       28    23   7    5.2107   392.8    9.271      35.731
2015    4       28    23  13    5.2133   393.0    9.269      35.762
2015    4       28    23  19    5.2160   393.1    9.267      35.794
2015    4       28    23  26    5.2186   393.2    9.266      35.827
2015    4       28    23  32    5.2213   393.4    9.264      35.861
2015    4       28    23  38    5.2240   393.5    9.262      35.896
2015    4       28    23  44    5.2267   393.7    9.261      35.931
2015    4       28    23  50    5.2294   393.8    9.259      35.967
2015    4       28    23  56    5.2322   394.0    9.258      36.003
2015    4       29     0   2    5.2349   394.1    9.256      36.039
2015    4       29     0   9    5.2377   394.3    9.255      36.075
2015    4       29     0  15    5.2404   394.4    9.253      36.112
2015    4       29     0  21    5.2431   394.6    9.252      36.148
2015    4       29     0  27    5.2459   394.7    9.250      36.185
2015    4       29     0  33    5.2486   394.9    9.249      36.221
2015    4       29     0  39    5.2513   395.0    9.248      36.258
2015    4       29     0  45    5.2541   395.2    9.246      36.295
2015    4       29     0  52    5.2568   395.3    9.245      36.332
2015    4       29     0  58    5.2595   395.5    9.243      36.369
2015    4       29     1   4    5.2622   395.6    9.242      36.406
2015    4       29     1  10    5.2649   395.8    9.240      36.444
2015    4       29     1  16    5.2676   395.9    9.239      36.482
2015    4       29     1  22    5.2703   396.1    9.237      36.520
2015    4       29     1  28    5.2730   396.2    9.235      36.558
2015    4       29     1  34    5.2756   396.4    9.233      36.596
2015    4       29     1  41    5.2783   396.6    9.231      36.634
2015    4       29     1  47    5.2809   396.7    9.228      36.672
2015    4       29     1  53    5.2835   396.9    9.226      36.709
2015    4       29     1  59    5.2861   397.0    9.223      36.746
2015    4       29     2   5    5.2886   397.2    9.220      36.783
2015    4       29     2  11    5.2911   397.4    9.217      36.820
2015    4       29     2  17    5.2936   397.5    9.214      36.856
2015    4       29     2  24    5.2961   397.7    9.211      36.892
2015    4       29     2  30    5.2985   397.8    9.207      36.928
2015    4       29     2  36    5.3009   398.0    9.204      36.963
2015    4       29     2  42    5.3033   398.2    9.200      36.998
2015    4       29     2  48    5.3057   398.3    9.196      37.033
2015    4       29     2  54    5.3081   398.5    9.192      37.067
2015    4       29     3   0    5.3105   398.7    9.188      37.101
2015    4       29     3   7    5.3129   398.9    9.184      37.134
2015    4       29     3  13    5.3152   399.0    9.179      37.167
2015    4       29     3  19    5.3175   399.2    9.175      37.200
2015    4       29     3  25    5.3198   399.4    9.170      37.232
2015    4       29     3  31    5.3221   399.5    9.165      37.264
2015    4       29     3  37    5.3244   399.7    9.161      37.296
2015    4       29     3  43    5.3267   399.9    9.156      37.327
2015    4       29     3  50    5.3289   400.0    9.151      37.358
2015    4       29     3  56    5.3312   400.2    9.146      37.389
2015    4       29     4   2    5.3335   400.4    9.141      37.419
2015    4       29     4   8    5.3357   400.5    9.135      37.449
2015    4       29     4  14    5.3379   400.7    9.130      37.479
2015    4       29     4  20    5.3402   400.9    9.125      37.508
2015    4       29     4  26    5.3424   401.1    9.120      37.538
2015    4       29     4  32    5.3447   401.2    9.115      37.567
2015    4       29     4  39    5.3469   401.4    9.110      37.596
2015    4       29     4  45    5.3492   401.6    9.104      37.625
2015    4       29     4  51    5.3515   401.7    9.099      37.654
2015    4       29     4  57    5.3538   401.9    9.094      37.682
2015    4       29     5   3    5.3561   402.1    9.089      37.711
2015    4       29     5   9    5.3584   402.2    9.085      37.739
2015    4       29     5  15    5.3608   402.4    9.080      37.769
2015    4       29     5  22    5.3631   402.6    9.075      37.798
2015    4       29     5  28    5.3654   402.8    9.070      37.829
2015    4       29     5  34    5.3677   402.9    9.065      37.860
2015    4       29     5  40    5.3700   403.1    9.060      37.892
2015    4       29     5  46    5.3723   403.3    9.055      37.924
2015    4       29     5  52    5.3745   403.5    9.050      37.956
2015    4       29     5  58    5.3767   403.7    9.044      37.989
2015    4       29     6   5    5.3788   403.9    9.039      38.021
2015    4       29     6  11    5.3809   404.0    9.033      38.053
2015    4       29     6  17    5.3830   404.2    9.028      38.085
2015    4       29     6  23    5.3850   404.4    9.022      38.117
2015    4       29     6  29    5.3870   404.6    9.016      38.148
2015    4       29     6  35    5.3889   404.8    9.010      38.179
2015    4       29     6  41    5.3908   405.0    9.004      38.210
2015    4       29     6  47    5.3927   405.1    8.998      38.241
2015    4       29     6  54    5.3945   405.3    8.991      38.272
2015    4       29     7   0    5.3964   405.5    8.985      38.303
2015    4       29     7   6    5.3981   405.7    8.979      38.334
2015    4       29     7  12    5.3999   405.9    8.972      38.366
2015    4       29     7  18    5.4016   406.1    8.965      38.397
2015    4       29     7  24    5.4033   406.3    8.958      38.428
2015    4       29     7  30    5.4050   406.4    8.952      38.459
2015    4       29     7  37    5.4066   406.6    8.944      38.490
2015    4       29     7  43    5.4081   406.8    8.937      38.520
2015    4       29     7  49    5.4097   407.0    8.930      38.550
2015    4       29     7  55    5.4111   407.2    8.923      38.580
2015    4       29     8   1    5.4126   407.4    8.915      38.609
2015    4       29     8   7    5.4140   407.6    8.908      38.638
2015    4       29     8  13    5.4154   407.8    8.900      38.667
2015    4       29     8  20    5.4167   408.0    8.892      38.696
2015    4       29     8  26    5.4180   408.1    8.885      38.724
2015    4       29     8  32    5.4193   408.3    8.877      38.753
2015    4       29     8  38    5.4206   408.5    8.869      38.781
2015    4       29     8  44    5.4218   408.7    8.861      38.808
2015    4       29     8  50    5.4230   408.9    8.853      38.836
2015    4       29     8  56    5.4241   409.1    8.845      38.863
2015    4       29     9   2    5.4253   409.3    8.837      38.890
2015    4       29     9   9    5.4263   409.5    8.829      38.917
2015    4       29     9  15    5.4274   409.7    8.820      38.943
2015    4       29     9  21    5.4284   409.8    8.812      38.970
2015    4       29     9  27    5.4294   410.0    8.804      38.996
2015    4       29     9  33    5.4304   410.2    8.795      39.022
2015    4       29     9  39    5.4313   410.4    8.787      39.047
2015    4       29     9  45    5.4322   410.6    8.778      39.073
2015    4       29     9  52    5.4331   410.8    8.769      39.098
2015    4       29     9  58    5.4339   411.0    8.761      39.123
2015    4       29    10   4    5.4347   411.2    8.752      39.147
2015    4       29    10  10    5.4354   411.4    8.743      39.172
2015    4       29    10  16    5.4361   411.6    8.734      39.196
2015    4       29    10  22    5.4368   411.8    8.725      39.219
2015    4       29    10  28    5.4374   412.0    8.716      39.243
2015    4       29    10  35    5.4380   412.1    8.707      39.266
2015    4       29    10  41    5.4386   412.3    8.698      39.289
2015    4       29    10  47    5.4391   412.5    8.688      39.312
2015    4       29    10  53    5.4395   412.7    8.679      39.334
2015    4       29    10  59    5.4400   412.9    8.670      39.356
2015    4       29    11   5    5.4404   413.1    8.660      39.378
2015    4       29    11  11    5.4408   413.3    8.651      39.400
2015    4       29    11  17    5.4411   413.5    8.641      39.421
2015    4       29    11  24    5.4414   413.7    8.632      39.442
2015    4       29    11  30    5.4416   413.9    8.622      39.463
2015    4       29    11  36    5.4418   414.1    8.612      39.483
2015    4       29    11  42    5.4420   414.3    8.603      39.503
2015    4       29    11  48    5.4422   414.4    8.593      39.523
2015    4       29    11  54    5.4423   414.6    8.583      39.543
2015    4       29    12   0    5.4424   414.8    8.573      39.563
2015    4       29    12   7    5.4424   415.0    8.564      39.582
2015    4       29    12  13    5.4424   415.2    8.554      39.601
2015    4       29    12  19    5.4424   415.4    8.544      39.620
2015    4       29    12  25    5.4424   415.6    8.534      39.638
2015    4       29    12  31    5.4423   415.8    8.524      39.656
2015    4       29    12  37    5.4421   416.0    8.514      39.674
2015    4       29    12  43    5.4420   416.1    8.504      39.692
2015    4       29    12  50    5.4418   416.3    8.494      39.710
2015    4       29    12  56    5.4416   416.5    8.484      39.727
2015    4       29    13   2    5.4413   416.7    8.475      39.745
2015    4       29    13   8    5.4410   416.9    8.465      39.762
2015    4       29    13  14    5.4407   417.1    8.455      39.779
2015    4       29    13  20    5.4404   417.3    8.445      39.796
2015    4       29    13  26    5.4400   417.5    8.435      39.812
2015    4       29    13  33    5.4396   417.6    8.425      39.829
2015    4       29    13  39    5.4391   417.8    8.415      39.845
2015    4       29    13  45    5.4387   418.0    8.406      39.861
2015    4       29    13  51    5.4382   418.2    8.396      39.877
2015    4       29    13  57    5.4377   418.4    8.386      39.893
2015    4       29    14   3    5.4371   418.6    8.376      39.909
2015    4       29    14   9    5.4365   418.7    8.367      39.925
2015    4       29    14  15    5.4359   418.9    8.357      39.941
2015    4       29    14  22    5.4353   419.1    8.348      39.956
2015    4       29    14  28    5.4347   419.3    8.338      39.971
2015    4       29    14  34    5.4340   419.5    8.329      39.987
2015    4       29    14  40    5.4333   419.7    8.319      40.002
2015    4       29    14  46    5.4326   419.8    8.310      40.017
2015    4       29    14  52    5.4319   420.0    8.300      40.032
2015    4       29    14  58    5.4311   420.2    8.291      40.047
2015    4       29    15   5    5.4304   420.4    8.282      40.062
2015    4       29    15  11    5.4296   420.6    8.272      40.077
2015    4       29    15  17    5.4288   420.8    8.263      40.091
2015    4       29    15  23    5.4279   420.9    8.254      40.106
2015    4       29    15  29    5.4271   421.1    8.245      40.120
2015    4       29    15  35    5.4262   421.3    8.236      40.135
2015    4       29    15  41    5.4253   421.5    8.226      40.149
2015    4       29    15  48    5.4244   421.7    8.217      40.163
2015    4       29    15  54    5.4234   421.8    8.208      40.177
2015    4       29    16   0    5.4225   422.0    8.199      40.191
2015    4       29    16   6    5.4215   422.2    8.190      40.204
2015    4       29    16  12    5.4204   422.4    8.181      40.218
2015    4       29    16  18    5.4194   422.5    8.171      40.231
2015    4       29    16  24    5.4183   422.7    8.162      40.245
2015    4       29    16  30    5.4172   422.9    8.153      40.258
2015    4       29    16  37    5.4161   423.1    8.144      40.271
2015    4       29    16  43    5.4150   423.2    8.134      40.284
2015    4       29    16  49    5.4138   423.4    8.125      40.297
2015    4       29    16  55    5.4127   423.6    8.116      40.310
2015    4       29    17   1    5.4115   423.8    8.107      40.322
2015    4       29    17   7    5.4102   423.9    8.097      40.335
2015    4       29    17  13    5.4090   424.1    8.088      40.347
2015    4       29    17  20    5.4078   424.3    8.079      40.360
2015    4       29    17  26    5.4065   424.5    8.069      40.372
2015    4       29    17  32    5.4052   424.6    8.060      40.384
2015    4       29    17  38    5.4039   424.8    8.051      40.396
2015    4       29    17  44    5.4026   425.0    8.042      40.408
2015    4       29    17  50    5.4013   425.1    8.032      40.420
2015    4       29    17  56    5.3999   425.3    8.023      40.432
2015    4       29    18   3    5.3985   425.5    8.014      40.444
2015    4       29    18   9    5.3971   425.6    8.005      40.455
2015    4       29    18  15    5.3957   425.8    7.995      40.467
2015    4       29    18  21    5.3943   426.0    7.986      40.478
2015    4       29    18  27    5.3928   426.1    7.977      40.490
2015    4       29    18  33    5.3914   426.3    7.968      40.501
2015    4       29    18  39    5.3899   426.5    7.959      40.512
2015    4       29    18  45    5.3884   426.6    7.949      40.523
2015    4       29    18  52    5.3868   426.8    7.940      40.534
2015    4       29    18  58    5.3853   427.0    7.931      40.545
2015    4       29    19   4    5.3838   427.1    7.922      40.556
2015    4       29    19  10    5.3822   427.3    7.913      40.567
2015    4       29    19  16    5.3806   427.5    7.904      40.577
2015    4       29    19  22    5.3790   427.6    7.895      40.588
2015    4       29    19  28    5.3774   427.8    7.886      40.598
2015    4       29    19  35    5.3758   428.0    7.877      40.609
2015    4       29    19  41    5.3741   428.1    7.868      40.619
2015    4       29    19  47    5.3724   428.3    7.859      40.629
2015    4       29    19  53    5.3707   428.5    7.850      40.639
2015    4       29    19  59    5.3690   428.6    7.841      40.649
2015    4       29    20   5    5.3673   428.8    7.832      40.658
2015    4       29    20  11    5.3655   428.9    7.823      40.668
2015    4       29    20  18    5.3638   429.1    7.814      40.677
2015    4       29    20  24    5.3620   429.3    7.805      40.686
2015    4       29    20  30    5.3602   429.4    7.797      40.694
2015    4       29    20  36    5.3584   429.6    7.788      40.703
2015    4       29    20  42    5.3566   429.7    7.779      40.712
2015    4       29    20  48    5.3548   429.9    7.771      40.720
2015    4       29    20  54    5.3530   430.0    7.762      40.728
2015    4       29    21   1    5.3511   430.2    7.754      40.736
2015    4       29    21   7    5.3493   430.4    7.745      40.744
2015    4       29    21  13    5.3475   430.5    7.737      40.752
2015    4       29    21  19    5.3456   430.7    7.729      40.760
2015    4       29    21  25    5.3438   430.8    7.721      40.768
2015    4       29    21  31    5.3419   431.0    7.713      40.776
2015    4       29    21  37    5.3401   431.1    7.705      40.784
2015    4       29    21  43    5.3382   431.3    7.697      40.792
2015    4       29    21  50    5.3364   431.4    7.689      40.800
2015    4       29    21  56    5.3346   431.6    7.682      40.808
2015    4       29    22   2    5.3327   431.7    7.674      40.816
2015    4       29    22   8    5.3309   431.8    7.667      40.824
2015    4       29    22  14    5.3291   432.0    7.660      40.832
2015    4       29    22  20    5.3273   432.1    7.653      40.840
2015    4       29    22  26    5.3255   432.3    7.645      40.849
2015    4       29    22  33    5.3237   432.4    7.638      40.857
2015    4       29    22  39    5.3219   432.6    7.632      40.866
2015    4       29    22  45    5.3201   432.7    7.625      40.874
2015    4       29    22  51    5.3183   432.9    7.618      40.883
2015    4       29    22  57    5.3165   433.0    7.611      40.892
2015    4       29    23   3    5.3147   433.1    7.605      40.900
2015    4       29    23   9    5.3129   433.3    7.598      40.909
2015    4       29    23  16    5.3112   433.4    7.592      40.918
2015    4       29    23  22    5.3094   433.6    7.585      40.927
2015    4       29    23  28    5.3076   433.7    7.579      40.937
2015    4       29    23  34    5.3059   433.9    7.572      40.946
2015    4       29    23  40    5.3041   434.0    7.566      40.955
2015    4       29    23  46    5.3024   434.1    7.559      40.964
2015    4       29    23  52    5.3006   434.3    7.553      40.974
2015    4       29    23  58    5.2989   434.4    7.547      40.983
2015    4       30     0   5    5.2971   434.5    7.540      40.993
2015    4       30     0  11    5.2954   434.7    7.534      41.002
2015    4       30     0  17    5.2937   434.8    7.528      41.012
2015    4       30     0  23    5.2919   435.0    7.521      41.022
2015    4       30     0  29    5.2902   435.1    7.515      41.032
2015    4       30     0  35    5.2885   435.2    7.509      41.041
2015    4       30     0  41    5.2867   435.4    7.503      41.051
2015    4       30     0  48    5.2850   435.5    7.496      41.061
2015    4       30     0  54    5.2833   435.6    7.490      41.071
2015    4       30     1   0    5.2815   435.8    7.484      41.080
2015    4       30     1   6    5.2798   435.9    7.477      41.090
2015    4       30     1  12    5.2781   436.0    7.471      41.100
2015    4       30     1  18    5.2763   436.2    7.465      41.109
2015    4       30     1  24    5.2746   436.3    7.458      41.119
2015    4       30     1  31    5.2729   436.4    7.452      41.129
2015    4       30     1  37    5.2711   436.6    7.446      41.138
2015    4       30     1  43    5.2694   436.7    7.440      41.148
2015    4       30     1  49    5.2677   436.8    7.433      41.157
2015    4       30     1  55    5.2660   437.0    7.427      41.167
2015    4       30     2   1    5.2643   437.1    7.421      41.177
2015    4       30     2   7    5.2626   437.2    7.415      41.186
2015    4       30     2  13    5.2609   437.4    7.409      41.196
2015    4       30     2  20    5.2592   437.5    7.402      41.206
2015    4       30     2  26    5.2575   437.6    7.396      41.215
2015    4       30     2  32    5.2558   437.8    7.390      41.225
2015    4       30     2  38    5.2542   437.9    7.384      41.235
2015    4       30     2  44    5.2525   438.0    7.378      41.245
2015    4       30     2  50    5.2508   438.2    7.372      41.255
2015    4       30     2  56    5.2491   438.3    7.366      41.265
2015    4       30     3   3    5.2474   438.4    7.360      41.275
2015    4       30     3   9    5.2457   438.6    7.354      41.284
2015    4       30     3  15    5.2440   438.7    7.348      41.294
2015    4       30     3  21    5.2424   438.8    7.342      41.303
2015    4       30     3  27    5.2407   439.0    7.336      41.313
2015    4       30     3  33    5.2390   439.1    7.330      41.322
2015    4       30     3  39    5.2373   439.2    7.324      41.331
2015    4       30     3  46    5.2356   439.4    7.318      41.340
2015    4       30     3  52    5.2339   439.5    7.312      41.349
2015    4       30     3  58    5.2322   439.6    7.306      41.357
2015    4       30     4   4    5.2305   439.8    7.300      41.366
2015    4       30     4  10    5.2289   439.9    7.294      41.375
2015    4       30     4  16    5.2272   440.0    7.288      41.383
2015    4       30     4  22    5.2255   440.2    7.282      41.392
2015    4       30     4  28    5.2238   440.3    7.276      41.400
2015    4       30     4  35    5.2221   440.4    7.271      41.408
2015    4       30     4  41    5.2204   440.6    7.265      41.417
2015    4       30     4  47    5.2188   440.7    7.259      41.425
2015    4       30     4  53    5.2171   440.8    7.253      41.433
2015    4       30     4  59    5.2154   440.9    7.247      41.441
2015    4       30     5   5    5.2137   441.1    7.241      41.449
2015    4       30     5  11    5.2121   441.2    7.236      41.457
2015    4       30     5  18    5.2104   441.3    7.230      41.465
2015    4       30     5  24    5.2087   441.5    7.224      41.473
2015    4       30     5  30    5.2070   441.6    7.218      41.481
2015    4       30     5  36    5.2054   441.7    7.213      41.489
2015    4       30     5  42    5.2037   441.8    7.207      41.496
2015    4       30     5  48    5.2020   442.0    7.201      41.504
2015    4       30     5  54    5.2004   442.1    7.196      41.511
2015    4       30     6   1    5.1987   442.2    7.190      41.519
2015    4       30     6   7    5.1971   442.4    7.184      41.527
2015    4       30     6  13    5.1954   442.5    7.179      41.534
2015    4       30     6  19    5.1938   442.6    7.173      41.542
2015    4       30     6  25    5.1921   442.7    7.167      41.549
2015    4       30     6  31    5.1905   442.9    7.162      41.556
2015    4       30     6  37    5.1889   443.0    7.156      41.564
2015    4       30     6  44    5.1872   443.1    7.150      41.571
2015    4       30     6  50    5.1856   443.2    7.145      41.578
2015    4       30     6  56    5.1839   443.3    7.139      41.586
2015    4       30     7   2    5.1823   443.5    7.134      41.593
2015    4       30     7   8    5.1807   443.6    7.128      41.600
2015    4       30     7  14    5.1791   443.7    7.122      41.608
2015    4       30     7  20    5.1774   443.8    7.117      41.615
2015    4       30     7  26    5.1758   444.0    7.111      41.622
2015    4       30     7  33    5.1742   444.1    7.106      41.630
2015    4       30     7  39    5.1726   444.2    7.100      41.637
2015    4       30     7  45    5.1710   444.3    7.095      41.644
2015    4       30     7  51    5.1693   444.4    7.089      41.651
2015    4       30     7  57    5.1677   444.6    7.084      41.659
2015    4       30     8   3    5.1661   444.7    7.078      41.666
2015    4       30     8   9    5.1645   444.8    7.073      41.673
2015    4       30     8  16    5.1629   444.9    7.068      41.681
2015    4       30     8  22    5.1613   445.0    7.062      41.688
2015    4       30     8  28    5.1597   445.2    7.057      41.695
2015    4       30     8  34    5.1581   445.3    7.051      41.703
2015    4       30     8  40    5.1566   445.4    7.046      41.710
2015    4       30     8  46    5.1550   445.5    7.041      41.718
2015    4       30     8  52    5.1534   445.6    7.036      41.725
2015    4       30     8  59    5.1518   445.8    7.030      41.732
2015    4       30     9   5    5.1502   445.9    7.025      41.740
2015    4       30     9  11    5.1487   446.0    7.020      41.747
2015    4       30     9  17    5.1471   446.1    7.015      41.755
2015    4       30     9  23    5.1455   446.2    7.010      41.763
2015    4       30     9  29    5.1440   446.3    7.005      41.770
2015    4       30     9  35    5.1424   446.5    6.999      41.778
2015    4       30     9  41    5.1409   446.6    6.994      41.785
2015    4       30     9  48    5.1393   446.7    6.989      41.793
2015    4       30     9  54    5.1378   446.8    6.984      41.801
2015    4       30    10   0    5.1363   446.9    6.980      41.808
2015    4       30    10   6    5.1347   447.0    6.975      41.816
2015    4       30    10  12    5.1332   447.1    6.970      41.824
2015    4       30    10  18    5.1317   447.3    6.965      41.832
2015    4       30    10  24    5.1302   447.4    6.960      41.839
2015    4       30    10  31    5.1286   447.5    6.955      41.847
2015    4       30    10  37    5.1271   447.6    6.951      41.855
2015    4       30    10  43    5.1256   447.7    6.946      41.863
2015    4       30    10  49    5.1241   447.8    6.941      41.871
2015    4       30    10  55    5.1226   447.9    6.936      41.878
2015    4       30    11   1    5.1211   448.1    6.932      41.886
2015    4       30    11   7    5.1196   448.2    6.927      41.894
2015    4       30    11  14    5.1181   448.3    6.922      41.902
2015    4       30    11  20    5.1166   448.4    6.918      41.910
2015    4       30    11  26    5.1151   448.5    6.913      41.917
2015    4       30    11  32    5.1136   448.6    6.909      41.925
2015    4       30    11  38    5.1121   448.7    6.904      41.933
2015    4       30    11  44    5.1106   448.9    6.899      41.941
2015    4       30    11  50    5.1091   449.0    6.895      41.949
2015    4       30    11  56    5.1076   449.1    6.890      41.956
2015    4       30    12   3    5.1061   449.2    6.886      41.964
2015    4       30    12   9    5.1046   449.3    6.881      41.972
2015    4       30    12  15    5.1031   449.4    6.877      41.979
2015    4       30    12  21    5.1016   449.5    6.872      41.987
2015    4       30    12  27    5.1001   449.6    6.867      41.995
2015    4       30    12  33    5.0986   449.7    6.863      42.002
2015    4       30    12  39    5.0971   449.9    6.858      42.010
2015    4       30    12  46    5.0956   450.0    6.854      42.017
2015    4       30    12  52    5.0941   450.1    6.849      42.025
2015    4       30    12  58    5.0926   450.2    6.844      42.032
2015    4       30    13   4    5.0911   450.3    6.840      42.039
2015    4       30    13  10    5.0896   450.4    6.835      42.047
2015    4       30    13  16    5.0881   450.5    6.830      42.054
2015    4       30    13  22    5.0866   450.6    6.826      42.061
2015    4       30    13  29    5.0852   450.7    6.821      42.068
2015    4       30    13  35    5.0837   450.8    6.817      42.075
2015    4       30    13  41    5.0822   450.9    6.812      42.082
2015    4       30    13  47    5.0807   451.1    6.807      42.089
2015    4       30    13  53    5.0792   451.2    6.803      42.096
2015    4       30    13  59    5.0777   451.3    6.798      42.103
2015    4       30    14   5    5.0763   451.4    6.793      42.110
2015    4       30    14  12    5.0748   451.5    6.789      42.117
2015    4       30    14  18    5.0733   451.6    6.784      42.123
2015    4       30    14  24    5.0718   451.7    6.780      42.130
2015    4       30    14  30    5.0704   451.8    6.775      42.137
2015    4       30    14  36    5.0689   451.9    6.770      42.144
2015    4       30    14  42    5.0674   452.0    6.766      42.150
2015    4       30    14  48    5.0660   452.1    6.761      42.157
2015    4       30    14  54    5.0645   452.2    6.757      42.163
2015    4       30    15   1    5.0630   452.3    6.752      42.170
2015    4       30    15   7    5.0616   452.4    6.748      42.177
2015    4       30    15  13    5.0602   452.5    6.743      42.183
2015    4       30    15  19    5.0587   452.7    6.739      42.190
2015    4       30    15  25    5.0572   452.8    6.734      42.196
2015    4       30    15  31    5.0558   452.9    6.730      42.203
2015    4       30    15  37    5.0544   453.0    6.725      42.209
2015    4       30    15  44    5.0529   453.1    6.721      42.216
2015    4       30    15  50    5.0515   453.2    6.716      42.222
2015    4       30    15  56    5.0501   453.3    6.712      42.229
2015    4       30    16   2    5.0486   453.4    6.708      42.235
2015    4       30    16   8    5.0472   453.5    6.703      42.242
2015    4       30    16  14    5.0458   453.6    6.699      42.248
2015    4       30    16  20    5.0444   453.7    6.695      42.255
2015    4       30    16  27    5.0429   453.8    6.691      42.261
2015    4       30    16  33    5.0415   453.9    6.686      42.268
2015    4       30    16  39    5.0401   454.0    6.682      42.274
2015    4       30    16  45    5.0387   454.1    6.678      42.281
2015    4       30    16  51    5.0373   454.2    6.674      42.287
2015    4       30    16  57    5.0359   454.3    6.669      42.294
2015    4       30    17   3    5.0345   454.4    6.665      42.300
2015    4       30    17   9    5.0331   454.5    6.661      42.307
2015    4       30    17  16    5.0317   454.6    6.657      42.313
2015    4       30    17  22    5.0303   454.7    6.653      42.320
2015    4       30    17  28    5.0289   454.8    6.648      42.327
2015    4       30    17  34    5.0275   454.9    6.644      42.333
2015    4       30    17  40    5.0262   455.0    6.640      42.340
2015    4       30    17  46    5.0248   455.1    6.636      42.347
2015    4       30    17  52    5.0234   455.2    6.632      42.353
2015    4       30    17  59    5.0220   455.3    6.628      42.360
2015    4       30    18   5    5.0207   455.4    6.624      42.367
2015    4       30    18  11    5.0193   455.5    6.620      42.374
2015    4       30    18  17    5.0180   455.6    6.616      42.381
2015    4       30    18  23    5.0166   455.7    6.612      42.388
2015    4       30    18  29    5.0153   455.8    6.608      42.395
2015    4       30    18  35    5.0139   455.9    6.604      42.402
2015    4       30    18  42    5.0126   456.0    6.600      42.409
2015    4       30    18  48    5.0112   456.1    6.596      42.416
2015    4       30    18  54    5.0099   456.2    6.592      42.423
2015    4       30    19   0    5.0086   456.3    6.588      42.430
2015    4       30    19   6    5.0073   456.4    6.584      42.437
2015    4       30    19  12    5.0059   456.5    6.580      42.444
2015    4       30    19  18    5.0046   456.6    6.576      42.452
2015    4       30    19  24    5.0033   456.7    6.572      42.459
2015    4       30    19  31    5.0020   456.8    6.568      42.466
2015    4       30    19  37    5.0007   456.9    6.564      42.474
2015    4       30    19  43    4.9994   457.0    6.560      42.481
2015    4       30    19  49    4.9981   457.1    6.557      42.488
2015    4       30    19  55    4.9967   457.2    6.553      42.495
2015    4       30    20   1    4.9954   457.3    6.549      42.503
2015    4       30    20   7    4.9942   457.4    6.545      42.510
2015    4       30    20  14    4.9928   457.5    6.541      42.518
2015    4       30    20  20    4.9916   457.6    6.537      42.525
2015    4       30    20  26    4.9902   457.7    6.533      42.532
2015    4       30    20  32    4.9889   457.8    6.530      42.540
2015    4       30    20  38    4.9877   457.9    6.526      42.547
2015    4       30    20  44    4.9863   458.0    6.522      42.554
2015    4       30    20  50    4.9851   458.1    6.518      42.562
2015    4       30    20  57    4.9838   458.2    6.514      42.569
2015    4       30    21   3    4.9825   458.3    6.511      42.576
2015    4       30    21   9    4.9812   458.4    6.507      42.583
2015    4       30    21  15    4.9799   458.5    6.503      42.591
2015    4       30    21  21    4.9786   458.6    6.499      42.598
2015    4       30    21  27    4.9773   458.7    6.496      42.605
2015    4       30    21  33    4.9760   458.8    6.492      42.612
2015    4       30    21  40    4.9747   458.9    6.488      42.619
2015    4       30    21  46    4.9734   459.0    6.484      42.626
2015    4       30    21  52    4.9721   459.1    6.480      42.633
2015    4       30    21  58    4.9708   459.1    6.477      42.640
2015    4       30    22   4    4.9695   459.2    6.473      42.647
2015    4       30    22  10    4.9682   459.3    6.469      42.653
2015    4       30    22  16    4.9669   459.4    6.465      42.660
2015    4       30    22  22    4.9657   459.5    6.462      42.667
2015    4       30    22  29    4.9644   459.6    6.458      42.673
2015    4       30    22  35    4.9631   459.7    6.454      42.680
2015    4       30    22  41    4.9618   459.8    6.451      42.687
2015    4       30    22  47    4.9605   459.9    6.447      42.693
2015    4       30    22  53    4.9592   460.0    6.443      42.700
2015    4       30    22  59    4.9580   460.1    6.439      42.706
2015    4       30    23   5    4.9567   460.2    6.436      42.713
2015    4       30    23  12    4.9554   460.3    6.432      42.719
2015    4       30    23  18    4.9542   460.4    6.428      42.726
2015    4       30    23  24    4.9529   460.5    6.424      42.732
2015    4       30    23  30    4.9517   460.6    6.421      42.739
2015    4       30    23  36    4.9504   460.6    6.417      42.745
2015    4       30    23  42    4.9492   460.7    6.413      42.751
2015    4       30    23  48    4.9479   460.8    6.410      42.758
2015    4       30    23  55    4.9467   460.9    6.406      42.764
2015    5        1     0   1    4.9454   461.0    6.402      42.771
2015    5        1     0   7    4.9442   461.1    6.399      42.777
2015    5        1     0  13    4.9430   461.2    6.395      42.784
2015    5        1     0  19    4.9417   461.3    6.391      42.790
2015    5        1     0  25    4.9405   461.4    6.388      42.797
2015    5        1     0  31    4.9393   461.5    6.384      42.803
2015    5        1     0  37    4.9381   461.6    6.381      42.810
2015    5        1     0  44    4.9369   461.7    6.377      42.817
2015    5        1     0  50    4.9357   461.8    6.373      42.824
2015    5        1     0  56    4.9345   461.8    6.370      42.831
2015    5        1     1   2    4.9333   461.9    6.366      42.837
2015    5        1     1   8    4.9322   462.0    6.363      42.844
2015    5        1     1  14    4.9310   462.1    6.359      42.851
2015    5        1     1  20    4.9298   462.2    6.356      42.858
2015    5        1     1  27    4.9286   462.3    6.352      42.866
2015    5        1     1  33    4.9275   462.4    6.349      42.873
2015    5        1     1  39    4.9263   462.5    6.345      42.880
2015    5        1     1  45    4.9251   462.6    6.342      42.887
2015    5        1     1  51    4.9240   462.7    6.338      42.895
2015    5        1     1  57    4.9228   462.8    6.335      42.902
2015    5        1     2   3    4.9217   462.8    6.331      42.910
2015    5        1     2  10    4.9205   462.9    6.328      42.917
2015    5        1     2  16    4.9194   463.0    6.324      42.925
2015    5        1     2  22    4.9182   463.1    6.321      42.933
2015    5        1     2  28    4.9171   463.2    6.318      42.940
2015    5        1     2  34    4.9160   463.3    6.314      42.948
2015    5        1     2  40    4.9148   463.4    6.311      42.956
2015    5        1     2  46    4.9137   463.5    6.308      42.964
2015    5        1     2  52    4.9126   463.6    6.304      42.971
2015    5        1     2  59    4.9114   463.7    6.301      42.979
2015    5        1     3   5    4.9103   463.8    6.298      42.987
2015    5        1     3  11    4.9092   463.8    6.294      42.995
2015    5        1     3  17    4.9080   463.9    6.291      43.003
2015    5        1     3  23    4.9069   464.0    6.288      43.011
2015    5        1     3  29    4.9058   464.1    6.284      43.019
2015    5        1     3  35    4.9046   464.2    6.281      43.027
2015    5        1     3  42    4.9035   464.3    6.278      43.035
2015    5        1     3  48    4.9024   464.4    6.274      43.043
2015    5        1     3  54    4.9012   464.5    6.271      43.051
2015    5        1     4   0    4.9001   464.6    6.268      43.059
2015    5        1     4   6    4.8990   464.6    6.265      43.068
2015    5        1     4  12    4.8978   464.7    6.261      43.075
2015    5        1     4  18    4.8967   464.8    6.258      43.084
2015    5        1     4  25    4.8956   464.9    6.255      43.092
2015    5        1     4  31    4.8944   465.0    6.252      43.099
2015    5        1     4  37    4.8933   465.1    6.248      43.108
2015    5        1     4  43    4.8921   465.2    6.245      43.115
2015    5        1     4  49    4.8910   465.3    6.242      43.123
2015    5        1     4  55    4.8899   465.4    6.239      43.131
2015    5        1     5   1    4.8887   465.4    6.235      43.139
2015    5        1     5   7    4.8876   465.5    6.232      43.147
2015    5        1     5  14    4.8865   465.6    6.229      43.154
2015    5        1     5  20    4.8853   465.7    6.226      43.162
2015    5        1     5  26    4.8842   465.8    6.222      43.170
2015    5        1     5  32    4.8831   465.9    6.219      43.177
2015    5        1     5  38    4.8820   466.0    6.216      43.185
2015    5        1     5  44    4.8808   466.1    6.212      43.192
2015    5        1     5  50    4.8797   466.2    6.209      43.200
2015    5        1     5  57    4.8786   466.2    6.206      43.207
2015    5        1     6   3    4.8775   466.3    6.202      43.215
2015    5        1     6   9    4.8764   466.4    6.199      43.222
2015    5        1     6  15    4.8753   466.5    6.196      43.229
2015    5        1     6  21    4.8742   466.6    6.192      43.236
2015    5        1     6  27    4.8731   466.7    6.189      43.243
2015    5        1     6  33    4.8720   466.8    6.186      43.250
2015    5        1     6  40    4.8709   466.9    6.182      43.257
2015    5        1     6  46    4.8698   466.9    6.179      43.264
2015    5        1     6  52    4.8687   467.0    6.175      43.272
2015    5        1     6  58    4.8676   467.1    6.172      43.279
2015    5        1     7   4    4.8665   467.2    6.169      43.285
2015    5        1     7  10    4.8654   467.3    6.165      43.292
2015    5        1     7  16    4.8643   467.4    6.162      43.300
2015    5        1     7  23    4.8632   467.5    6.158      43.306
2015    5        1     7  29    4.8622   467.6    6.155      43.313
2015    5        1     7  35    4.8611   467.6    6.152      43.321
2015    5        1     7  41    4.8601   467.7    6.148      43.328
2015    5        1     7  47    4.8590   467.8    6.145      43.335
2015    5        1     7  53    4.8579   467.9    6.142      43.342
2015    5        1     7  59    4.8569   468.0    6.138      43.349
2015    5        1     8   5    4.8558   468.1    6.135      43.356
2015    5        1     8  12    4.8548   468.2    6.132      43.364
2015    5        1     8  18    4.8537   468.3    6.128      43.371
2015    5        1     8  24    4.8527   468.3    6.125      43.379
2015    5        1     8  30    4.8517   468.4    6.122      43.386
2015    5        1     8  36    4.8506   468.5    6.119      43.394
2015    5        1     8  42    4.8496   468.6    6.115      43.401
2015    5        1     8  48    4.8485   468.7    6.112      43.409
2015    5        1     8  55    4.8475   468.8    6.109      43.417
2015    5        1     9   1    4.8465   468.9    6.106      43.425
2015    5        1     9   7    4.8454   469.0    6.103      43.433
2015    5        1     9  13    4.8444   469.0    6.100      43.441
2015    5        1     9  19    4.8434   469.1    6.097      43.449
2015    5        1     9  25    4.8423   469.2    6.093      43.457
2015    5        1     9  31    4.8413   469.3    6.090      43.466
2015    5        1     9  38    4.8403   469.4    6.087      43.474
2015    5        1     9  44    4.8393   469.5    6.084      43.482
2015    5        1     9  50    4.8382   469.6    6.081      43.491
2015    5        1     9  56    4.8372   469.7    6.078      43.499
2015    5        1    10   2    4.8362   469.7    6.075      43.508
2015    5        1    10   8    4.8351   469.8    6.072      43.516
2015    5        1    10  14    4.8341   469.9    6.069      43.525
2015    5        1    10  20    4.8331   470.0    6.066      43.533
2015    5        1    10  27    4.8320   470.1    6.063      43.542
2015    5        1    10  33    4.8310   470.2    6.060      43.551
2015    5        1    10  39    4.8300   470.3    6.057      43.560
2015    5        1    10  45    4.8289   470.3    6.054      43.569
2015    5        1    10  51    4.8279   470.4    6.052      43.577
2015    5        1    10  57    4.8269   470.5    6.049      43.586
2015    5        1    11   3    4.8258   470.6    6.046      43.595
2015    5        1    11  10    4.8248   470.7    6.043      43.604
2015    5        1    11  16    4.8238   470.8    6.040      43.613
2015    5        1    11  22    4.8228   470.9    6.037      43.622
2015    5        1    11  28    4.8217   470.9    6.034      43.631
2015    5        1    11  34    4.8207   471.0    6.031      43.640
2015    5        1    11  40    4.8197   471.1    6.028      43.650
2015    5        1    11  46    4.8187   471.2    6.025      43.659
2015    5        1    11  53    4.8177   471.3    6.022      43.668
2015    5        1    11  59    4.8167   471.4    6.020      43.677
2015    5        1    12   5    4.8157   471.5    6.017      43.686
2015    5        1    12  11    4.8147   471.6    6.014      43.696
2015    5        1    12  17    4.8137   471.6    6.011      43.705
2015    5        1    12  23    4.8127   471.7    6.008      43.714
2015    5        1    12  29    4.8117   471.8    6.005      43.723
2015    5        1    12  35    4.8108   471.9    6.002      43.733
2015    5        1    12  42    4.8098   472.0    5.999      43.742
2015    5        1    12  48    4.8089   472.1    5.996      43.751
2015    5        1    12  54    4.8079   472.2    5.993      43.760
2015    5        1    13   0    4.8070   472.3    5.990      43.770
2015    5        1    13   6    4.8060   472.3    5.987      43.779
2015    5        1    13  12    4.8051   472.4    5.984      43.788
2015    5        1    13  18    4.8041   472.5    5.981      43.798
2015    5        1    13  25    4.8032   472.6    5.978      43.807
2015    5        1    13  31    4.8022   472.7    5.976      43.816
2015    5        1    13  37    4.8013   472.8    5.973      43.825
2015    5        1    13  43    4.8004   472.9    5.970      43.835
2015    5        1    13  49    4.7994   473.0    5.967      43.844
2015    5        1    13  55    4.7985   473.1    5.964      43.853
2015    5        1    14   1    4.7975   473.2    5.961      43.862
2015    5        1    14   8    4.7966   473.2    5.958      43.872
2015    5        1    14  14    4.7956   473.3    5.955      43.881
2015    5        1    14  20    4.7947   473.4    5.952      43.890
2015    5        1    14  26    4.7937   473.5    5.949      43.900
2015    5        1    14  32    4.7928   473.6    5.946      43.909
2015    5        1    14  38    4.7918   473.7    5.943      43.918
2015    5        1    14  44    4.7908   473.8    5.940      43.927
2015    5        1    14  50    4.7899   473.9    5.937      43.936
2015    5        1    14  57    4.7889   474.0    5.934      43.946
2015    5        1    15   3    4.7879   474.1    5.931      43.955
2015    5        1    15   9    4.7870   474.1    5.928      43.964
2015    5        1    15  15    4.7860   474.2    5.924      43.973
2015    5        1    15  21    4.7850   474.3    5.921      43.983
2015    5        1    15  27    4.7840   474.4    5.918      43.992
2015    5        1    15  33    4.7830   474.5    5.915      44.001
2015    5        1    15  40    4.7820   474.6    5.912      44.011
2015    5        1    15  46    4.7810   474.7    5.909      44.020
2015    5        1    15  52    4.7800   474.8    5.906      44.029
2015    5        1    15  58    4.7790   474.9    5.903      44.039
2015    5        1    16   4    4.7780   475.0    5.900      44.048
2015    5        1    16  10    4.7769   475.0    5.897      44.058
2015    5        1    16  16    4.7759   475.1    5.894      44.067
2015    5        1    16  23    4.7749   475.2    5.891      44.077
2015    5        1    16  29    4.7739   475.3    5.888      44.087
2015    5        1    16  35    4.7728   475.4    5.885      44.096
2015    5        1    16  41    4.7718   475.5    5.882      44.106
2015    5        1    16  47    4.7707   475.6    5.879      44.115
2015    5        1    16  53    4.7697   475.7    5.876      44.125
2015    5        1    16  59    4.7687   475.8    5.873      44.135
2015    5        1    17   6    4.7676   475.8    5.870      44.145
2015    5        1    17  12    4.7666   475.9    5.867      44.154
2015    5        1    17  18    4.7655   476.0    5.864      44.164
2015    5        1    17  24    4.7645   476.1    5.861      44.174
2015    5        1    17  30    4.7634   476.2    5.858      44.183
2015    5        1    17  36    4.7624   476.3    5.855      44.193
2015    5        1    17  42    4.7613   476.4    5.852      44.203
2015    5        1    17  48    4.7603   476.5    5.849      44.213
2015    5        1    17  55    4.7592   476.5    5.846      44.222
2015    5        1    18   1    4.7582   476.6    5.843      44.232
2015    5        1    18   7    4.7571   476.7    5.840      44.242
2015    5        1    18  13    4.7561   476.8    5.837      44.252
2015    5        1    18  19    4.7551   476.9    5.834      44.261
2015    5        1    18  25    4.7540   477.0    5.831      44.271
2015    5        1    18  31    4.7530   477.1    5.828      44.281
2015    5        1    18  38    4.7520   477.2    5.825      44.291
2015    5        1    18  44    4.7510   477.3    5.822      44.300
2015    5        1    18  50    4.7500   477.3    5.819      44.310
2015    5        1    18  56    4.7490   477.4    5.816      44.320
2015    5        1    19   2    4.7480   477.5    5.813      44.330
2015    5        1    19   8    4.7470   477.6    5.810      44.340
2015    5        1    19  14    4.7460   477.7    5.807      44.349
2015    5        1    19  21    4.7451   477.8    5.804      44.359
2015    5        1    19  27    4.7441   477.9    5.801      44.369
2015    5        1    19  33    4.7432   478.0    5.798      44.379
2015    5        1    19  39    4.7422   478.1    5.795      44.389
2015    5        1    19  45    4.7413   478.1    5.792      44.399
2015    5        1    19  51    4.7404   478.2    5.790      44.409
2015    5        1    19  57    4.7394   478.3    5.787      44.419
2015    5        1    20   3    4.7385   478.4    5.784      44.429
2015    5        1    20  10    4.7376   478.5    5.781      44.439
2015    5        1    20  16    4.7367   478.6    5.778      44.449
2015    5        1    20  22    4.7358   478.7    5.775      44.459
2015    5        1    20  28    4.7349   478.8    5.772      44.470
2015    5        1    20  34    4.7340   478.9    5.769      44.480
2015    5        1    20  40    4.7331   479.0    5.767      44.490
2015    5        1    20  46    4.7321   479.1    5.764      44.500
2015    5        1    20  53    4.7312   479.2    5.761      44.510
2015    5        1    20  59    4.7303   479.3    5.758      44.521
2015    5        1    21   5    4.7294   479.3    5.756      44.531
2015    5        1    21  11    4.7284   479.4    5.753      44.541
2015    5        1    21  17    4.7275   479.5    5.750      44.551
2015    5        1    21  23    4.7265   479.6    5.747      44.562
2015    5        1    21  29    4.7255   479.7    5.744      44.572
2015    5        1    21  36    4.7246   479.8    5.742      44.582
2015    5        1    21  42    4.7236   479.9    5.739      44.593
2015    5        1    21  48    4.7226   480.0    5.736      44.603
2015    5        1    21  54    4.7216   480.1    5.733      44.613
2015    5        1    22   0    4.7206   480.2    5.731      44.624
2015    5        1    22   6    4.7196   480.3    5.728      44.634
2015    5        1    22  12    4.7186   480.4    5.725      44.645
2015    5        1    22  18    4.7176   480.5    5.722      44.655
2015    5        1    22  25    4.7165   480.6    5.719      44.666
2015    5        1    22  31    4.7155   480.7    5.716      44.676
2015    5        1    22  37    4.7145   480.8    5.714      44.686
2015    5        1    22  43    4.7134   480.9    5.711      44.697
2015    5        1    22  49    4.7123   481.0    5.708      44.707
2015    5        1    22  55    4.7113   481.1    5.705      44.717
2015    5        1    23   1    4.7102   481.1    5.702      44.727
2015    5        1    23   8    4.7091   481.2    5.699      44.738
2015    5        1    23  14    4.7081   481.3    5.696      44.748
2015    5        1    23  20    4.7070   481.4    5.693      44.758
2015    5        1    23  26    4.7059   481.5    5.690      44.768
2015    5        1    23  32    4.7048   481.6    5.687      44.778
2015    5        1    23  38    4.7037   481.7    5.684      44.789
2015    5        1    23  44    4.7025   481.8    5.681      44.799
2015    5        1    23  51    4.7014   481.9    5.678      44.809
2015    5        1    23  57    4.7003   482.0    5.675      44.819
2015    5        2     0   3    4.6992   482.1    5.672      44.829
