year    month   day   hour  minute  B_enl V_enl   n_enl       T_enl
[year] [month] [day] [hour][minute] [nT]  [km/s]  [cm-3]      [kK]
2015    4       24     0   6    3.3285   390.9    5.855      26.832
2015    4       24     0  12    3.3301   390.7    5.861      26.826
2015    4       24     0  18    3.3317   390.6    5.867      26.819
2015    4       24     0  24    3.3333   390.4    5.874      26.813
2015    4       24     0  30    3.3349   390.3    5.880      26.806
2015    4       24     0  36    3.3366   390.1    5.886      26.800
2015    4       24     0  42    3.3382   390.0    5.892      26.794
2015    4       24     0  48    3.3399   389.8    5.898      26.788
2015    4       24     0  55    3.3415   389.7    5.904      26.783
2015    4       24     1   1    3.3432   389.5    5.911      26.777
2015    4       24     1   7    3.3449   389.4    5.917      26.771
2015    4       24     1  13    3.3466   389.2    5.923      26.766
2015    4       24     1  19    3.3484   389.1    5.930      26.761
2015    4       24     1  25    3.3501   388.9    5.936      26.756
2015    4       24     1  31    3.3519   388.8    5.942      26.750
2015    4       24     1  38    3.3536   388.6    5.949      26.745
2015    4       24     1  44    3.3554   388.5    5.955      26.741
2015    4       24     1  50    3.3572   388.3    5.962      26.736
2015    4       24     1  56    3.3590   388.2    5.968      26.731
2015    4       24     2   2    3.3608   388.0    5.975      26.727
2015    4       24     2   8    3.3626   387.9    5.982      26.722
2015    4       24     2  14    3.3644   387.8    5.988      26.718
2015    4       24     2  20    3.3663   387.6    5.995      26.714
2015    4       24     2  27    3.3681   387.5    6.002      26.710
2015    4       24     2  33    3.3700   387.3    6.009      26.706
2015    4       24     2  39    3.3719   387.2    6.016      26.702
2015    4       24     2  45    3.3737   387.0    6.022      26.699
2015    4       24     2  51    3.3756   386.9    6.029      26.695
2015    4       24     2  57    3.3775   386.7    6.036      26.692
2015    4       24     3   3    3.3795   386.6    6.043      26.688
2015    4       24     3   9    3.3814   386.4    6.051      26.685
2015    4       24     3  16    3.3833   386.3    6.058      26.682
2015    4       24     3  22    3.3853   386.2    6.065      26.679
2015    4       24     3  28    3.3872   386.0    6.072      26.677
2015    4       24     3  34    3.3892   385.9    6.079      26.674
2015    4       24     3  40    3.3911   385.7    6.087      26.671
2015    4       24     3  46    3.3931   385.6    6.094      26.669
2015    4       24     3  52    3.3951   385.5    6.101      26.666
2015    4       24     3  58    3.3971   385.3    6.109      26.664
2015    4       24     4   5    3.3991   385.2    6.116      26.662
2015    4       24     4  11    3.4011   385.0    6.124      26.660
2015    4       24     4  17    3.4031   384.9    6.132      26.658
2015    4       24     4  23    3.4051   384.8    6.139      26.657
2015    4       24     4  29    3.4071   384.6    6.147      26.655
2015    4       24     4  35    3.4091   384.5    6.154      26.653
2015    4       24     4  41    3.4112   384.3    6.162      26.652
2015    4       24     4  47    3.4132   384.2    6.170      26.650
2015    4       24     4  54    3.4152   384.1    6.178      26.649
2015    4       24     5   0    3.4173   383.9    6.185      26.648
2015    4       24     5   6    3.4194   383.8    6.193      26.647
2015    4       24     5  12    3.4214   383.7    6.201      26.645
2015    4       24     5  18    3.4235   383.5    6.209      26.645
2015    4       24     5  24    3.4256   383.4    6.217      26.643
2015    4       24     5  30    3.4277   383.3    6.225      26.643
2015    4       24     5  36    3.4298   383.1    6.233      26.642
2015    4       24     5  43    3.4319   383.0    6.241      26.641
2015    4       24     5  49    3.4340   382.8    6.249      26.640
2015    4       24     5  55    3.4361   382.7    6.257      26.640
2015    4       24     6   1    3.4383   382.6    6.265      26.639
2015    4       24     6   7    3.4404   382.4    6.273      26.639
2015    4       24     6  13    3.4426   382.3    6.281      26.639
2015    4       24     6  19    3.4447   382.2    6.289      26.638
2015    4       24     6  26    3.4469   382.1    6.297      26.638
2015    4       24     6  32    3.4491   381.9    6.306      26.638
2015    4       24     6  38    3.4512   381.8    6.314      26.638
2015    4       24     6  44    3.4534   381.7    6.322      26.638
2015    4       24     6  50    3.4556   381.5    6.330      26.638
2015    4       24     6  56    3.4578   381.4    6.338      26.638
2015    4       24     7   2    3.4600   381.3    6.347      26.638
2015    4       24     7   8    3.4623   381.1    6.355      26.638
2015    4       24     7  15    3.4645   381.0    6.363      26.639
2015    4       24     7  21    3.4667   380.9    6.371      26.639
2015    4       24     7  27    3.4690   380.8    6.380      26.639
2015    4       24     7  33    3.4712   380.6    6.388      26.640
2015    4       24     7  39    3.4735   380.5    6.396      26.641
2015    4       24     7  45    3.4757   380.4    6.404      26.641
2015    4       24     7  51    3.4780   380.2    6.413      26.642
2015    4       24     7  57    3.4803   380.1    6.421      26.643
2015    4       24     8   4    3.4826   380.0    6.429      26.644
2015    4       24     8  10    3.4849   379.9    6.438      26.645
2015    4       24     8  16    3.4872   379.7    6.446      26.646
2015    4       24     8  22    3.4895   379.6    6.454      26.647
2015    4       24     8  28    3.4918   379.5    6.463      26.649
2015    4       24     8  34    3.4941   379.4    6.471      26.650
2015    4       24     8  40    3.4965   379.3    6.479      26.651
2015    4       24     8  46    3.4988   379.1    6.488      26.653
2015    4       24     8  53    3.5012   379.0    6.496      26.655
2015    4       24     8  59    3.5035   378.9    6.504      26.656
2015    4       24     9   5    3.5059   378.8    6.513      26.658
2015    4       24     9  11    3.5083   378.6    6.521      26.660
2015    4       24     9  17    3.5107   378.5    6.529      26.662
2015    4       24     9  23    3.5130   378.4    6.538      26.664
2015    4       24     9  29    3.5154   378.3    6.546      26.666
2015    4       24     9  35    3.5179   378.2    6.554      26.668
2015    4       24     9  42    3.5203   378.0    6.563      26.670
2015    4       24     9  48    3.5227   377.9    6.571      26.672
2015    4       24     9  54    3.5252   377.8    6.580      26.675
2015    4       24    10   0    3.5276   377.7    6.588      26.677
2015    4       24    10   6    3.5301   377.6    6.596      26.680
2015    4       24    10  12    3.5326   377.4    6.605      26.682
2015    4       24    10  18    3.5350   377.3    6.613      26.685
2015    4       24    10  24    3.5375   377.2    6.622      26.688
2015    4       24    10  31    3.5401   377.1    6.630      26.691
2015    4       24    10  37    3.5426   377.0    6.639      26.694
2015    4       24    10  43    3.5452   376.8    6.647      26.697
2015    4       24    10  49    3.5477   376.7    6.656      26.700
2015    4       24    10  55    3.5503   376.6    6.664      26.703
2015    4       24    11   1    3.5529   376.5    6.673      26.707
2015    4       24    11   7    3.5555   376.4    6.681      26.710
2015    4       24    11  14    3.5581   376.3    6.690      26.714
2015    4       24    11  20    3.5608   376.1    6.699      26.718
2015    4       24    11  26    3.5635   376.0    6.708      26.722
2015    4       24    11  32    3.5662   375.9    6.717      26.726
2015    4       24    11  38    3.5689   375.8    6.725      26.730
2015    4       24    11  44    3.5717   375.7    6.734      26.735
2015    4       24    11  50    3.5745   375.6    6.743      26.739
2015    4       24    11  56    3.5772   375.5    6.752      26.744
2015    4       24    12   3    3.5801   375.3    6.762      26.749
2015    4       24    12   9    3.5829   375.2    6.771      26.754
2015    4       24    12  15    3.5858   375.1    6.780      26.759
2015    4       24    12  21    3.5887   375.0    6.789      26.765
2015    4       24    12  27    3.5917   374.9    6.799      26.770
2015    4       24    12  33    3.5947   374.8    6.808      26.776
2015    4       24    12  39    3.5976   374.7    6.818      26.782
2015    4       24    12  45    3.6007   374.6    6.827      26.788
2015    4       24    12  52    3.6037   374.5    6.837      26.795
2015    4       24    12  58    3.6068   374.4    6.847      26.802
2015    4       24    13   4    3.6098   374.2    6.857      26.809
2015    4       24    13  10    3.6129   374.1    6.867      26.816
2015    4       24    13  16    3.6160   374.0    6.877      26.823
2015    4       24    13  22    3.6191   373.9    6.887      26.831
2015    4       24    13  28    3.6222   373.8    6.897      26.838
2015    4       24    13  34    3.6253   373.7    6.907      26.846
2015    4       24    13  41    3.6284   373.6    6.917      26.854
2015    4       24    13  47    3.6315   373.5    6.927      26.862
2015    4       24    13  53    3.6345   373.4    6.937      26.871
2015    4       24    13  59    3.6376   373.3    6.948      26.879
2015    4       24    14   5    3.6407   373.2    6.958      26.888
2015    4       24    14  11    3.6438   373.1    6.968      26.896
2015    4       24    14  17    3.6469   373.0    6.978      26.905
2015    4       24    14  23    3.6500   372.9    6.989      26.914
2015    4       24    14  30    3.6530   372.8    6.999      26.923
2015    4       24    14  36    3.6561   372.8    7.009      26.932
2015    4       24    14  42    3.6592   372.7    7.020      26.941
2015    4       24    14  48    3.6623   372.6    7.030      26.950
2015    4       24    14  54    3.6653   372.5    7.040      26.959
2015    4       24    15   0    3.6684   372.4    7.051      26.968
2015    4       24    15   6    3.6715   372.3    7.061      26.977
2015    4       24    15  12    3.6746   372.2    7.071      26.986
2015    4       24    15  19    3.6777   372.1    7.081      26.995
2015    4       24    15  25    3.6807   372.0    7.092      27.004
2015    4       24    15  31    3.6838   371.9    7.102      27.013
2015    4       24    15  37    3.6869   371.8    7.112      27.022
2015    4       24    15  43    3.6900   371.7    7.122      27.031
2015    4       24    15  49    3.6931   371.6    7.133      27.040
2015    4       24    15  55    3.6962   371.5    7.143      27.049
2015    4       24    16   2    3.6993   371.4    7.153      27.058
2015    4       24    16   8    3.7024   371.4    7.163      27.068
2015    4       24    16  14    3.7056   371.3    7.173      27.077
2015    4       24    16  20    3.7087   371.2    7.183      27.086
2015    4       24    16  26    3.7118   371.1    7.193      27.096
2015    4       24    16  32    3.7150   371.0    7.203      27.105
2015    4       24    16  38    3.7182   370.9    7.214      27.115
2015    4       24    16  44    3.7213   370.8    7.224      27.124
2015    4       24    16  51    3.7245   370.7    7.234      27.134
2015    4       24    16  57    3.7277   370.6    7.244      27.144
2015    4       24    17   3    3.7309   370.6    7.254      27.154
2015    4       24    17   9    3.7342   370.5    7.264      27.164
2015    4       24    17  15    3.7374   370.4    7.274      27.174
2015    4       24    17  21    3.7407   370.3    7.284      27.184
2015    4       24    17  27    3.7440   370.2    7.295      27.195
2015    4       24    17  33    3.7474   370.1    7.305      27.205
2015    4       24    17  40    3.7507   370.0    7.315      27.216
2015    4       24    17  46    3.7541   370.0    7.326      27.227
2015    4       24    17  52    3.7575   369.9    7.336      27.238
2015    4       24    17  58    3.7609   369.8    7.346      27.249
2015    4       24    18   4    3.7644   369.7    7.357      27.261
2015    4       24    18  10    3.7679   369.6    7.367      27.273
2015    4       24    18  16    3.7714   369.5    7.378      27.285
2015    4       24    18  22    3.7750   369.5    7.389      27.297
2015    4       24    18  29    3.7786   369.4    7.399      27.309
2015    4       24    18  35    3.7822   369.3    7.410      27.322
2015    4       24    18  41    3.7858   369.2    7.421      27.335
2015    4       24    18  47    3.7896   369.1    7.432      27.348
2015    4       24    18  53    3.7933   369.1    7.443      27.361
2015    4       24    18  59    3.7971   369.0    7.455      27.375
2015    4       24    19   5    3.8010   368.9    7.466      27.389
2015    4       24    19  11    3.8049   368.8    7.478      27.403
2015    4       24    19  18    3.8088   368.8    7.490      27.418
2015    4       24    19  24    3.8128   368.7    7.502      27.433
2015    4       24    19  30    3.8168   368.6    7.514      27.448
2015    4       24    19  36    3.8209   368.6    7.526      27.464
2015    4       24    19  42    3.8249   368.5    7.539      27.480
2015    4       24    19  48    3.8290   368.4    7.551      27.497
2015    4       24    19  54    3.8331   368.4    7.563      27.515
2015    4       24    20   0    3.8372   368.3    7.576      27.534
2015    4       24    20   7    3.8413   368.3    7.588      27.553
2015    4       24    20  13    3.8455   368.2    7.601      27.573
2015    4       24    20  19    3.8496   368.2    7.613      27.593
2015    4       24    20  25    3.8537   368.1    7.626      27.613
2015    4       24    20  31    3.8577   368.1    7.638      27.633
2015    4       24    20  37    3.8618   368.0    7.651      27.653
2015    4       24    20  43    3.8659   368.0    7.663      27.674
2015    4       24    20  50    3.8699   367.9    7.675      27.694
2015    4       24    20  56    3.8739   367.9    7.688      27.715
2015    4       24    21   2    3.8779   367.8    7.700      27.735
2015    4       24    21   8    3.8818   367.8    7.712      27.756
2015    4       24    21  14    3.8857   367.7    7.724      27.777
2015    4       24    21  20    3.8897   367.7    7.736      27.797
2015    4       24    21  26    3.8935   367.7    7.748      27.818
2015    4       24    21  32    3.8974   367.6    7.760      27.838
2015    4       24    21  39    3.9013   367.6    7.772      27.858
2015    4       24    21  45    3.9051   367.5    7.784      27.879
2015    4       24    21  51    3.9089   367.5    7.795      27.899
2015    4       24    21  57    3.9127   367.5    7.807      27.919
2015    4       24    22   3    3.9165   367.4    7.819      27.939
2015    4       24    22   9    3.9203   367.4    7.830      27.959
2015    4       24    22  15    3.9241   367.3    7.841      27.979
2015    4       24    22  21    3.9278   367.3    7.853      27.998
2015    4       24    22  28    3.9316   367.3    7.864      28.018
2015    4       24    22  34    3.9353   367.2    7.875      28.037
2015    4       24    22  40    3.9390   367.2    7.886      28.056
2015    4       24    22  46    3.9428   367.1    7.897      28.076
2015    4       24    22  52    3.9465   367.1    7.908      28.095
2015    4       24    22  58    3.9502   367.1    7.919      28.113
2015    4       24    23   4    3.9540   367.0    7.930      28.132
2015    4       24    23  10    3.9577   367.0    7.940      28.151
2015    4       24    23  17    3.9614   367.0    7.951      28.170
2015    4       24    23  23    3.9651   366.9    7.962      28.188
2015    4       24    23  29    3.9688   366.9    7.972      28.207
2015    4       24    23  35    3.9726   366.8    7.983      28.225
2015    4       24    23  41    3.9763   366.8    7.993      28.244
2015    4       24    23  47    3.9800   366.8    8.004      28.262
2015    4       24    23  53    3.9838   366.7    8.014      28.280
2015    4       24    23  59    3.9875   366.7    8.025      28.299
2015    4       25     0   6    3.9913   366.7    8.035      28.317
2015    4       25     0  12    3.9951   366.6    8.046      28.336
2015    4       25     0  18    3.9989   366.6    8.056      28.354
2015    4       25     0  24    4.0027   366.6    8.067      28.373
2015    4       25     0  30    4.0065   366.5    8.078      28.391
2015    4       25     0  36    4.0104   366.5    8.088      28.410
2015    4       25     0  42    4.0143   366.5    8.099      28.429
2015    4       25     0  48    4.0182   366.4    8.110      28.448
2015    4       25     0  55    4.0221   366.4    8.121      28.467
2015    4       25     1   1    4.0260   366.4    8.132      28.487
2015    4       25     1   7    4.0300   366.3    8.142      28.507
2015    4       25     1  13    4.0339   366.3    8.153      28.527
2015    4       25     1  19    4.0378   366.3    8.164      28.548
2015    4       25     1  25    4.0417   366.3    8.174      28.568
2015    4       25     1  31    4.0456   366.2    8.185      28.589
2015    4       25     1  37    4.0495   366.2    8.196      28.610
2015    4       25     1  43    4.0534   366.2    8.206      28.631
2015    4       25     1  49    4.0573   366.2    8.217      28.652
2015    4       25     1  55    4.0611   366.2    8.227      28.673
2015    4       25     2   0    4.0650   366.1    8.238      28.694
2015    4       25     2   6    4.0690   366.1    8.248      28.715
2015    4       25     2  12    4.0729   366.1    8.259      28.736
2015    4       25     2  18    4.0769   366.1    8.270      28.758
2015    4       25     2  24    4.0809   366.1    8.280      28.780
2015    4       25     2  30    4.0849   366.1    8.291      28.801
2015    4       25     2  36    4.0889   366.0    8.302      28.823
2015    4       25     2  42    4.0929   366.0    8.314      28.846
2015    4       25     2  47    4.0969   366.0    8.325      28.868
2015    4       25     2  53    4.1010   366.0    8.336      28.891
2015    4       25     2  59    4.1050   366.0    8.347      28.914
2015    4       25     3   5    4.1090   366.0    8.359      28.938
2015    4       25     3  11    4.1131   366.0    8.370      28.962
2015    4       25     3  17    4.1171   366.0    8.382      28.987
2015    4       25     3  22    4.1211   366.0    8.393      29.012
2015    4       25     3  28    4.1251   366.0    8.404      29.038
2015    4       25     3  34    4.1290   366.0    8.415      29.063
2015    4       25     3  40    4.1330   366.0    8.427      29.089
2015    4       25     3  46    4.1370   366.0    8.438      29.115
2015    4       25     3  52    4.1409   366.0    8.449      29.141
2015    4       25     3  58    4.1449   366.0    8.460      29.167
2015    4       25     4   4    4.1488   366.0    8.472      29.193
2015    4       25     4   9    4.1528   366.0    8.483      29.220
2015    4       25     4  15    4.1567   366.0    8.494      29.246
2015    4       25     4  21    4.1606   366.0    8.505      29.272
2015    4       25     4  27    4.1645   366.0    8.517      29.298
2015    4       25     4  33    4.1683   366.0    8.528      29.325
2015    4       25     4  39    4.1722   366.0    8.539      29.351
2015    4       25     4  45    4.1760   366.0    8.551      29.378
2015    4       25     4  51    4.1798   366.0    8.562      29.405
2015    4       25     4  57    4.1836   366.0    8.573      29.432
2015    4       25     5   2    4.1873   366.0    8.584      29.460
2015    4       25     5   8    4.1910   366.0    8.595      29.488
2015    4       25     5  14    4.1947   366.1    8.605      29.517
2015    4       25     5  20    4.1984   366.1    8.616      29.546
2015    4       25     5  26    4.2021   366.1    8.627      29.575
2015    4       25     5  32    4.2057   366.1    8.637      29.604
2015    4       25     5  38    4.2093   366.1    8.647      29.633
2015    4       25     5  44    4.2129   366.1    8.657      29.661
2015    4       25     5  50    4.2165   366.1    8.667      29.689
2015    4       25     5  56    4.2200   366.2    8.677      29.718
2015    4       25     6   2    4.2236   366.2    8.686      29.746
2015    4       25     6   8    4.2271   366.2    8.696      29.773
2015    4       25     6  14    4.2307   366.2    8.706      29.801
2015    4       25     6  20    4.2342   366.2    8.715      29.829
2015    4       25     6  26    4.2378   366.2    8.724      29.856
2015    4       25     6  32    4.2413   366.2    8.734      29.883
2015    4       25     6  38    4.2448   366.3    8.743      29.910
2015    4       25     6  44    4.2483   366.3    8.752      29.937
2015    4       25     6  50    4.2518   366.3    8.761      29.964
2015    4       25     6  56    4.2553   366.3    8.770      29.990
2015    4       25     7   2    4.2588   366.3    8.779      30.017
2015    4       25     7   8    4.2622   366.3    8.788      30.044
2015    4       25     7  14    4.2657   366.4    8.797      30.070
2015    4       25     7  21    4.2692   366.4    8.805      30.097
2015    4       25     7  27    4.2726   366.4    8.814      30.124
2015    4       25     7  33    4.2761   366.4    8.822      30.150
2015    4       25     7  39    4.2795   366.4    8.831      30.177
2015    4       25     7  45    4.2830   366.4    8.839      30.203
2015    4       25     7  51    4.2864   366.5    8.848      30.230
2015    4       25     7  57    4.2898   366.5    8.856      30.256
2015    4       25     8   3    4.2932   366.5    8.864      30.283
2015    4       25     8  10    4.2966   366.5    8.872      30.310
2015    4       25     8  16    4.3000   366.5    8.880      30.336
2015    4       25     8  22    4.3033   366.6    8.888      30.363
2015    4       25     8  28    4.3067   366.6    8.895      30.389
2015    4       25     8  34    4.3100   366.6    8.903      30.415
2015    4       25     8  40    4.3133   366.6    8.911      30.442
2015    4       25     8  46    4.3166   366.6    8.918      30.468
2015    4       25     8  53    4.3199   366.7    8.925      30.493
2015    4       25     8  59    4.3232   366.7    8.932      30.519
2015    4       25     9   5    4.3265   366.7    8.940      30.544
2015    4       25     9  11    4.3297   366.7    8.947      30.569
2015    4       25     9  17    4.3330   366.7    8.954      30.594
2015    4       25     9  23    4.3362   366.8    8.961      30.619
2015    4       25     9  29    4.3395   366.8    8.967      30.643
2015    4       25     9  35    4.3427   366.8    8.974      30.668
2015    4       25     9  42    4.3459   366.8    8.981      30.692
2015    4       25     9  48    4.3491   366.8    8.987      30.716
2015    4       25     9  54    4.3524   366.9    8.994      30.740
2015    4       25    10   0    4.3556   366.9    9.001      30.764
2015    4       25    10   6    4.3587   366.9    9.007      30.788
2015    4       25    10  12    4.3619   366.9    9.014      30.812
2015    4       25    10  18    4.3651   366.9    9.020      30.835
2015    4       25    10  24    4.3683   366.9    9.027      30.859
2015    4       25    10  31    4.3715   367.0    9.033      30.882
2015    4       25    10  37    4.3747   367.0    9.040      30.906
2015    4       25    10  43    4.3779   367.0    9.046      30.929
2015    4       25    10  49    4.3811   367.0    9.053      30.953
2015    4       25    10  55    4.3843   367.0    9.059      30.976
2015    4       25    11   1    4.3875   367.1    9.066      31.000
2015    4       25    11   7    4.3907   367.1    9.073      31.023
2015    4       25    11  13    4.3940   367.1    9.080      31.047
2015    4       25    11  20    4.3972   367.1    9.086      31.071
2015    4       25    11  26    4.4005   367.1    9.093      31.095
2015    4       25    11  32    4.4037   367.1    9.100      31.119
2015    4       25    11  38    4.4070   367.2    9.108      31.143
2015    4       25    11  44    4.4103   367.2    9.115      31.167
2015    4       25    11  50    4.4136   367.2    9.123      31.192
2015    4       25    11  56    4.4169   367.2    9.130      31.216
2015    4       25    12   2    4.4202   367.2    9.138      31.241
2015    4       25    12   9    4.4235   367.2    9.146      31.267
2015    4       25    12  15    4.4267   367.3    9.154      31.293
2015    4       25    12  21    4.4300   367.3    9.162      31.320
2015    4       25    12  27    4.4332   367.3    9.170      31.348
2015    4       25    12  33    4.4364   367.4    9.177      31.378
2015    4       25    12  39    4.4396   367.4    9.185      31.407
2015    4       25    12  45    4.4427   367.4    9.193      31.438
2015    4       25    12  51    4.4458   367.5    9.200      31.469
2015    4       25    12  58    4.4489   367.5    9.207      31.501
2015    4       25    13   4    4.4520   367.5    9.214      31.532
2015    4       25    13  10    4.4550   367.6    9.222      31.564
2015    4       25    13  16    4.4580   367.6    9.228      31.595
2015    4       25    13  22    4.4609   367.6    9.235      31.626
2015    4       25    13  28    4.4638   367.7    9.242      31.656
2015    4       25    13  34    4.4666   367.7    9.248      31.687
2015    4       25    13  40    4.4695   367.7    9.254      31.717
2015    4       25    13  47    4.4723   367.8    9.260      31.747
2015    4       25    13  53    4.4750   367.8    9.266      31.777
2015    4       25    13  59    4.4777   367.9    9.272      31.806
2015    4       25    14   5    4.4804   367.9    9.278      31.836
2015    4       25    14  11    4.4831   367.9    9.283      31.865
2015    4       25    14  17    4.4857   368.0    9.288      31.895
2015    4       25    14  23    4.4883   368.0    9.294      31.924
2015    4       25    14  30    4.4909   368.1    9.299      31.953
2015    4       25    14  36    4.4935   368.1    9.304      31.982
2015    4       25    14  42    4.4960   368.1    9.308      32.010
2015    4       25    14  48    4.4985   368.2    9.313      32.039
2015    4       25    14  54    4.5011   368.2    9.318      32.067
2015    4       25    15   0    4.5035   368.3    9.322      32.095
2015    4       25    15   6    4.5060   368.3    9.326      32.122
2015    4       25    15  12    4.5084   368.3    9.331      32.150
2015    4       25    15  19    4.5108   368.4    9.335      32.177
2015    4       25    15  25    4.5133   368.4    9.339      32.204
2015    4       25    15  31    4.5156   368.4    9.343      32.230
2015    4       25    15  37    4.5180   368.5    9.347      32.257
2015    4       25    15  43    4.5204   368.5    9.351      32.283
2015    4       25    15  49    4.5228   368.6    9.354      32.308
2015    4       25    15  55    4.5251   368.6    9.358      32.334
2015    4       25    16   1    4.5275   368.6    9.362      32.359
2015    4       25    16   8    4.5298   368.7    9.365      32.384
2015    4       25    16  14    4.5321   368.7    9.369      32.409
2015    4       25    16  20    4.5345   368.7    9.373      32.433
2015    4       25    16  26    4.5368   368.8    9.376      32.458
2015    4       25    16  32    4.5391   368.8    9.380      32.482
2015    4       25    16  38    4.5414   368.9    9.383      32.506
2015    4       25    16  44    4.5437   368.9    9.386      32.529
2015    4       25    16  50    4.5460   368.9    9.390      32.553
2015    4       25    16  57    4.5483   369.0    9.393      32.576
2015    4       25    17   3    4.5506   369.0    9.397      32.600
2015    4       25    17   9    4.5529   369.0    9.400      32.623
2015    4       25    17  15    4.5552   369.1    9.404      32.646
2015    4       25    17  21    4.5575   369.1    9.407      32.669
2015    4       25    17  27    4.5599   369.1    9.411      32.691
2015    4       25    17  33    4.5622   369.2    9.414      32.714
2015    4       25    17  39    4.5645   369.2    9.418      32.737
2015    4       25    17  46    4.5669   369.2    9.421      32.761
2015    4       25    17  52    4.5692   369.3    9.425      32.784
2015    4       25    17  58    4.5715   369.3    9.429      32.808
2015    4       25    18   4    4.5739   369.3    9.432      32.832
2015    4       25    18  10    4.5762   369.4    9.436      32.856
2015    4       25    18  16    4.5786   369.4    9.439      32.880
2015    4       25    18  22    4.5809   369.5    9.443      32.905
2015    4       25    18  28    4.5832   369.5    9.446      32.929
2015    4       25    18  35    4.5855   369.5    9.449      32.953
2015    4       25    18  41    4.5878   369.6    9.452      32.976
2015    4       25    18  47    4.5900   369.6    9.455      32.999
2015    4       25    18  53    4.5923   369.6    9.458      33.022
2015    4       25    18  59    4.5945   369.7    9.461      33.045
2015    4       25    19   5    4.5968   369.7    9.464      33.068
2015    4       25    19  11    4.5990   369.8    9.467      33.090
2015    4       25    19  17    4.6012   369.8    9.470      33.112
2015    4       25    19  24    4.6034   369.8    9.472      33.134
2015    4       25    19  30    4.6055   369.9    9.475      33.156
2015    4       25    19  36    4.6077   369.9    9.477      33.178
2015    4       25    19  42    4.6098   369.9    9.480      33.199
2015    4       25    19  48    4.6119   370.0    9.482      33.221
2015    4       25    19  54    4.6139   370.0    9.485      33.243
2015    4       25    20   0    4.6160   370.1    9.487      33.265
2015    4       25    20   6    4.6180   370.1    9.489      33.287
2015    4       25    20  13    4.6199   370.2    9.491      33.309
2015    4       25    20  19    4.6219   370.2    9.493      33.331
2015    4       25    20  25    4.6238   370.2    9.495      33.354
2015    4       25    20  31    4.6256   370.3    9.496      33.376
2015    4       25    20  37    4.6275   370.3    9.498      33.398
2015    4       25    20  43    4.6293   370.4    9.499      33.420
2015    4       25    20  49    4.6310   370.4    9.501      33.442
2015    4       25    20  56    4.6328   370.5    9.502      33.463
2015    4       25    21   2    4.6345   370.5    9.503      33.484
2015    4       25    21   8    4.6362   370.6    9.504      33.505
2015    4       25    21  14    4.6378   370.6    9.505      33.525
2015    4       25    21  20    4.6394   370.7    9.505      33.545
2015    4       25    21  26    4.6410   370.7    9.506      33.565
2015    4       25    21  32    4.6426   370.8    9.506      33.584
2015    4       25    21  38    4.6441   370.8    9.507      33.603
2015    4       25    21  45    4.6456   370.9    9.507      33.622
2015    4       25    21  51    4.6471   370.9    9.507      33.640
2015    4       25    21  57    4.6486   371.0    9.507      33.658
2015    4       25    22   3    4.6501   371.0    9.508      33.676
2015    4       25    22   9    4.6515   371.1    9.508      33.694
2015    4       25    22  15    4.6530   371.1    9.508      33.711
2015    4       25    22  21    4.6544   371.2    9.508      33.728
2015    4       25    22  27    4.6558   371.3    9.507      33.745
2015    4       25    22  34    4.6572   371.3    9.507      33.762
2015    4       25    22  40    4.6585   371.4    9.507      33.779
2015    4       25    22  46    4.6599   371.4    9.507      33.795
2015    4       25    22  52    4.6613   371.5    9.507      33.811
2015    4       25    22  58    4.6626   371.5    9.507      33.827
2015    4       25    23   4    4.6640   371.6    9.506      33.843
2015    4       25    23  10    4.6654   371.6    9.506      33.859
2015    4       25    23  16    4.6667   371.7    9.506      33.874
2015    4       25    23  23    4.6680   371.7    9.506      33.890
2015    4       25    23  29    4.6694   371.8    9.505      33.905
2015    4       25    23  35    4.6707   371.8    9.505      33.920
2015    4       25    23  41    4.6721   371.9    9.505      33.935
2015    4       25    23  47    4.6734   371.9    9.505      33.950
2015    4       25    23  53    4.6748   372.0    9.505      33.965
2015    4       25    23  59    4.6761   372.0    9.505      33.980
2015    4       26     0   5    4.6775   372.1    9.505      33.995
2015    4       26     0  12    4.6789   372.1    9.505      34.010
2015    4       26     0  18    4.6802   372.2    9.505      34.025
2015    4       26     0  24    4.6816   372.2    9.506      34.040
2015    4       26     0  30    4.6830   372.3    9.506      34.056
2015    4       26     0  36    4.6844   372.3    9.507      34.071
2015    4       26     0  42    4.6858   372.4    9.508      34.087
2015    4       26     0  48    4.6871   372.4    9.508      34.103
2015    4       26     0  54    4.6886   372.5    9.509      34.120
2015    4       26     1   1    4.6900   372.5    9.510      34.137
2015    4       26     1   7    4.6914   372.6    9.511      34.155
2015    4       26     1  13    4.6928   372.6    9.512      34.173
2015    4       26     1  19    4.6943   372.7    9.513      34.192
2015    4       26     1  25    4.6957   372.8    9.515      34.211
2015    4       26     1  31    4.6972   372.8    9.516      34.230
2015    4       26     1  37    4.6986   372.9    9.517      34.250
2015    4       26     1  43    4.7000   372.9    9.518      34.270
2015    4       26     1  50    4.7014   373.0    9.519      34.289
2015    4       26     1  56    4.7028   373.1    9.520      34.308
2015    4       26     2   2    4.7042   373.1    9.521      34.328
2015    4       26     2   8    4.7055   373.2    9.522      34.348
2015    4       26     2  14    4.7068   373.3    9.523      34.368
2015    4       26     2  20    4.7080   373.3    9.523      34.389
2015    4       26     2  26    4.7092   373.4    9.524      34.410
2015    4       26     2  33    4.7104   373.5    9.524      34.432
2015    4       26     2  39    4.7115   373.5    9.524      34.453
2015    4       26     2  45    4.7126   373.6    9.524      34.475
2015    4       26     2  51    4.7136   373.7    9.523      34.496
2015    4       26     2  57    4.7146   373.7    9.523      34.517
2015    4       26     3   3    4.7155   373.8    9.522      34.538
2015    4       26     3   9    4.7164   373.9    9.521      34.558
2015    4       26     3  15    4.7173   373.9    9.520      34.577
2015    4       26     3  22    4.7181   374.0    9.519      34.596
2015    4       26     3  28    4.7189   374.1    9.517      34.614
2015    4       26     3  34    4.7196   374.2    9.516      34.633
2015    4       26     3  40    4.7204   374.2    9.514      34.650
2015    4       26     3  46    4.7210   374.3    9.512      34.667
2015    4       26     3  52    4.7217   374.4    9.510      34.684
2015    4       26     3  58    4.7223   374.4    9.507      34.700
2015    4       26     4   4    4.7229   374.5    9.505      34.715
2015    4       26     4  11    4.7235   374.6    9.502      34.730
2015    4       26     4  17    4.7241   374.7    9.499      34.745
2015    4       26     4  23    4.7246   374.7    9.497      34.759
2015    4       26     4  29    4.7251   374.8    9.494      34.773
2015    4       26     4  35    4.7256   374.9    9.491      34.787
2015    4       26     4  41    4.7261   374.9    9.488      34.800
2015    4       26     4  47    4.7265   375.0    9.484      34.813
2015    4       26     4  53    4.7270   375.1    9.481      34.825
2015    4       26     5   0    4.7274   375.2    9.477      34.837
2015    4       26     5   6    4.7278   375.2    9.474      34.849
2015    4       26     5  12    4.7282   375.3    9.470      34.861
2015    4       26     5  18    4.7286   375.4    9.467      34.872
2015    4       26     5  24    4.7290   375.5    9.463      34.883
2015    4       26     5  30    4.7293   375.5    9.459      34.894
2015    4       26     5  36    4.7297   375.6    9.455      34.905
2015    4       26     5  42    4.7300   375.7    9.451      34.915
2015    4       26     5  49    4.7303   375.8    9.447      34.926
2015    4       26     5  55    4.7306   375.9    9.443      34.936
2015    4       26     6   1    4.7310   375.9    9.439      34.946
2015    4       26     6   7    4.7313   376.0    9.435      34.956
2015    4       26     6  13    4.7316   376.1    9.431      34.965
2015    4       26     6  19    4.7319   376.2    9.427      34.975
2015    4       26     6  25    4.7322   376.2    9.423      34.984
2015    4       26     6  31    4.7324   376.3    9.419      34.994
2015    4       26     6  38    4.7327   376.4    9.415      35.003
2015    4       26     6  44    4.7330   376.5    9.411      35.012
2015    4       26     6  50    4.7333   376.6    9.407      35.022
2015    4       26     6  56    4.7336   376.6    9.403      35.031
2015    4       26     7   2    4.7338   376.7    9.399      35.040
2015    4       26     7   8    4.7341   376.8    9.395      35.049
2015    4       26     7  14    4.7344   376.9    9.391      35.059
2015    4       26     7  20    4.7346   377.0    9.387      35.068
2015    4       26     7  27    4.7348   377.0    9.383      35.078
2015    4       26     7  33    4.7350   377.1    9.379      35.088
2015    4       26     7  39    4.7352   377.2    9.375      35.099
2015    4       26     7  45    4.7354   377.3    9.371      35.110
2015    4       26     7  51    4.7355   377.4    9.367      35.121
2015    4       26     7  57    4.7357   377.4    9.363      35.133
2015    4       26     8   3    4.7358   377.5    9.359      35.145
2015    4       26     8  10    4.7359   377.6    9.355      35.157
2015    4       26     8  16    4.7359   377.7    9.350      35.169
2015    4       26     8  22    4.7359   377.8    9.346      35.182
2015    4       26     8  28    4.7360   377.9    9.342      35.194
2015    4       26     8  34    4.7359   378.0    9.338      35.207
2015    4       26     8  40    4.7359   378.1    9.333      35.219
2015    4       26     8  46    4.7359   378.1    9.329      35.232
2015    4       26     8  52    4.7358   378.2    9.324      35.244
2015    4       26     8  59    4.7357   378.3    9.320      35.257
2015    4       26     9   5    4.7356   378.4    9.315      35.269
2015    4       26     9  11    4.7354   378.5    9.311      35.281
2015    4       26     9  17    4.7352   378.6    9.306      35.294
2015    4       26     9  23    4.7350   378.7    9.302      35.306
2015    4       26     9  29    4.7348   378.8    9.297      35.320
2015    4       26     9  35    4.7345   378.9    9.292      35.334
2015    4       26     9  41    4.7341   379.0    9.287      35.348
2015    4       26     9  48    4.7337   379.1    9.282      35.363
2015    4       26     9  54    4.7333   379.1    9.277      35.378
2015    4       26    10   0    4.7329   379.2    9.272      35.394
2015    4       26    10   6    4.7324   379.3    9.266      35.409
2015    4       26    10  12    4.7318   379.4    9.260      35.424
2015    4       26    10  18    4.7313   379.5    9.254      35.438
2015    4       26    10  24    4.7306   379.6    9.248      35.453
2015    4       26    10  30    4.7299   379.7    9.242      35.467
2015    4       26    10  37    4.7292   379.8    9.235      35.480
2015    4       26    10  43    4.7285   379.9    9.229      35.493
2015    4       26    10  49    4.7277   380.0    9.222      35.506
2015    4       26    10  55    4.7269   380.1    9.215      35.518
2015    4       26    11   1    4.7260   380.2    9.208      35.530
2015    4       26    11   7    4.7252   380.3    9.201      35.541
2015    4       26    11  13    4.7242   380.4    9.194      35.552
2015    4       26    11  19    4.7233   380.5    9.186      35.563
2015    4       26    11  26    4.7223   380.6    9.179      35.573
2015    4       26    11  32    4.7214   380.7    9.171      35.583
2015    4       26    11  38    4.7203   380.8    9.163      35.593
2015    4       26    11  44    4.7193   380.9    9.156      35.602
2015    4       26    11  50    4.7182   380.9    9.148      35.611
2015    4       26    11  56    4.7172   381.0    9.140      35.619
2015    4       26    12   2    4.7160   381.1    9.132      35.627
2015    4       26    12   9    4.7149   381.2    9.123      35.635
2015    4       26    12  15    4.7137   381.3    9.115      35.642
2015    4       26    12  21    4.7126   381.4    9.107      35.650
2015    4       26    12  27    4.7113   381.5    9.098      35.656
2015    4       26    12  33    4.7101   381.6    9.090      35.663
2015    4       26    12  39    4.7088   381.7    9.081      35.669
2015    4       26    12  45    4.7076   381.8    9.073      35.675
2015    4       26    12  51    4.7062   381.9    9.064      35.681
2015    4       26    12  58    4.7049   382.0    9.055      35.686
2015    4       26    13   4    4.7035   382.1    9.046      35.691
2015    4       26    13  10    4.7022   382.2    9.037      35.696
2015    4       26    13  16    4.7008   382.3    9.028      35.701
2015    4       26    13  22    4.6993   382.4    9.019      35.706
2015    4       26    13  28    4.6979   382.5    9.010      35.710
2015    4       26    13  34    4.6964   382.6    9.001      35.714
2015    4       26    13  40    4.6949   382.7    8.992      35.718
2015    4       26    13  47    4.6934   382.7    8.983      35.721
2015    4       26    13  53    4.6918   382.8    8.974      35.725
2015    4       26    13  59    4.6902   382.9    8.964      35.728
2015    4       26    14   5    4.6887   383.0    8.955      35.731
2015    4       26    14  11    4.6871   383.1    8.946      35.734
2015    4       26    14  17    4.6854   383.2    8.936      35.736
2015    4       26    14  23    4.6837   383.3    8.927      35.739
2015    4       26    14  29    4.6820   383.4    8.917      35.741
2015    4       26    14  36    4.6803   383.5    8.908      35.743
2015    4       26    14  42    4.6786   383.6    8.898      35.745
2015    4       26    14  48    4.6768   383.7    8.889      35.748
2015    4       26    14  54    4.6749   383.8    8.879      35.750
2015    4       26    15   0    4.6731   383.9    8.869      35.753
2015    4       26    15   6    4.6712   384.0    8.859      35.755
2015    4       26    15  12    4.6693   384.1    8.849      35.758
2015    4       26    15  18    4.6673   384.2    8.839      35.761
2015    4       26    15  25    4.6653   384.3    8.829      35.763
2015    4       26    15  31    4.6633   384.4    8.819      35.765
2015    4       26    15  37    4.6612   384.5    8.808      35.766
2015    4       26    15  43    4.6591   384.6    8.797      35.767
2015    4       26    15  49    4.6570   384.7    8.787      35.768
2015    4       26    15  55    4.6547   384.8    8.776      35.769
2015    4       26    16   1    4.6525   384.9    8.765      35.769
2015    4       26    16   7    4.6503   384.9    8.754      35.768
2015    4       26    16  14    4.6480   385.0    8.743      35.768
2015    4       26    16  20    4.6456   385.1    8.731      35.767
2015    4       26    16  26    4.6433   385.2    8.720      35.765
2015    4       26    16  32    4.6409   385.3    8.708      35.763
2015    4       26    16  38    4.6384   385.4    8.697      35.761
2015    4       26    16  44    4.6360   385.5    8.685      35.758
2015    4       26    16  50    4.6335   385.6    8.673      35.755
2015    4       26    16  56    4.6310   385.7    8.661      35.752
2015    4       26    17   3    4.6284   385.8    8.650      35.748
2015    4       26    17   9    4.6258   385.9    8.637      35.744
2015    4       26    17  15    4.6232   386.0    8.625      35.739
2015    4       26    17  21    4.6206   386.0    8.613      35.734
2015    4       26    17  27    4.6180   386.1    8.601      35.729
2015    4       26    17  33    4.6153   386.2    8.589      35.723
2015    4       26    17  39    4.6126   386.3    8.576      35.717
2015    4       26    17  46    4.6098   386.4    8.564      35.710
2015    4       26    17  52    4.6071   386.5    8.551      35.703
2015    4       26    17  58    4.6043   386.6    8.539      35.696
2015    4       26    18   4    4.6015   386.7    8.526      35.688
2015    4       26    18  10    4.5987   386.7    8.514      35.680
2015    4       26    18  16    4.5959   386.8    8.501      35.671
2015    4       26    18  22    4.5930   386.9    8.488      35.662
2015    4       26    18  28    4.5901   387.0    8.475      35.653
2015    4       26    18  35    4.5872   387.1    8.462      35.644
2015    4       26    18  41    4.5842   387.2    8.450      35.634
2015    4       26    18  47    4.5813   387.2    8.437      35.624
2015    4       26    18  53    4.5783   387.3    8.424      35.614
2015    4       26    18  59    4.5753   387.4    8.411      35.603
2015    4       26    19   5    4.5723   387.5    8.398      35.592
2015    4       26    19  11    4.5692   387.6    8.384      35.581
2015    4       26    19  17    4.5661   387.6    8.371      35.569
2015    4       26    19  24    4.5630   387.7    8.358      35.557
2015    4       26    19  30    4.5598   387.8    8.345      35.544
2015    4       26    19  36    4.5567   387.9    8.332      35.531
2015    4       26    19  42    4.5534   387.9    8.318      35.517
2015    4       26    19  48    4.5502   388.0    8.305      35.503
2015    4       26    19  54    4.5469   388.1    8.292      35.488
2015    4       26    20   0    4.5436   388.1    8.278      35.473
2015    4       26    20   6    4.5403   388.2    8.265      35.458
2015    4       26    20  13    4.5370   388.3    8.252      35.442
2015    4       26    20  19    4.5336   388.4    8.238      35.425
2015    4       26    20  25    4.5302   388.4    8.225      35.408
2015    4       26    20  31    4.5267   388.5    8.211      35.391
2015    4       26    20  37    4.5233   388.6    8.198      35.373
2015    4       26    20  43    4.5198   388.6    8.184      35.356
2015    4       26    20  49    4.5163   388.7    8.171      35.337
2015    4       26    20  55    4.5127   388.8    8.157      35.319
2015    4       26    21   2    4.5091   388.8    8.144      35.301
2015    4       26    21   8    4.5056   388.9    8.130      35.282
2015    4       26    21  14    4.5020   388.9    8.117      35.263
2015    4       26    21  20    4.4984   389.0    8.103      35.244
2015    4       26    21  26    4.4947   389.1    8.090      35.224
2015    4       26    21  32    4.4910   389.1    8.076      35.205
2015    4       26    21  38    4.4874   389.2    8.063      35.185
2015    4       26    21  44    4.4837   389.3    8.049      35.165
2015    4       26    21  51    4.4799   389.3    8.035      35.145
2015    4       26    21  57    4.4762   389.4    8.022      35.124
2015    4       26    22   3    4.4725   389.4    8.008      35.103
2015    4       26    22   9    4.4687   389.5    7.995      35.082
2015    4       26    22  15    4.4649   389.5    7.981      35.060
2015    4       26    22  21    4.4611   389.6    7.967      35.038
2015    4       26    22  27    4.4573   389.7    7.954      35.016
2015    4       26    22  33    4.4535   389.7    7.940      34.993
2015    4       26    22  40    4.4496   389.8    7.927      34.970
2015    4       26    22  46    4.4458   389.8    7.913      34.947
2015    4       26    22  52    4.4419   389.9    7.899      34.923
2015    4       26    22  58    4.4380   389.9    7.886      34.899
2015    4       26    23   4    4.4341   390.0    7.872      34.874
2015    4       26    23  10    4.4302   390.0    7.858      34.850
2015    4       26    23  16    4.4263   390.1    7.845      34.824
2015    4       26    23  23    4.4224   390.1    7.831      34.799
2015    4       26    23  29    4.4185   390.2    7.818      34.773
2015    4       26    23  35    4.4146   390.2    7.804      34.746
2015    4       26    23  41    4.4107   390.3    7.791      34.719
2015    4       26    23  47    4.4067   390.3    7.778      34.691
2015    4       26    23  53    4.4028   390.3    7.764      34.663
2015    4       26    23  59    4.3989   390.4    7.751      34.635
2015    4       27     0   5    4.3949   390.4    7.738      34.606
2015    4       27     0  12    4.3910   390.4    7.725      34.576
2015    4       27     0  18    4.3870   390.5    7.712      34.546
2015    4       27     0  24    4.3831   390.5    7.699      34.516
2015    4       27     0  30    4.3791   390.5    7.686      34.485
2015    4       27     0  36    4.3752   390.6    7.673      34.454
2015    4       27     0  42    4.3712   390.6    7.660      34.422
2015    4       27     0  48    4.3673   390.6    7.648      34.390
2015    4       27     0  54    4.3633   390.7    7.635      34.358
2015    4       27     1   1    4.3594   390.7    7.623      34.325
2015    4       27     1   7    4.3554   390.7    7.610      34.293
2015    4       27     1  13    4.3514   390.7    7.598      34.260
2015    4       27     1  19    4.3475   390.8    7.586      34.227
2015    4       27     1  25    4.3436   390.8    7.574      34.193
2015    4       27     1  31    4.3396   390.8    7.562      34.160
2015    4       27     1  37    4.3357   390.8    7.550      34.127
2015    4       27     1  43    4.3318   390.9    7.538      34.094
2015    4       27     1  50    4.3279   390.9    7.527      34.062
2015    4       27     1  56    4.3240   390.9    7.515      34.029
2015    4       27     2   2    4.3201   390.9    7.504      33.997
2015    4       27     2   8    4.3162   390.9    7.492      33.964
2015    4       27     2  14    4.3123   391.0    7.481      33.932
2015    4       27     2  20    4.3084   391.0    7.470      33.900
2015    4       27     2  26    4.3045   391.0    7.459      33.867
2015    4       27     2  32    4.3006   391.0    7.448      33.835
2015    4       27     2  39    4.2967   391.0    7.437      33.803
2015    4       27     2  45    4.2928   391.1    7.426      33.771
2015    4       27     2  51    4.2889   391.1    7.415      33.738
2015    4       27     2  57    4.2850   391.1    7.404      33.706
2015    4       27     3   3    4.2810   391.1    7.393      33.673
2015    4       27     3   9    4.2770   391.1    7.382      33.639
2015    4       27     3  15    4.2731   391.1    7.371      33.606
2015    4       27     3  21    4.2691   391.1    7.360      33.572
2015    4       27     3  28    4.2651   391.1    7.349      33.537
2015    4       27     3  34    4.2611   391.2    7.338      33.502
2015    4       27     3  40    4.2571   391.2    7.327      33.467
2015    4       27     3  46    4.2531   391.2    7.317      33.432
2015    4       27     3  52    4.2491   391.2    7.306      33.396
2015    4       27     3  58    4.2450   391.2    7.295      33.360
2015    4       27     4   4    4.2410   391.2    7.285      33.323
2015    4       27     4  10    4.2370   391.2    7.274      33.287
2015    4       27     4  17    4.2330   391.2    7.263      33.250
2015    4       27     4  23    4.2290   391.2    7.253      33.213
2015    4       27     4  29    4.2249   391.2    7.242      33.176
2015    4       27     4  35    4.2209   391.2    7.232      33.139
2015    4       27     4  41    4.2169   391.2    7.221      33.101
2015    4       27     4  47    4.2129   391.1    7.211      33.063
2015    4       27     4  53    4.2089   391.1    7.201      33.025
2015    4       27     5   0    4.2049   391.1    7.191      32.987
2015    4       27     5   6    4.2009   391.1    7.181      32.949
2015    4       27     5  12    4.1969   391.1    7.171      32.910
2015    4       27     5  18    4.1929   391.1    7.161      32.871
2015    4       27     5  24    4.1890   391.1    7.151      32.832
2015    4       27     5  30    4.1850   391.1    7.141      32.793
2015    4       27     5  36    4.1810   391.1    7.132      32.753
2015    4       27     5  42    4.1771   391.1    7.122      32.714
2015    4       27     5  49    4.1731   391.1    7.113      32.674
2015    4       27     5  55    4.1692   391.0    7.103      32.634
2015    4       27     6   1    4.1653   391.0    7.094      32.594
2015    4       27     6   7    4.1614   391.0    7.085      32.554
2015    4       27     6  13    4.1575   391.0    7.076      32.515
2015    4       27     6  19    4.1536   391.0    7.067      32.475
2015    4       27     6  25    4.1498   391.0    7.058      32.435
2015    4       27     6  31    4.1460   390.9    7.049      32.395
2015    4       27     6  38    4.1421   390.9    7.041      32.355
2015    4       27     6  44    4.1383   390.9    7.033      32.315
2015    4       27     6  50    4.1346   390.9    7.024      32.276
2015    4       27     6  56    4.1308   390.8    7.016      32.236
2015    4       27     7   2    4.1271   390.8    7.008      32.196
2015    4       27     7   8    4.1234   390.8    7.000      32.156
2015    4       27     7  14    4.1197   390.8    6.992      32.116
2015    4       27     7  20    4.1160   390.7    6.985      32.076
2015    4       27     7  27    4.1124   390.7    6.977      32.036
2015    4       27     7  33    4.1087   390.7    6.970      31.997
2015    4       27     7  39    4.1051   390.6    6.962      31.957
2015    4       27     7  45    4.1015   390.6    6.955      31.918
2015    4       27     7  51    4.0979   390.6    6.948      31.879
2015    4       27     7  57    4.0943   390.5    6.941      31.840
2015    4       27     8   3    4.0908   390.5    6.934      31.801
2015    4       27     8   9    4.0873   390.4    6.927      31.762
2015    4       27     8  16    4.0837   390.4    6.920      31.723
2015    4       27     8  22    4.0803   390.4    6.913      31.684
2015    4       27     8  28    4.0768   390.3    6.907      31.645
2015    4       27     8  34    4.0733   390.3    6.900      31.607
2015    4       27     8  40    4.0699   390.2    6.894      31.569
2015    4       27     8  46    4.0665   390.2    6.888      31.531
2015    4       27     8  52    4.0631   390.1    6.882      31.493
2015    4       27     8  58    4.0598   390.1    6.876      31.456
2015    4       27     9   5    4.0565   390.0    6.870      31.419
2015    4       27     9  11    4.0532   390.0    6.864      31.382
2015    4       27     9  17    4.0499   390.0    6.859      31.346
2015    4       27     9  23    4.0467   389.9    6.853      31.310
2015    4       27     9  29    4.0435   389.9    6.848      31.275
2015    4       27     9  35    4.0403   389.8    6.842      31.240
2015    4       27     9  41    4.0371   389.8    6.837      31.205
2015    4       27     9  47    4.0340   389.7    6.832      31.171
2015    4       27     9  54    4.0309   389.7    6.827      31.137
2015    4       27    10   0    4.0277   389.6    6.822      31.103
2015    4       27    10   6    4.0246   389.6    6.817      31.069
2015    4       27    10  12    4.0215   389.6    6.812      31.036
2015    4       27    10  18    4.0184   389.5    6.807      31.003
2015    4       27    10  24    4.0153   389.5    6.802      30.970
2015    4       27    10  30    4.0123   389.4    6.797      30.937
2015    4       27    10  37    4.0092   389.4    6.792      30.904
2015    4       27    10  43    4.0061   389.3    6.787      30.870
2015    4       27    10  49    4.0031   389.3    6.782      30.837
2015    4       27    10  55    4.0000   389.2    6.778      30.803
2015    4       27    11   1    3.9970   389.2    6.773      30.770
2015    4       27    11   7    3.9940   389.1    6.768      30.736
2015    4       27    11  13    3.9910   389.1    6.763      30.702
2015    4       27    11  19    3.9880   389.0    6.759      30.668
2015    4       27    11  26    3.9850   388.9    6.754      30.634
2015    4       27    11  32    3.9820   388.9    6.749      30.600
2015    4       27    11  38    3.9791   388.8    6.745      30.565
2015    4       27    11  44    3.9761   388.8    6.740      30.531
2015    4       27    11  50    3.9732   388.7    6.735      30.496
2015    4       27    11  56    3.9702   388.7    6.731      30.461
2015    4       27    12   2    3.9673   388.6    6.727      30.426
2015    4       27    12   8    3.9644   388.5    6.722      30.391
2015    4       27    12  15    3.9615   388.5    6.718      30.355
2015    4       27    12  21    3.9586   388.4    6.714      30.320
2015    4       27    12  27    3.9557   388.3    6.710      30.284
2015    4       27    12  33    3.9529   388.3    6.706      30.248
2015    4       27    12  39    3.9500   388.2    6.702      30.213
2015    4       27    12  45    3.9472   388.1    6.698      30.177
2015    4       27    12  51    3.9444   388.1    6.694      30.141
2015    4       27    12  57    3.9416   388.0    6.691      30.106
2015    4       27    13   4    3.9388   387.9    6.687      30.070
2015    4       27    13  10    3.9361   387.9    6.684      30.035
2015    4       27    13  16    3.9333   387.8    6.681      30.000
2015    4       27    13  22    3.9306   387.7    6.678      29.965
2015    4       27    13  28    3.9280   387.7    6.675      29.930
2015    4       27    13  34    3.9253   387.6    6.672      29.896
2015    4       27    13  40    3.9227   387.5    6.669      29.862
2015    4       27    13  46    3.9201   387.5    6.667      29.828
2015    4       27    13  53    3.9176   387.4    6.664      29.795
2015    4       27    13  59    3.9150   387.3    6.662      29.762
2015    4       27    14   5    3.9125   387.2    6.660      29.729
2015    4       27    14  11    3.9101   387.2    6.658      29.697
2015    4       27    14  17    3.9076   387.1    6.656      29.665
2015    4       27    14  23    3.9052   387.0    6.654      29.634
2015    4       27    14  29    3.9029   387.0    6.653      29.602
2015    4       27    14  35    3.9005   386.9    6.651      29.572
2015    4       27    14  42    3.8982   386.8    6.650      29.542
2015    4       27    14  48    3.8959   386.7    6.648      29.512
2015    4       27    14  54    3.8936   386.7    6.647      29.483
2015    4       27    15   0    3.8914   386.6    6.645      29.455
2015    4       27    15   6    3.8892   386.5    6.644      29.427
2015    4       27    15  12    3.8870   386.4    6.643      29.399
2015    4       27    15  18    3.8848   386.4    6.642      29.372
2015    4       27    15  24    3.8826   386.3    6.641      29.344
2015    4       27    15  31    3.8805   386.2    6.640      29.317
2015    4       27    15  37    3.8784   386.1    6.639      29.290
2015    4       27    15  43    3.8763   386.1    6.638      29.264
2015    4       27    15  49    3.8743   386.0    6.637      29.237
2015    4       27    15  55    3.8722   385.9    6.636      29.210
2015    4       27    16   1    3.8702   385.8    6.635      29.184
2015    4       27    16   7    3.8682   385.8    6.634      29.157
2015    4       27    16  14    3.8662   385.7    6.633      29.131
2015    4       27    16  20    3.8642   385.6    6.632      29.105
2015    4       27    16  26    3.8623   385.5    6.631      29.079
2015    4       27    16  32    3.8604   385.5    6.630      29.052
2015    4       27    16  38    3.8584   385.4    6.629      29.026
2015    4       27    16  44    3.8565   385.3    6.628      29.000
2015    4       27    16  50    3.8547   385.2    6.627      28.974
2015    4       27    16  56    3.8528   385.1    6.627      28.948
2015    4       27    17   3    3.8510   385.1    6.626      28.922
2015    4       27    17   9    3.8491   385.0    6.625      28.895
2015    4       27    17  15    3.8473   384.9    6.624      28.869
2015    4       27    17  21    3.8455   384.8    6.623      28.843
2015    4       27    17  27    3.8438   384.7    6.622      28.817
2015    4       27    17  33    3.8420   384.7    6.621      28.791
2015    4       27    17  39    3.8403   384.6    6.620      28.765
2015    4       27    17  45    3.8386   384.5    6.619      28.739
2015    4       27    17  52    3.8369   384.4    6.618      28.713
2015    4       27    17  58    3.8352   384.3    6.617      28.687
2015    4       27    18   4    3.8335   384.3    6.616      28.661
2015    4       27    18  10    3.8319   384.2    6.615      28.635
2015    4       27    18  16    3.8303   384.1    6.614      28.609
2015    4       27    18  22    3.8287   384.0    6.613      28.583
2015    4       27    18  28    3.8271   383.9    6.612      28.557
2015    4       27    18  34    3.8255   383.9    6.610      28.531
2015    4       27    18  41    3.8239   383.8    6.609      28.506
2015    4       27    18  47    3.8224   383.7    6.608      28.480
2015    4       27    18  53    3.8209   383.6    6.607      28.454
2015    4       27    18  59    3.8194   383.5    6.606      28.428
2015    4       27    19   5    3.8179   383.5    6.605      28.402
2015    4       27    19  11    3.8164   383.4    6.604      28.377
2015    4       27    19  17    3.8149   383.3    6.603      28.351
2015    4       27    19  23    3.8134   383.2    6.601      28.325
2015    4       27    19  30    3.8120   383.1    6.600      28.299
2015    4       27    19  36    3.8105   383.0    6.599      28.274
2015    4       27    19  42    3.8091   383.0    6.598      28.248
2015    4       27    19  48    3.8076   382.9    6.597      28.223
2015    4       27    19  54    3.8062   382.8    6.596      28.197
2015    4       27    20   0    3.8048   382.7    6.594      28.171
2015    4       27    20   6    3.8034   382.6    6.593      28.146
2015    4       27    20  12    3.8020   382.5    6.592      28.120
2015    4       27    20  19    3.8006   382.5    6.591      28.095
2015    4       27    20  25    3.7992   382.4    6.590      28.070
2015    4       27    20  31    3.7978   382.3    6.589      28.044
2015    4       27    20  37    3.7965   382.2    6.588      28.019
2015    4       27    20  43    3.7952   382.1    6.587      27.994
2015    4       27    20  49    3.7938   382.0    6.586      27.969
2015    4       27    20  55    3.7925   382.0    6.585      27.944
2015    4       27    21   2    3.7912   381.9    6.584      27.919
2015    4       27    21   8    3.7899   381.8    6.584      27.895
2015    4       27    21  14    3.7886   381.7    6.583      27.870
2015    4       27    21  20    3.7873   381.6    6.582      27.846
2015    4       27    21  26    3.7861   381.5    6.581      27.821
2015    4       27    21  32    3.7848   381.4    6.581      27.797
2015    4       27    21  38    3.7836   381.4    6.580      27.773
2015    4       27    21  44    3.7824   381.3    6.580      27.749
2015    4       27    21  51    3.7812   381.2    6.579      27.726
2015    4       27    21  57    3.7801   381.1    6.579      27.702
2015    4       27    22   3    3.7789   381.0    6.578      27.679
2015    4       27    22   9    3.7777   380.9    6.578      27.656
2015    4       27    22  15    3.7766   380.8    6.578      27.633
2015    4       27    22  21    3.7755   380.8    6.578      27.610
2015    4       27    22  27    3.7744   380.7    6.577      27.587
2015    4       27    22  33    3.7733   380.6    6.577      27.564
2015    4       27    22  40    3.7722   380.5    6.577      27.542
2015    4       27    22  46    3.7712   380.4    6.577      27.520
2015    4       27    22  52    3.7701   380.3    6.577      27.497
2015    4       27    22  58    3.7691   380.2    6.577      27.475
2015    4       27    23   4    3.7681   380.2    6.577      27.453
2015    4       27    23  10    3.7671   380.1    6.577      27.432
2015    4       27    23  16    3.7661   380.0    6.577      27.410
2015    4       27    23  22    3.7651   379.9    6.578      27.389
2015    4       27    23  29    3.7641   379.8    6.578      27.367
2015    4       27    23  35    3.7632   379.7    6.578      27.346
2015    4       27    23  41    3.7622   379.6    6.578      27.325
2015    4       27    23  47    3.7613   379.5    6.579      27.304
2015    4       27    23  53    3.7604   379.5    6.579      27.283
2015    4       27    23  59    3.7595   379.4    6.579      27.262
2015    4       28     0   5    3.7586   379.3    6.580      27.241
2015    4       28     0  11    3.7577   379.2    6.580      27.221
2015    4       28     0  18    3.7569   379.1    6.581      27.201
2015    4       28     0  24    3.7560   379.0    6.581      27.180
2015    4       28     0  30    3.7552   378.9    6.582      27.160
2015    4       28     0  36    3.7544   378.8    6.583      27.140
2015    4       28     0  42    3.7536   378.7    6.583      27.120
2015    4       28     0  48    3.7529   378.6    6.584      27.101
2015    4       28     0  54    3.7521   378.5    6.585      27.081
2015    4       28     1   0    3.7514   378.5    6.586      27.062
2015    4       28     1   7    3.7508   378.4    6.587      27.043
2015    4       28     1  13    3.7501   378.3    6.588      27.024
2015    4       28     1  19    3.7494   378.2    6.589      27.005
2015    4       28     1  25    3.7489   378.1    6.590      26.986
2015    4       28     1  31    3.7483   378.0    6.591      26.968
2015    4       28     1  37    3.7477   377.9    6.592      26.950
2015    4       28     1  43    3.7472   377.8    6.594      26.931
2015    4       28     1  49    3.7466   377.7    6.595      26.914
2015    4       28     1  56    3.7462   377.6    6.596      26.896
2015    4       28     2   2    3.7457   377.5    6.598      26.878
2015    4       28     2   8    3.7453   377.4    6.599      26.861
2015    4       28     2  14    3.7448   377.4    6.601      26.844
2015    4       28     2  20    3.7444   377.3    6.602      26.826
2015    4       28     2  26    3.7441   377.2    6.604      26.809
2015    4       28     2  32    3.7437   377.1    6.606      26.793
2015    4       28     2  39    3.7433   377.0    6.607      26.776
2015    4       28     2  45    3.7430   376.9    6.609      26.759
2015    4       28     2  51    3.7427   376.8    6.611      26.743
2015    4       28     2  57    3.7424   376.7    6.613      26.726
2015    4       28     3   3    3.7420   376.6    6.615      26.710
2015    4       28     3   9    3.7417   376.5    6.616      26.693
2015    4       28     3  15    3.7414   376.4    6.618      26.677
2015    4       28     3  21    3.7411   376.3    6.620      26.660
2015    4       28     3  28    3.7409   376.2    6.622      26.644
2015    4       28     3  34    3.7406   376.2    6.624      26.627
2015    4       28     3  40    3.7403   376.1    6.625      26.610
2015    4       28     3  46    3.7400   376.0    6.627      26.593
2015    4       28     3  52    3.7397   375.9    6.629      26.576
2015    4       28     3  58    3.7395   375.8    6.631      26.559
2015    4       28     4   4    3.7392   375.7    6.632      26.542
2015    4       28     4  10    3.7389   375.6    6.634      26.524
2015    4       28     4  17    3.7387   375.5    6.636      26.507
2015    4       28     4  23    3.7384   375.4    6.637      26.490
2015    4       28     4  29    3.7382   375.3    6.639      26.472
2015    4       28     4  35    3.7379   375.2    6.641      26.455
2015    4       28     4  41    3.7377   375.1    6.642      26.437
2015    4       28     4  47    3.7375   375.0    6.644      26.420
2015    4       28     4  53    3.7373   374.9    6.645      26.402
2015    4       28     4  59    3.7371   374.8    6.647      26.385
2015    4       28     5   6    3.7369   374.7    6.648      26.367
2015    4       28     5  12    3.7367   374.6    6.649      26.350
2015    4       28     5  18    3.7366   374.5    6.651      26.332
2015    4       28     5  24    3.7364   374.4    6.652      26.315
2015    4       28     5  30    3.7363   374.3    6.654      26.297
2015    4       28     5  36    3.7362   374.2    6.655      26.280
2015    4       28     5  42    3.7361   374.1    6.657      26.263
2015    4       28     5  48    3.7361   374.0    6.658      26.245
2015    4       28     5  55    3.7360   373.9    6.659      26.228
2015    4       28     6   1    3.7360   373.8    6.661      26.211
2015    4       28     6   7    3.7360   373.7    6.662      26.194
2015    4       28     6  13    3.7360   373.6    6.664      26.177
2015    4       28     6  19    3.7360   373.5    6.665      26.160
2015    4       28     6  25    3.7361   373.4    6.667      26.143
2015    4       28     6  31    3.7362   373.3    6.668      26.127
2015    4       28     6  37    3.7363   373.2    6.670      26.110
2015    4       28     6  44    3.7364   373.1    6.672      26.094
2015    4       28     6  50    3.7366   373.0    6.674      26.078
2015    4       28     6  56    3.7368   372.9    6.675      26.062
2015    4       28     7   2    3.7370   372.8    6.677      26.046
2015    4       28     7   8    3.7372   372.7    6.679      26.030
2015    4       28     7  14    3.7375   372.6    6.681      26.015
2015    4       28     7  20    3.7378   372.5    6.684      26.000
2015    4       28     7  26    3.7382   372.4    6.686      25.985
2015    4       28     7  33    3.7385   372.3    6.688      25.970
2015    4       28     7  39    3.7389   372.2    6.691      25.956
2015    4       28     7  45    3.7394   372.1    6.693      25.942
2015    4       28     7  51    3.7399   372.0    6.696      25.928
2015    4       28     7  57    3.7404   371.8    6.699      25.915
2015    4       28     8   3    3.7409   371.7    6.702      25.901
2015    4       28     8   9    3.7415   371.6    6.705      25.888
2015    4       28     8  15    3.7421   371.5    6.709      25.876
2015    4       28     8  22    3.7427   371.4    6.712      25.863
2015    4       28     8  28    3.7434   371.3    6.716      25.852
2015    4       28     8  34    3.7442   371.2    6.720      25.840
2015    4       28     8  40    3.7449   371.1    6.724      25.829
2015    4       28     8  46    3.7457   371.0    6.728      25.818
2015    4       28     8  52    3.7466   370.9    6.732      25.808
2015    4       28     8  58    3.7474   370.8    6.737      25.797
2015    4       28     9   5    3.7483   370.7    6.742      25.788
2015    4       28     9  11    3.7493   370.6    6.747      25.779
2015    4       28     9  17    3.7503   370.5    6.752      25.770
2015    4       28     9  23    3.7513   370.4    6.758      25.761
2015    4       28     9  29    3.7524   370.3    6.763      25.753
2015    4       28     9  35    3.7535   370.2    6.769      25.745
2015    4       28     9  41    3.7546   370.1    6.775      25.738
2015    4       28     9  47    3.7558   370.0    6.781      25.731
2015    4       28     9  54    3.7571   369.9    6.788      25.724
2015    4       28    10   0    3.7583   369.8    6.794      25.718
2015    4       28    10   6    3.7596   369.7    6.801      25.712
2015    4       28    10  12    3.7609   369.6    6.808      25.707
2015    4       28    10  18    3.7623   369.5    6.815      25.702
2015    4       28    10  24    3.7637   369.4    6.822      25.697
2015    4       28    10  30    3.7651   369.3    6.830      25.693
2015    4       28    10  36    3.7665   369.2    6.838      25.689
2015    4       28    10  43    3.7680   369.1    6.846      25.685
2015    4       28    10  49    3.7695   369.0    6.854      25.681
2015    4       28    10  55    3.7711   368.9    6.862      25.677
2015    4       28    11   1    3.7727   368.8    6.870      25.674
2015    4       28    11   7    3.7743   368.7    6.879      25.671
2015    4       28    11  13    3.7759   368.6    6.887      25.669
2015    4       28    11  19    3.7776   368.5    6.896      25.666
2015    4       28    11  25    3.7794   368.4    6.905      25.664
2015    4       28    11  32    3.7811   368.3    6.914      25.662
2015    4       28    11  38    3.7829   368.2    6.923      25.660
2015    4       28    11  44    3.7848   368.1    6.932      25.659
2015    4       28    11  50    3.7867   368.0    6.942      25.658
2015    4       28    11  56    3.7886   367.9    6.951      25.657
2015    4       28    12   2    3.7906   367.8    6.960      25.657
2015    4       28    12   8    3.7926   367.7    6.970      25.657
2015    4       28    12  14    3.7946   367.6    6.980      25.658
2015    4       28    12  21    3.7967   367.5    6.989      25.659
2015    4       28    12  27    3.7988   367.4    6.999      25.661
2015    4       28    12  33    3.8010   367.3    7.008      25.663
2015    4       28    12  39    3.8032   367.2    7.018      25.666
2015    4       28    12  45    3.8054   367.1    7.027      25.669
2015    4       28    12  51    3.8077   367.0    7.037      25.672
2015    4       28    12  57    3.8100   366.9    7.046      25.677
2015    4       28    13   3    3.8123   366.8    7.055      25.681
2015    4       28    13  10    3.8146   366.8    7.065      25.686
2015    4       28    13  16    3.8170   366.7    7.074      25.691
2015    4       28    13  22    3.8194   366.6    7.083      25.696
2015    4       28    13  28    3.8218   366.5    7.092      25.701
2015    4       28    13  34    3.8242   366.4    7.101      25.707
2015    4       28    13  40    3.8267   366.3    7.110      25.712
2015    4       28    13  46    3.8291   366.2    7.118      25.717
2015    4       28    13  52    3.8317   366.2    7.127      25.722
2015    4       28    13  59    3.8342   366.1    7.136      25.727
2015    4       28    14   5    3.8368   366.0    7.145      25.733
2015    4       28    14  11    3.8393   365.9    7.153      25.738
2015    4       28    14  17    3.8420   365.8    7.162      25.743
2015    4       28    14  23    3.8446   365.8    7.170      25.748
2015    4       28    14  29    3.8473   365.7    7.179      25.753
2015    4       28    14  35    3.8500   365.6    7.188      25.758
2015    4       28    14  42    3.8527   365.5    7.196      25.763
2015    4       28    14  48    3.8555   365.4    7.205      25.768
2015    4       28    14  54    3.8583   365.4    7.214      25.773
2015    4       28    15   0    3.8611   365.3    7.223      25.778
2015    4       28    15   6    3.8639   365.2    7.231      25.783
2015    4       28    15  12    3.8668   365.1    7.240      25.788
2015    4       28    15  18    3.8697   365.1    7.249      25.794
2015    4       28    15  24    3.8727   365.0    7.258      25.799
2015    4       28    15  31    3.8757   364.9    7.267      25.805
2015    4       28    15  37    3.8787   364.8    7.276      25.810
2015    4       28    15  43    3.8818   364.8    7.285      25.816
2015    4       28    15  49    3.8848   364.7    7.295      25.822
2015    4       28    15  55    3.8880   364.6    7.304      25.829
2015    4       28    16   1    3.8911   364.5    7.314      25.835
2015    4       28    16   7    3.8944   364.5    7.323      25.842
2015    4       28    16  13    3.8976   364.4    7.333      25.849
2015    4       28    16  20    3.9009   364.3    7.343      25.857
2015    4       28    16  26    3.9042   364.3    7.353      25.865
2015    4       28    16  32    3.9076   364.2    7.363      25.873
2015    4       28    16  38    3.9110   364.1    7.373      25.882
2015    4       28    16  44    3.9144   364.1    7.384      25.891
2015    4       28    16  50    3.9179   364.0    7.394      25.900
2015    4       28    16  56    3.9215   363.9    7.405      25.910
2015    4       28    17   2    3.9250   363.9    7.416      25.920
2015    4       28    17   9    3.9287   363.8    7.427      25.931
2015    4       28    17  15    3.9323   363.7    7.439      25.942
2015    4       28    17  21    3.9360   363.7    7.450      25.954
2015    4       28    17  27    3.9398   363.6    7.462      25.966
2015    4       28    17  33    3.9436   363.6    7.474      25.979
2015    4       28    17  39    3.9474   363.5    7.486      25.992
2015    4       28    17  45    3.9513   363.5    7.499      26.006
2015    4       28    17  51    3.9552   363.4    7.511      26.020
2015    4       28    17  58    3.9592   363.3    7.524      26.035
2015    4       28    18   4    3.9632   363.3    7.537      26.050
2015    4       28    18  10    3.9672   363.2    7.550      26.066
2015    4       28    18  16    3.9713   363.2    7.564      26.082
2015    4       28    18  22    3.9755   363.1    7.578      26.099
2015    4       28    18  28    3.9797   363.1    7.592      26.116
2015    4       28    18  34    3.9840   363.0    7.606      26.134
2015    4       28    18  40    3.9883   363.0    7.620      26.151
2015    4       28    18  47    3.9926   362.9    7.635      26.170
2015    4       28    18  53    3.9971   362.9    7.650      26.189
2015    4       28    18  59    4.0016   362.8    7.665      26.208
2015    4       28    19   5    4.0061   362.8    7.681      26.228
2015    4       28    19  11    4.0107   362.7    7.696      26.249
2015    4       28    19  17    4.0154   362.7    7.712      26.270
2015    4       28    19  23    4.0201   362.7    7.728      26.293
2015    4       28    19  30    4.0249   362.6    7.744      26.316
2015    4       28    19  36    4.0297   362.6    7.760      26.340
2015    4       28    19  42    4.0346   362.6    7.776      26.366
2015    4       28    19  48    4.0394   362.5    7.792      26.392
2015    4       28    19  54    4.0443   362.5    7.808      26.420
2015    4       28    20   0    4.0492   362.5    7.824      26.449
2015    4       28    20   6    4.0541   362.5    7.840      26.479
2015    4       28    20  12    4.0590   362.5    7.855      26.509
2015    4       28    20  19    4.0639   362.4    7.870      26.541
2015    4       28    20  25    4.0688   362.4    7.885      26.573
2015    4       28    20  31    4.0736   362.4    7.900      26.605
2015    4       28    20  37    4.0785   362.4    7.914      26.638
2015    4       28    20  43    4.0833   362.4    7.929      26.671
2015    4       28    20  49    4.0881   362.4    7.943      26.703
2015    4       28    20  55    4.0929   362.3    7.956      26.736
2015    4       28    21   1    4.0977   362.3    7.970      26.767
2015    4       28    21   8    4.1025   362.3    7.983      26.799
2015    4       28    21  14    4.1072   362.3    7.996      26.830
2015    4       28    21  20    4.1119   362.3    8.009      26.861
2015    4       28    21  26    4.1167   362.3    8.022      26.891
2015    4       28    21  32    4.1214   362.3    8.034      26.922
2015    4       28    21  38    4.1261   362.3    8.047      26.951
2015    4       28    21  44    4.1308   362.2    8.059      26.980
2015    4       28    21  50    4.1355   362.2    8.071      27.009
2015    4       28    21  57    4.1402   362.2    8.083      27.038
2015    4       28    22   3    4.1448   362.2    8.095      27.066
2015    4       28    22   9    4.1495   362.2    8.106      27.093
2015    4       28    22  15    4.1542   362.2    8.117      27.120
2015    4       28    22  21    4.1588   362.2    8.129      27.148
2015    4       28    22  27    4.1635   362.2    8.140      27.174
2015    4       28    22  33    4.1682   362.2    8.151      27.201
2015    4       28    22  39    4.1728   362.2    8.162      27.227
2015    4       28    22  46    4.1775   362.2    8.173      27.253
2015    4       28    22  52    4.1822   362.2    8.183      27.278
2015    4       28    22  58    4.1868   362.2    8.194      27.304
2015    4       28    23   4    4.1915   362.2    8.205      27.329
2015    4       28    23  10    4.1962   362.2    8.215      27.355
2015    4       28    23  16    4.2009   362.2    8.226      27.380
2015    4       28    23  22    4.2055   362.2    8.236      27.405
2015    4       28    23  28    4.2103   362.2    8.246      27.430
2015    4       28    23  35    4.2150   362.2    8.257      27.455
2015    4       28    23  41    4.2197   362.2    8.267      27.480
2015    4       28    23  47    4.2244   362.2    8.277      27.505
2015    4       28    23  53    4.2292   362.2    8.287      27.529
2015    4       28    23  59    4.2339   362.2    8.298      27.554
2015    4       29     0   5    4.2387   362.2    8.308      27.579
2015    4       29     0  11    4.2435   362.2    8.318      27.604
2015    4       29     0  17    4.2483   362.2    8.328      27.629
2015    4       29     0  24    4.2531   362.2    8.339      27.654
2015    4       29     0  30    4.2579   362.2    8.349      27.679
2015    4       29     0  36    4.2628   362.2    8.359      27.704
2015    4       29     0  42    4.2676   362.2    8.370      27.729
2015    4       29     0  48    4.2725   362.2    8.380      27.754
2015    4       29     0  54    4.2774   362.2    8.391      27.780
2015    4       29     1   0    4.2823   362.3    8.401      27.805
2015    4       29     1   7    4.2873   362.3    8.412      27.831
2015    4       29     1  13    4.2922   362.3    8.423      27.856
2015    4       29     1  19    4.2972   362.3    8.434      27.882
2015    4       29     1  25    4.3022   362.3    8.445      27.908
2015    4       29     1  31    4.3073   362.3    8.456      27.934
2015    4       29     1  37    4.3124   362.3    8.467      27.961
2015    4       29     1  43    4.3175   362.3    8.478      27.987
2015    4       29     1  49    4.3227   362.4    8.490      28.014
2015    4       29     1  56    4.3278   362.4    8.502      28.042
2015    4       29     2   2    4.3331   362.4    8.513      28.070
2015    4       29     2   8    4.3384   362.4    8.525      28.099
2015    4       29     2  14    4.3437   362.4    8.537      28.128
2015    4       29     2  20    4.3491   362.5    8.550      28.158
2015    4       29     2  26    4.3545   362.5    8.562      28.188
2015    4       29     2  32    4.3600   362.5    8.575      28.220
2015    4       29     2  38    4.3655   362.5    8.588      28.252
2015    4       29     2  45    4.3710   362.5    8.601      28.284
2015    4       29     2  51    4.3766   362.6    8.614      28.318
2015    4       29     2  57    4.3823   362.6    8.627      28.352
2015    4       29     3   3    4.3880   362.6    8.640      28.387
2015    4       29     3   9    4.3937   362.7    8.653      28.424
2015    4       29     3  15    4.3995   362.7    8.667      28.460
2015    4       29     3  21    4.4053   362.7    8.680      28.498
2015    4       29     3  27    4.4111   362.8    8.694      28.536
2015    4       29     3  34    4.4169   362.8    8.707      28.576
2015    4       29     3  40    4.4228   362.8    8.721      28.617
2015    4       29     3  46    4.4286   362.9    8.734      28.660
2015    4       29     3  52    4.4345   362.9    8.747      28.703
2015    4       29     3  58    4.4402   363.0    8.760      28.747
2015    4       29     4   4    4.4460   363.0    8.773      28.793
2015    4       29     4  10    4.4517   363.1    8.786      28.838
2015    4       29     4  16    4.4574   363.1    8.798      28.884
2015    4       29     4  23    4.4630   363.2    8.809      28.929
2015    4       29     4  29    4.4686   363.2    8.821      28.974
2015    4       29     4  35    4.4741   363.3    8.832      29.018
2015    4       29     4  41    4.4796   363.4    8.843      29.062
2015    4       29     4  47    4.4850   363.4    8.853      29.105
2015    4       29     4  53    4.4904   363.5    8.863      29.148
2015    4       29     4  59    4.4957   363.5    8.872      29.189
2015    4       29     5   5    4.5009   363.6    8.882      29.230
2015    4       29     5  12    4.5061   363.6    8.891      29.271
2015    4       29     5  18    4.5113   363.7    8.899      29.310
2015    4       29     5  24    4.5164   363.7    8.908      29.349
2015    4       29     5  30    4.5215   363.8    8.916      29.387
2015    4       29     5  36    4.5265   363.9    8.924      29.425
2015    4       29     5  42    4.5315   363.9    8.931      29.462
2015    4       29     5  48    4.5365   364.0    8.939      29.498
2015    4       29     5  54    4.5414   364.0    8.946      29.534
2015    4       29     6   1    4.5463   364.1    8.953      29.569
2015    4       29     6   7    4.5512   364.1    8.959      29.604
2015    4       29     6  13    4.5560   364.2    8.966      29.638
2015    4       29     6  19    4.5609   364.3    8.972      29.672
2015    4       29     6  25    4.5657   364.3    8.979      29.705
2015    4       29     6  31    4.5705   364.4    8.985      29.738
2015    4       29     6  37    4.5752   364.4    8.991      29.771
2015    4       29     6  44    4.5800   364.5    8.997      29.803
2015    4       29     6  50    4.5847   364.5    9.003      29.834
2015    4       29     6  56    4.5894   364.6    9.008      29.866
2015    4       29     7   2    4.5941   364.7    9.014      29.897
2015    4       29     7   8    4.5988   364.7    9.020      29.927
2015    4       29     7  14    4.6035   364.8    9.025      29.958
2015    4       29     7  20    4.6082   364.8    9.030      29.988
2015    4       29     7  26    4.6128   364.9    9.036      30.018
2015    4       29     7  33    4.6175   364.9    9.041      30.047
2015    4       29     7  39    4.6221   365.0    9.046      30.077
2015    4       29     7  45    4.6268   365.1    9.051      30.106
2015    4       29     7  51    4.6314   365.1    9.057      30.134
2015    4       29     7  57    4.6360   365.2    9.062      30.163
2015    4       29     8   3    4.6407   365.2    9.067      30.192
2015    4       29     8   9    4.6453   365.3    9.072      30.220
2015    4       29     8  15    4.6499   365.4    9.077      30.248
2015    4       29     8  22    4.6546   365.4    9.082      30.276
2015    4       29     8  28    4.6592   365.5    9.087      30.304
2015    4       29     8  34    4.6639   365.5    9.092      30.332
2015    4       29     8  40    4.6685   365.6    9.097      30.360
2015    4       29     8  46    4.6732   365.7    9.103      30.387
2015    4       29     8  52    4.6778   365.7    9.108      30.415
2015    4       29     8  58    4.6825   365.8    9.113      30.443
2015    4       29     9   4    4.6872   365.8    9.119      30.471
2015    4       29     9  11    4.6920   365.9    9.124      30.499
2015    4       29     9  17    4.6967   366.0    9.130      30.528
2015    4       29     9  23    4.7015   366.0    9.136      30.556
2015    4       29     9  29    4.7063   366.1    9.142      30.585
2015    4       29     9  35    4.7111   366.2    9.148      30.614
2015    4       29     9  41    4.7160   366.2    9.154      30.643
2015    4       29     9  47    4.7209   366.3    9.161      30.673
2015    4       29     9  53    4.7259   366.3    9.168      30.703
2015    4       29    10   0    4.7309   366.4    9.175      30.733
2015    4       29    10   6    4.7360   366.5    9.182      30.764
2015    4       29    10  12    4.7411   366.6    9.190      30.796
2015    4       29    10  18    4.7463   366.6    9.198      30.827
2015    4       29    10  24    4.7515   366.7    9.207      30.860
2015    4       29    10  30    4.7569   366.8    9.216      30.892
2015    4       29    10  36    4.7622   366.8    9.225      30.925
2015    4       29    10  42    4.7677   366.9    9.235      30.960
2015    4       29    10  49    4.7732   367.0    9.245      30.995
2015    4       29    10  55    4.7788   367.1    9.255      31.031
2015    4       29    11   1    4.7843   367.1    9.266      31.067
2015    4       29    11   7    4.7899   367.2    9.277      31.105
2015    4       29    11  13    4.7955   367.3    9.289      31.145
2015    4       29    11  19    4.8011   367.4    9.300      31.186
2015    4       29    11  25    4.8066   367.5    9.312      31.229
2015    4       29    11  31    4.8120   367.6    9.323      31.274
2015    4       29    11  38    4.8174   367.7    9.334      31.320
2015    4       29    11  44    4.8227   367.8    9.345      31.367
2015    4       29    11  50    4.8280   367.9    9.356      31.416
2015    4       29    11  56    4.8331   368.0    9.366      31.464
2015    4       29    12   2    4.8382   368.1    9.375      31.513
2015    4       29    12   8    4.8432   368.2    9.385      31.561
2015    4       29    12  14    4.8480   368.3    9.394      31.609
2015    4       29    12  20    4.8528   368.4    9.402      31.655
2015    4       29    12  27    4.8575   368.5    9.410      31.702
2015    4       29    12  33    4.8621   368.6    9.418      31.747
2015    4       29    12  39    4.8666   368.8    9.425      31.791
2015    4       29    12  45    4.8711   368.9    9.431      31.835
2015    4       29    12  51    4.8754   369.0    9.438      31.878
2015    4       29    12  57    4.8797   369.1    9.444      31.921
2015    4       29    13   3    4.8840   369.2    9.449      31.962
2015    4       29    13  10    4.8881   369.3    9.454      32.003
2015    4       29    13  16    4.8923   369.4    9.459      32.043
2015    4       29    13  22    4.8964   369.5    9.464      32.082
2015    4       29    13  28    4.9004   369.6    9.468      32.121
2015    4       29    13  34    4.9044   369.7    9.473      32.159
2015    4       29    13  40    4.9084   369.8    9.477      32.196
2015    4       29    13  46    4.9123   369.9    9.480      32.233
2015    4       29    13  52    4.9162   370.0    9.484      32.270
2015    4       29    13  59    4.9201   370.1    9.487      32.305
2015    4       29    14   5    4.9240   370.2    9.490      32.341
2015    4       29    14  11    4.9278   370.3    9.493      32.376
2015    4       29    14  17    4.9316   370.4    9.496      32.410
2015    4       29    14  23    4.9354   370.6    9.499      32.444
2015    4       29    14  29    4.9392   370.7    9.501      32.478
2015    4       29    14  35    4.9430   370.8    9.504      32.511
2015    4       29    14  41    4.9467   370.9    9.506      32.544
2015    4       29    14  48    4.9505   371.0    9.509      32.576
2015    4       29    14  54    4.9542   371.1    9.511      32.608
2015    4       29    15   0    4.9580   371.2    9.513      32.640
2015    4       29    15   6    4.9617   371.3    9.515      32.672
2015    4       29    15  12    4.9654   371.4    9.517      32.703
2015    4       29    15  18    4.9691   371.5    9.519      32.734
2015    4       29    15  24    4.9728   371.6    9.521      32.765
2015    4       29    15  30    4.9765   371.7    9.522      32.795
2015    4       29    15  37    4.9802   371.8    9.524      32.826
2015    4       29    15  43    4.9839   371.9    9.526      32.856
2015    4       29    15  49    4.9876   372.0    9.528      32.886
2015    4       29    15  55    4.9913   372.1    9.529      32.915
2015    4       29    16   1    4.9950   372.2    9.531      32.945
2015    4       29    16   7    4.9987   372.3    9.533      32.974
2015    4       29    16  13    5.0025   372.4    9.535      33.004
2015    4       29    16  19    5.0062   372.5    9.537      33.033
2015    4       29    16  26    5.0100   372.6    9.539      33.062
2015    4       29    16  32    5.0138   372.7    9.541      33.092
2015    4       29    16  38    5.0176   372.8    9.543      33.121
2015    4       29    16  44    5.0214   372.9    9.545      33.150
2015    4       29    16  50    5.0253   373.0    9.547      33.179
2015    4       29    16  56    5.0292   373.1    9.550      33.208
2015    4       29    17   2    5.0332   373.2    9.553      33.238
2015    4       29    17   8    5.0372   373.3    9.556      33.267
2015    4       29    17  15    5.0413   373.4    9.559      33.297
2015    4       29    17  21    5.0454   373.6    9.562      33.327
2015    4       29    17  27    5.0495   373.7    9.566      33.357
2015    4       29    17  33    5.0536   373.8    9.569      33.389
2015    4       29    17  39    5.0577   373.9    9.573      33.421
2015    4       29    17  45    5.0618   374.0    9.577      33.455
2015    4       29    17  51    5.0659   374.1    9.580      33.491
2015    4       29    17  57    5.0699   374.2    9.584      33.527
2015    4       29    18   4    5.0739   374.4    9.587      33.565
2015    4       29    18  10    5.0779   374.5    9.591      33.603
2015    4       29    18  16    5.0818   374.6    9.594      33.642
2015    4       29    18  22    5.0857   374.7    9.597      33.681
2015    4       29    18  28    5.0895   374.8    9.600      33.719
2015    4       29    18  34    5.0933   375.0    9.603      33.758
2015    4       29    18  40    5.0971   375.1    9.606      33.797
2015    4       29    18  47    5.1007   375.2    9.608      33.836
2015    4       29    18  53    5.1044   375.3    9.611      33.874
2015    4       29    18  59    5.1080   375.4    9.613      33.913
2015    4       29    19   5    5.1115   375.6    9.615      33.951
2015    4       29    19  11    5.1151   375.7    9.617      33.990
2015    4       29    19  17    5.1185   375.8    9.619      34.028
2015    4       29    19  23    5.1220   375.9    9.621      34.067
2015    4       29    19  29    5.1254   376.1    9.623      34.105
2015    4       29    19  36    5.1288   376.2    9.624      34.144
2015    4       29    19  42    5.1321   376.3    9.626      34.182
2015    4       29    19  48    5.1354   376.4    9.627      34.221
2015    4       29    19  54    5.1387   376.6    9.628      34.259
2015    4       29    20   0    5.1419   376.7    9.629      34.297
2015    4       29    20   6    5.1451   376.8    9.630      34.335
2015    4       29    20  12    5.1483   377.0    9.630      34.373
2015    4       29    20  18    5.1514   377.1    9.631      34.410
2015    4       29    20  25    5.1546   377.2    9.631      34.447
2015    4       29    20  31    5.1577   377.3    9.631      34.483
2015    4       29    20  37    5.1608   377.5    9.631      34.519
2015    4       29    20  43    5.1638   377.6    9.631      34.554
2015    4       29    20  49    5.1669   377.7    9.631      34.590
2015    4       29    20  55    5.1699   377.8    9.631      34.624
2015    4       29    21   1    5.1729   378.0    9.630      34.659
2015    4       29    21   7    5.1759   378.1    9.630      34.693
2015    4       29    21  14    5.1788   378.2    9.629      34.727
2015    4       29    21  20    5.1818   378.3    9.628      34.761
2015    4       29    21  26    5.1848   378.5    9.627      34.794
2015    4       29    21  32    5.1877   378.6    9.627      34.827
2015    4       29    21  38    5.1907   378.7    9.626      34.860
2015    4       29    21  44    5.1936   378.8    9.625      34.892
2015    4       29    21  50    5.1966   379.0    9.624      34.925
2015    4       29    21  56    5.1995   379.1    9.623      34.957
2015    4       29    22   3    5.2025   379.2    9.622      34.989
2015    4       29    22   9    5.2054   379.3    9.621      35.021
2015    4       29    22  15    5.2084   379.5    9.621      35.053
2015    4       29    22  21    5.2113   379.6    9.620      35.085
2015    4       29    22  27    5.2143   379.7    9.619      35.117
2015    4       29    22  33    5.2173   379.8    9.618      35.149
2015    4       29    22  39    5.2203   380.0    9.618      35.181
2015    4       29    22  45    5.2233   380.1    9.617      35.212
2015    4       29    22  52    5.2263   380.2    9.617      35.244
2015    4       29    22  58    5.2294   380.3    9.616      35.276
2015    4       29    23   4    5.2324   380.5    9.616      35.308
2015    4       29    23  10    5.2354   380.6    9.615      35.341
2015    4       29    23  16    5.2385   380.7    9.615      35.374
2015    4       29    23  22    5.2415   380.9    9.615      35.407
2015    4       29    23  28    5.2444   381.0    9.614      35.440
2015    4       29    23  35    5.2474   381.1    9.614      35.474
2015    4       29    23  41    5.2503   381.2    9.613      35.507
2015    4       29    23  47    5.2532   381.4    9.612      35.540
2015    4       29    23  53    5.2561   381.5    9.612      35.572
2015    4       29    23  59    5.2589   381.6    9.611      35.604
2015    4       30     0   5    5.2616   381.8    9.610      35.636
2015    4       30     0  11    5.2644   381.9    9.608      35.667
2015    4       30     0  17    5.2671   382.0    9.607      35.699
2015    4       30     0  24    5.2697   382.2    9.605      35.729
2015    4       30     0  30    5.2724   382.3    9.604      35.760
2015    4       30     0  36    5.2749   382.4    9.602      35.789
2015    4       30     0  42    5.2775   382.6    9.600      35.819
2015    4       30     0  48    5.2800   382.7    9.598      35.848
2015    4       30     0  54    5.2825   382.8    9.596      35.877
2015    4       30     1   0    5.2849   383.0    9.594      35.905
2015    4       30     1   6    5.2874   383.1    9.592      35.933
2015    4       30     1  13    5.2898   383.2    9.590      35.961
2015    4       30     1  19    5.2922   383.4    9.587      35.988
2015    4       30     1  25    5.2945   383.5    9.585      36.016
2015    4       30     1  31    5.2969   383.6    9.583      36.043
2015    4       30     1  37    5.2992   383.8    9.580      36.069
2015    4       30     1  43    5.3015   383.9    9.578      36.096
2015    4       30     1  49    5.3038   384.0    9.576      36.122
2015    4       30     1  55    5.3061   384.1    9.573      36.148
2015    4       30     2   2    5.3083   384.3    9.571      36.174
2015    4       30     2   8    5.3106   384.4    9.569      36.200
2015    4       30     2  14    5.3128   384.5    9.566      36.225
2015    4       30     2  20    5.3150   384.7    9.564      36.251
2015    4       30     2  26    5.3172   384.8    9.562      36.276
2015    4       30     2  32    5.3195   384.9    9.560      36.301
2015    4       30     2  38    5.3217   385.0    9.558      36.327
2015    4       30     2  44    5.3239   385.2    9.556      36.352
2015    4       30     2  51    5.3261   385.3    9.554      36.378
2015    4       30     2  57    5.3283   385.4    9.553      36.403
2015    4       30     3   3    5.3305   385.5    9.551      36.429
2015    4       30     3   9    5.3328   385.7    9.550      36.455
2015    4       30     3  15    5.3350   385.8    9.549      36.480
2015    4       30     3  21    5.3373   385.9    9.548      36.507
2015    4       30     3  27    5.3396   386.0    9.547      36.533
2015    4       30     3  33    5.3419   386.2    9.546      36.561
2015    4       30     3  40    5.3442   386.3    9.546      36.589
2015    4       30     3  46    5.3466   386.4    9.546      36.617
2015    4       30     3  52    5.3490   386.5    9.546      36.646
2015    4       30     3  58    5.3514   386.7    9.545      36.676
2015    4       30     4   4    5.3537   386.8    9.545      36.706
2015    4       30     4  10    5.3562   386.9    9.546      36.737
2015    4       30     4  16    5.3586   387.0    9.546      36.769
2015    4       30     4  22    5.3611   387.2    9.546      36.800
2015    4       30     4  29    5.3635   387.3    9.547      36.831
2015    4       30     4  35    5.3660   387.4    9.547      36.863
2015    4       30     4  41    5.3685   387.6    9.548      36.896
2015    4       30     4  47    5.3711   387.7    9.549      36.929
2015    4       30     4  53    5.3736   387.8    9.550      36.963
2015    4       30     4  59    5.3761   388.0    9.550      36.998
2015    4       30     5   5    5.3786   388.1    9.551      37.033
2015    4       30     5  11    5.3811   388.2    9.552      37.069
2015    4       30     5  18    5.3836   388.4    9.552      37.106
2015    4       30     5  24    5.3861   388.5    9.552      37.142
2015    4       30     5  30    5.3885   388.7    9.553      37.178
2015    4       30     5  36    5.3908   388.8    9.553      37.215
2015    4       30     5  42    5.3932   389.0    9.552      37.251
2015    4       30     5  48    5.3955   389.1    9.552      37.288
2015    4       30     5  54    5.3977   389.3    9.551      37.324
2015    4       30     6   1    5.3998   389.4    9.550      37.360
2015    4       30     6   7    5.4020   389.6    9.549      37.396
2015    4       30     6  13    5.4040   389.7    9.548      37.432
2015    4       30     6  19    5.4060   389.9    9.546      37.467
2015    4       30     6  25    5.4079   390.0    9.544      37.501
2015    4       30     6  31    5.4098   390.2    9.542      37.535
2015    4       30     6  37    5.4117   390.3    9.539      37.568
2015    4       30     6  43    5.4135   390.5    9.537      37.601
2015    4       30     6  50    5.4152   390.6    9.534      37.633
2015    4       30     6  56    5.4169   390.8    9.531      37.665
2015    4       30     7   2    5.4185   390.9    9.528      37.696
2015    4       30     7   8    5.4202   391.1    9.524      37.727
2015    4       30     7  14    5.4218   391.2    9.521      37.757
2015    4       30     7  20    5.4233   391.4    9.517      37.786
2015    4       30     7  26    5.4248   391.5    9.513      37.816
2015    4       30     7  32    5.4263   391.7    9.509      37.844
2015    4       30     7  39    5.4278   391.8    9.505      37.873
2015    4       30     7  45    5.4292   392.0    9.501      37.901
2015    4       30     7  51    5.4306   392.1    9.497      37.929
2015    4       30     7  57    5.4319   392.3    9.493      37.956
2015    4       30     8   3    5.4333   392.4    9.488      37.983
2015    4       30     8   9    5.4346   392.6    9.483      38.009
2015    4       30     8  15    5.4359   392.8    9.479      38.036
2015    4       30     8  21    5.4371   392.9    9.474      38.062
2015    4       30     8  28    5.4384   393.1    9.469      38.087
2015    4       30     8  34    5.4396   393.2    9.464      38.113
2015    4       30     8  40    5.4408   393.4    9.459      38.138
2015    4       30     8  46    5.4420   393.5    9.454      38.163
2015    4       30     8  52    5.4431   393.7    9.449      38.187
2015    4       30     8  58    5.4442   393.8    9.444      38.211
2015    4       30     9   4    5.4453   394.0    9.438      38.235
2015    4       30     9  10    5.4464   394.1    9.433      38.259
2015    4       30     9  17    5.4475   394.3    9.427      38.282
2015    4       30     9  23    5.4485   394.4    9.422      38.305
2015    4       30     9  29    5.4496   394.6    9.416      38.328
2015    4       30     9  35    5.4506   394.8    9.411      38.351
2015    4       30     9  41    5.4516   394.9    9.405      38.373
2015    4       30     9  47    5.4525   395.1    9.399      38.395
2015    4       30     9  53    5.4535   395.2    9.394      38.417
2015    4       30     9  59    5.4544   395.4    9.388      38.439
2015    4       30    10   6    5.4554   395.5    9.382      38.460
2015    4       30    10  12    5.4563   395.7    9.376      38.481
2015    4       30    10  18    5.4572   395.8    9.370      38.502
2015    4       30    10  24    5.4581   396.0    9.364      38.523
2015    4       30    10  30    5.4589   396.1    9.358      38.544
2015    4       30    10  36    5.4598   396.3    9.352      38.564
2015    4       30    10  42    5.4607   396.4    9.346      38.584
2015    4       30    10  48    5.4615   396.6    9.340      38.605
2015    4       30    10  55    5.4623   396.7    9.334      38.624
2015    4       30    11   1    5.4631   396.9    9.328      38.644
2015    4       30    11   7    5.4639   397.1    9.322      38.664
2015    4       30    11  13    5.4647   397.2    9.316      38.683
2015    4       30    11  19    5.4655   397.4    9.311      38.703
2015    4       30    11  25    5.4663   397.5    9.305      38.722
2015    4       30    11  31    5.4671   397.7    9.299      38.741
2015    4       30    11  38    5.4679   397.8    9.293      38.761
2015    4       30    11  44    5.4687   398.0    9.288      38.780
2015    4       30    11  50    5.4695   398.1    9.282      38.799
2015    4       30    11  56    5.4703   398.3    9.277      38.818
2015    4       30    12   2    5.4711   398.4    9.271      38.837
2015    4       30    12   8    5.4719   398.6    9.266      38.857
2015    4       30    12  14    5.4727   398.7    9.261      38.876
2015    4       30    12  20    5.4735   398.9    9.255      38.896
2015    4       30    12  27    5.4742   399.0    9.250      38.916
2015    4       30    12  33    5.4750   399.2    9.245      38.935
2015    4       30    12  39    5.4758   399.3    9.240      38.956
2015    4       30    12  45    5.4765   399.5    9.235      38.976
2015    4       30    12  51    5.4772   399.6    9.230      38.997
2015    4       30    12  57    5.4779   399.8    9.224      39.018
2015    4       30    13   3    5.4786   400.0    9.219      39.039
2015    4       30    13   9    5.4793   400.1    9.214      39.061
2015    4       30    13  16    5.4799   400.3    9.208      39.083
2015    4       30    13  22    5.4806   400.4    9.203      39.105
2015    4       30    13  28    5.4811   400.6    9.197      39.127
2015    4       30    13  34    5.4817   400.8    9.191      39.149
2015    4       30    13  40    5.4822   400.9    9.186      39.171
2015    4       30    13  46    5.4827   401.1    9.180      39.193
2015    4       30    13  52    5.4832   401.2    9.174      39.215
2015    4       30    13  58    5.4836   401.4    9.168      39.237
2015    4       30    14   5    5.4841   401.5    9.162      39.258
2015    4       30    14  11    5.4845   401.7    9.156      39.280
2015    4       30    14  17    5.4848   401.9    9.150      39.302
2015    4       30    14  23    5.4852   402.0    9.143      39.323
2015    4       30    14  29    5.4855   402.2    9.137      39.345
2015    4       30    14  35    5.4859   402.3    9.131      39.366
2015    4       30    14  41    5.4862   402.5    9.125      39.387
2015    4       30    14  47    5.4864   402.7    9.118      39.409
2015    4       30    14  54    5.4867   402.8    9.112      39.430
2015    4       30    15   0    5.4869   403.0    9.105      39.451
2015    4       30    15   6    5.4871   403.1    9.099      39.472
2015    4       30    15  12    5.4874   403.3    9.092      39.493
2015    4       30    15  18    5.4875   403.4    9.086      39.514
2015    4       30    15  24    5.4877   403.6    9.079      39.535
2015    4       30    15  30    5.4878   403.8    9.073      39.556
2015    4       30    15  36    5.4880   403.9    9.066      39.577
2015    4       30    15  43    5.4881   404.1    9.060      39.598
2015    4       30    15  49    5.4882   404.2    9.053      39.619
2015    4       30    15  55    5.4882   404.4    9.046      39.639
2015    4       30    16   1    5.4883   404.6    9.040      39.660
2015    4       30    16   7    5.4883   404.7    9.033      39.681
2015    4       30    16  13    5.4883   404.9    9.026      39.702
2015    4       30    16  19    5.4883   405.0    9.019      39.722
2015    4       30    16  25    5.4883   405.2    9.012      39.743
2015    4       30    16  32    5.4882   405.4    9.006      39.763
2015    4       30    16  38    5.4882   405.5    8.999      39.783
2015    4       30    16  44    5.4881   405.7    8.992      39.804
2015    4       30    16  50    5.4879   405.8    8.985      39.824
2015    4       30    16  56    5.4878   406.0    8.978      39.844
2015    4       30    17   2    5.4876   406.2    8.971      39.864
2015    4       30    17   8    5.4874   406.3    8.963      39.884
2015    4       30    17  15    5.4872   406.5    8.956      39.903
2015    4       30    17  21    5.4870   406.6    8.949      39.923
2015    4       30    17  27    5.4867   406.8    8.942      39.942
2015    4       30    17  33    5.4864   407.0    8.934      39.962
2015    4       30    17  39    5.4862   407.1    8.927      39.981
2015    4       30    17  45    5.4858   407.3    8.920      40.000
2015    4       30    17  51    5.4855   407.4    8.912      40.018
2015    4       30    17  57    5.4851   407.6    8.905      40.037
2015    4       30    18   4    5.4848   407.8    8.897      40.055
2015    4       30    18  10    5.4844   407.9    8.889      40.073
2015    4       30    18  16    5.4839   408.1    8.882      40.091
2015    4       30    18  22    5.4835   408.3    8.874      40.109
2015    4       30    18  28    5.4831   408.4    8.866      40.126
2015    4       30    18  34    5.4826   408.6    8.858      40.144
2015    4       30    18  40    5.4821   408.7    8.851      40.161
2015    4       30    18  46    5.4816   408.9    8.843      40.178
2015    4       30    18  53    5.4811   409.1    8.835      40.194
2015    4       30    18  59    5.4805   409.2    8.827      40.211
2015    4       30    19   5    5.4800   409.4    8.819      40.227
2015    4       30    19  11    5.4794   409.5    8.811      40.243
2015    4       30    19  17    5.4789   409.7    8.803      40.259
2015    4       30    19  23    5.4783   409.9    8.795      40.275
2015    4       30    19  29    5.4776   410.0    8.787      40.291
2015    4       30    19  35    5.4770   410.2    8.779      40.306
2015    4       30    19  42    5.4764   410.3    8.771      40.322
2015    4       30    19  48    5.4757   410.5    8.762      40.337
2015    4       30    19  54    5.4751   410.6    8.754      40.352
2015    4       30    20   0    5.4744   410.8    8.746      40.367
2015    4       30    20   6    5.4737   411.0    8.738      40.381
2015    4       30    20  12    5.4730   411.1    8.730      40.396
2015    4       30    20  18    5.4723   411.3    8.722      40.410
2015    4       30    20  24    5.4715   411.4    8.714      40.425
2015    4       30    20  31    5.4708   411.6    8.706      40.439
2015    4       30    20  37    5.4700   411.8    8.698      40.453
2015    4       30    20  43    5.4692   411.9    8.690      40.467
2015    4       30    20  49    5.4684   412.1    8.682      40.481
2015    4       30    20  55    5.4676   412.2    8.674      40.495
2015    4       30    21   1    5.4668   412.4    8.666      40.509
2015    4       30    21   7    5.4660   412.5    8.658      40.522
2015    4       30    21  13    5.4652   412.7    8.650      40.536
2015    4       30    21  20    5.4643   412.8    8.642      40.550
2015    4       30    21  26    5.4634   413.0    8.635      40.564
2015    4       30    21  32    5.4626   413.2    8.627      40.577
2015    4       30    21  38    5.4617   413.3    8.619      40.591
2015    4       30    21  44    5.4608   413.5    8.612      40.605
2015    4       30    21  50    5.4599   413.6    8.604      40.619
2015    4       30    21  56    5.4590   413.8    8.596      40.633
2015    4       30    22   3    5.4581   413.9    8.589      40.647
2015    4       30    22   9    5.4572   414.1    8.581      40.661
2015    4       30    22  15    5.4563   414.2    8.574      40.676
2015    4       30    22  21    5.4553   414.4    8.567      40.690
2015    4       30    22  27    5.4544   414.5    8.559      40.705
2015    4       30    22  33    5.4534   414.7    8.552      40.720
2015    4       30    22  39    5.4524   414.8    8.544      40.735
2015    4       30    22  45    5.4514   415.0    8.537      40.750
2015    4       30    22  52    5.4504   415.2    8.530      40.765
2015    4       30    22  58    5.4494   415.3    8.523      40.780
2015    4       30    23   4    5.4483   415.5    8.515      40.795
2015    4       30    23  10    5.4473   415.6    8.508      40.810
2015    4       30    23  16    5.4462   415.8    8.501      40.826
2015    4       30    23  22    5.4451   415.9    8.494      40.841
2015    4       30    23  28    5.4441   416.1    8.487      40.857
2015    4       30    23  34    5.4430   416.2    8.480      40.873
2015    4       30    23  41    5.4418   416.4    8.473      40.888
2015    4       30    23  47    5.4407   416.5    8.466      40.904
2015    4       30    23  53    5.4396   416.7    8.459      40.920
2015    4       30    23  59    5.4384   416.8    8.452      40.936
2015    5        1     0   5    5.4373   417.0    8.445      40.952
2015    5        1     0  11    5.4361   417.1    8.438      40.969
2015    5        1     0  17    5.4349   417.3    8.431      40.985
2015    5        1     0  23    5.4338   417.4    8.424      41.001
2015    5        1     0  30    5.4326   417.6    8.417      41.018
2015    5        1     0  36    5.4314   417.7    8.410      41.034
2015    5        1     0  42    5.4302   417.9    8.403      41.051
2015    5        1     0  48    5.4290   418.0    8.396      41.067
2015    5        1     0  54    5.4278   418.2    8.389      41.084
2015    5        1     1   0    5.4266   418.3    8.382      41.101
2015    5        1     1   6    5.4254   418.5    8.375      41.118
2015    5        1     1  12    5.4242   418.6    8.368      41.134
2015    5        1     1  19    5.4230   418.8    8.361      41.151
2015    5        1     1  25    5.4218   418.9    8.354      41.168
2015    5        1     1  31    5.4206   419.1    8.347      41.184
2015    5        1     1  37    5.4193   419.2    8.340      41.201
2015    5        1     1  43    5.4181   419.4    8.333      41.218
2015    5        1     1  49    5.4169   419.6    8.326      41.234
2015    5        1     1  55    5.4157   419.7    8.319      41.251
2015    5        1     2   1    5.4145   419.9    8.312      41.268
2015    5        1     2   8    5.4133   420.0    8.306      41.284
2015    5        1     2  14    5.4121   420.2    8.299      41.301
2015    5        1     2  20    5.4109   420.3    8.292      41.317
2015    5        1     2  26    5.4097   420.5    8.285      41.334
2015    5        1     2  32    5.4085   420.6    8.278      41.350
2015    5        1     2  38    5.4073   420.8    8.271      41.367
2015    5        1     2  44    5.4060   420.9    8.264      41.384
2015    5        1     2  50    5.4047   421.1    8.257      41.401
2015    5        1     2  57    5.4035   421.2    8.250      41.417
2015    5        1     3   3    5.4022   421.4    8.243      41.434
2015    5        1     3   9    5.4009   421.5    8.236      41.450
2015    5        1     3  15    5.3995   421.7    8.229      41.466
2015    5        1     3  21    5.3982   421.8    8.222      41.482
2015    5        1     3  27    5.3968   422.0    8.215      41.498
2015    5        1     3  33    5.3955   422.2    8.208      41.514
2015    5        1     3  39    5.3941   422.3    8.201      41.529
2015    5        1     3  46    5.3927   422.5    8.194      41.545
2015    5        1     3  52    5.3913   422.6    8.187      41.560
2015    5        1     3  58    5.3898   422.8    8.180      41.575
2015    5        1     4   4    5.3884   422.9    8.172      41.590
2015    5        1     4  10    5.3870   423.1    8.165      41.604
2015    5        1     4  16    5.3855   423.2    8.158      41.619
2015    5        1     4  22    5.3841   423.4    8.151      41.634
2015    5        1     4  29    5.3826   423.5    8.144      41.648
2015    5        1     4  35    5.3811   423.7    8.137      41.662
2015    5        1     4  41    5.3797   423.9    8.130      41.677
2015    5        1     4  47    5.3782   424.0    8.123      41.692
2015    5        1     4  53    5.3767   424.2    8.116      41.706
2015    5        1     4  59    5.3753   424.3    8.109      41.721
2015    5        1     5   5    5.3738   424.5    8.102      41.736
2015    5        1     5  11    5.3723   424.6    8.095      41.751
2015    5        1     5  18    5.3707   424.8    8.088      41.767
2015    5        1     5  24    5.3692   424.9    8.081      41.782
2015    5        1     5  30    5.3677   425.1    8.074      41.797
2015    5        1     5  36    5.3661   425.2    8.066      41.812
2015    5        1     5  42    5.3645   425.4    8.059      41.827
2015    5        1     5  48    5.3629   425.6    8.052      41.842
2015    5        1     5  54    5.3613   425.7    8.045      41.856
2015    5        1     6   0    5.3597   425.9    8.037      41.871
2015    5        1     6   7    5.3581   426.0    8.030      41.886
2015    5        1     6  13    5.3564   426.2    8.023      41.900
2015    5        1     6  19    5.3548   426.3    8.015      41.914
2015    5        1     6  25    5.3531   426.5    8.008      41.928
2015    5        1     6  31    5.3514   426.6    8.000      41.942
2015    5        1     6  37    5.3498   426.8    7.993      41.956
2015    5        1     6  43    5.3481   426.9    7.985      41.969
2015    5        1     6  49    5.3464   427.1    7.977      41.983
2015    5        1     6  56    5.3446   427.3    7.970      41.996
2015    5        1     7   2    5.3429   427.4    7.962      42.009
2015    5        1     7   8    5.3412   427.6    7.954      42.022
2015    5        1     7  14    5.3395   427.7    7.947      42.035
2015    5        1     7  20    5.3377   427.9    7.939      42.048
2015    5        1     7  26    5.3360   428.0    7.931      42.060
2015    5        1     7  32    5.3343   428.2    7.924      42.073
2015    5        1     7  38    5.3326   428.3    7.916      42.085
2015    5        1     7  45    5.3308   428.5    7.908      42.097
2015    5        1     7  51    5.3291   428.6    7.900      42.110
2015    5        1     7  57    5.3274   428.8    7.892      42.122
2015    5        1     8   3    5.3256   428.9    7.885      42.134
2015    5        1     8   9    5.3239   429.1    7.877      42.146
2015    5        1     8  15    5.3222   429.2    7.869      42.158
2015    5        1     8  21    5.3205   429.4    7.861      42.170
2015    5        1     8  27    5.3188   429.6    7.854      42.182
2015    5        1     8  34    5.3171   429.7    7.846      42.194
2015    5        1     8  40    5.3154   429.9    7.838      42.206
2015    5        1     8  46    5.3137   430.0    7.830      42.217
2015    5        1     8  52    5.3120   430.2    7.822      42.229
2015    5        1     8  58    5.3103   430.3    7.815      42.241
2015    5        1     9   4    5.3086   430.5    7.807      42.253
2015    5        1     9  10    5.3070   430.6    7.799      42.264
2015    5        1     9  16    5.3053   430.8    7.792      42.276
2015    5        1     9  23    5.3037   430.9    7.784      42.288
2015    5        1     9  29    5.3020   431.1    7.777      42.300
2015    5        1     9  35    5.3003   431.2    7.769      42.312
2015    5        1     9  41    5.2986   431.4    7.762      42.324
2015    5        1     9  47    5.2969   431.5    7.754      42.336
2015    5        1     9  53    5.2952   431.7    7.747      42.348
2015    5        1     9  59    5.2934   431.8    7.739      42.361
2015    5        1    10   6    5.2917   432.0    7.732      42.373
2015    5        1    10  12    5.2899   432.2    7.724      42.386
2015    5        1    10  18    5.2881   432.3    7.716      42.398
2015    5        1    10  24    5.2863   432.5    7.709      42.410
2015    5        1    10  30    5.2844   432.6    7.701      42.422
2015    5        1    10  36    5.2825   432.8    7.693      42.434
2015    5        1    10  42    5.2806   432.9    7.686      42.446
2015    5        1    10  48    5.2787   433.1    7.678      42.458
2015    5        1    10  55    5.2767   433.2    7.670      42.469
2015    5        1    11   1    5.2748   433.4    7.662      42.480
2015    5        1    11   7    5.2728   433.6    7.655      42.492
2015    5        1    11  13    5.2708   433.7    7.647      42.503
2015    5        1    11  19    5.2688   433.9    7.639      42.514
2015    5        1    11  25    5.2667   434.0    7.631      42.525
2015    5        1    11  31    5.2647   434.2    7.623      42.536
2015    5        1    11  37    5.2626   434.3    7.615      42.546
2015    5        1    11  44    5.2606   434.5    7.608      42.557
2015    5        1    11  50    5.2585   434.6    7.600      42.568
2015    5        1    11  56    5.2564   434.8    7.592      42.579
2015    5        1    12   2    5.2543   434.9    7.584      42.590
2015    5        1    12   8    5.2522   435.1    7.576      42.602
2015    5        1    12  14    5.2501   435.2    7.569      42.613
2015    5        1    12  20    5.2480   435.4    7.561      42.625
2015    5        1    12  26    5.2458   435.6    7.553      42.637
2015    5        1    12  33    5.2436   435.7    7.545      42.649
2015    5        1    12  39    5.2414   435.9    7.537      42.660
2015    5        1    12  45    5.2392   436.0    7.529      42.672
2015    5        1    12  51    5.2370   436.2    7.521      42.683
2015    5        1    12  57    5.2348   436.3    7.513      42.694
2015    5        1    13   3    5.2325   436.5    7.505      42.705
2015    5        1    13   9    5.2303   436.6    7.497      42.716
2015    5        1    13  15    5.2280   436.8    7.489      42.727
2015    5        1    13  22    5.2257   437.0    7.481      42.737
2015    5        1    13  28    5.2234   437.1    7.473      42.748
2015    5        1    13  34    5.2210   437.3    7.465      42.758
2015    5        1    13  40    5.2187   437.4    7.457      42.767
2015    5        1    13  46    5.2163   437.6    7.449      42.777
2015    5        1    13  52    5.2140   437.7    7.441      42.786
2015    5        1    13  58    5.2116   437.9    7.432      42.795
2015    5        1    14   4    5.2092   438.0    7.424      42.804
2015    5        1    14  11    5.2068   438.2    7.416      42.813
2015    5        1    14  17    5.2044   438.3    7.407      42.821
2015    5        1    14  23    5.2020   438.5    7.399      42.829
2015    5        1    14  29    5.1996   438.6    7.391      42.836
2015    5        1    14  35    5.1971   438.8    7.382      42.844
2015    5        1    14  41    5.1947   438.9    7.374      42.851
2015    5        1    14  47    5.1922   439.1    7.365      42.858
2015    5        1    14  53    5.1898   439.2    7.357      42.864
2015    5        1    15   0    5.1873   439.4    7.348      42.870
2015    5        1    15   6    5.1849   439.5    7.340      42.876
2015    5        1    15  12    5.1824   439.7    7.331      42.882
2015    5        1    15  18    5.1799   439.8    7.322      42.887
2015    5        1    15  24    5.1774   440.0    7.314      42.892
2015    5        1    15  30    5.1749   440.1    7.305      42.897
2015    5        1    15  36    5.1725   440.3    7.296      42.902
2015    5        1    15  43    5.1700   440.4    7.288      42.906
2015    5        1    15  49    5.1674   440.6    7.279      42.910
2015    5        1    15  55    5.1649   440.7    7.270      42.914
2015    5        1    16   1    5.1624   440.9    7.262      42.918
2015    5        1    16   7    5.1599   441.0    7.253      42.921
2015    5        1    16  13    5.1574   441.1    7.244      42.924
2015    5        1    16  19    5.1548   441.3    7.235      42.927
2015    5        1    16  25    5.1523   441.4    7.226      42.930
2015    5        1    16  32    5.1497   441.6    7.218      42.933
2015    5        1    16  38    5.1472   441.7    7.209      42.935
2015    5        1    16  44    5.1446   441.9    7.200      42.937
2015    5        1    16  50    5.1420   442.0    7.191      42.939
2015    5        1    16  56    5.1394   442.1    7.182      42.941
2015    5        1    17   2    5.1367   442.3    7.173      42.943
2015    5        1    17   8    5.1341   442.4    7.164      42.944
2015    5        1    17  14    5.1314   442.6    7.155      42.945
2015    5        1    17  21    5.1288   442.7    7.146      42.946
2015    5        1    17  27    5.1261   442.8    7.137      42.947
2015    5        1    17  33    5.1234   443.0    7.128      42.947
2015    5        1    17  39    5.1206   443.1    7.119      42.948
2015    5        1    17  45    5.1179   443.3    7.111      42.948
2015    5        1    17  51    5.1151   443.4    7.102      42.949
2015    5        1    17  57    5.1124   443.5    7.093      42.949
2015    5        1    18   3    5.1096   443.7    7.084      42.949
2015    5        1    18  10    5.1068   443.8    7.075      42.948
2015    5        1    18  16    5.1039   443.9    7.066      42.948
2015    5        1    18  22    5.1011   444.1    7.057      42.948
2015    5        1    18  28    5.0983   444.2    7.048      42.947
2015    5        1    18  34    5.0954   444.3    7.039      42.947
2015    5        1    18  40    5.0926   444.5    7.030      42.946
2015    5        1    18  46    5.0897   444.6    7.021      42.945
2015    5        1    18  52    5.0868   444.7    7.013      42.944
2015    5        1    18  59    5.0839   444.9    7.004      42.944
2015    5        1    19   5    5.0810   445.0    6.995      42.943
2015    5        1    19  11    5.0781   445.1    6.986      42.942
2015    5        1    19  17    5.0752   445.3    6.978      42.941
2015    5        1    19  23    5.0723   445.4    6.969      42.940
2015    5        1    19  29    5.0693   445.5    6.961      42.939
2015    5        1    19  35    5.0664   445.6    6.952      42.939
2015    5        1    19  41    5.0634   445.8    6.944      42.938
2015    5        1    19  48    5.0605   445.9    6.936      42.937
2015    5        1    19  54    5.0575   446.0    6.927      42.937
2015    5        1    20   0    5.0546   446.2    6.919      42.936
2015    5        1    20   6    5.0516   446.3    6.911      42.935
2015    5        1    20  12    5.0486   446.4    6.903      42.935
2015    5        1    20  18    5.0457   446.5    6.895      42.935
2015    5        1    20  24    5.0427   446.7    6.887      42.934
2015    5        1    20  30    5.0397   446.8    6.879      42.934
2015    5        1    20  37    5.0367   446.9    6.871      42.934
2015    5        1    20  43    5.0338   447.0    6.863      42.934
2015    5        1    20  49    5.0308   447.2    6.856      42.933
2015    5        1    20  55    5.0278   447.3    6.848      42.933
2015    5        1    21   1    5.0248   447.4    6.840      42.933
2015    5        1    21   7    5.0217   447.5    6.833      42.932
2015    5        1    21  13    5.0187   447.7    6.825      42.932
2015    5        1    21  20    5.0157   447.8    6.818      42.931
2015    5        1    21  26    5.0127   447.9    6.810      42.931
2015    5        1    21  32    5.0096   448.0    6.803      42.930
2015    5        1    21  38    5.0066   448.2    6.795      42.929
2015    5        1    21  44    5.0036   448.3    6.788      42.928
2015    5        1    21  50    5.0005   448.4    6.781      42.926
2015    5        1    21  56    4.9975   448.5    6.773      42.925
2015    5        1    22   2    4.9944   448.6    6.766      42.923
2015    5        1    22   9    4.9913   448.8    6.758      42.921
2015    5        1    22  15    4.9883   448.9    6.751      42.918
2015    5        1    22  21    4.9852   449.0    6.744      42.916
2015    5        1    22  27    4.9821   449.1    6.736      42.913
2015    5        1    22  33    4.9790   449.2    6.729      42.910
2015    5        1    22  39    4.9759   449.3    6.722      42.906
2015    5        1    22  45    4.9728   449.5    6.714      42.903
2015    5        1    22  51    4.9697   449.6    6.707      42.899
2015    5        1    22  58    4.9666   449.7    6.699      42.895
2015    5        1    23   4    4.9635   449.8    6.692      42.890
2015    5        1    23  10    4.9604   449.9    6.685      42.885
2015    5        1    23  16    4.9572   450.0    6.677      42.880
2015    5        1    23  22    4.9541   450.1    6.670      42.875
2015    5        1    23  28    4.9510   450.2    6.663      42.870
2015    5        1    23  34    4.9479   450.3    6.655      42.864
2015    5        1    23  40    4.9447   450.5    6.648      42.858
2015    5        1    23  47    4.9416   450.6    6.640      42.852
2015    5        1    23  53    4.9385   450.7    6.633      42.846
2015    5        1    23  59    4.9354   450.8    6.626      42.839
2015    5        2     0   5    4.9323   450.9    6.618      42.833
2015    5        2     0  11    4.9292   451.0    6.611      42.826
2015    5        2     0  17    4.9261   451.1    6.603      42.819
2015    5        2     0  23    4.9229   451.2    6.596      42.812
2015    5        2     0  29    4.9198   451.3    6.589      42.804
2015    5        2     0  36    4.9167   451.4    6.581      42.797
2015    5        2     0  42    4.9136   451.5    6.574      42.789
2015    5        2     0  48    4.9105   451.6    6.567      42.781
2015    5        2     0  54    4.9074   451.7    6.559      42.773
2015    5        2     1   0    4.9043   451.8    6.552      42.765
2015    5        2     1   6    4.9012   451.9    6.545      42.757
2015    5        2     1  12    4.8981   452.0    6.537      42.748
2015    5        2     1  18    4.8950   452.1    6.530      42.739
2015    5        2     1  25    4.8918   452.2    6.523      42.730
2015    5        2     1  31    4.8887   452.3    6.515      42.720
2015    5        2     1  37    4.8856   452.4    6.508      42.711
2015    5        2     1  43    4.8824   452.5    6.500      42.701
2015    5        2     1  49    4.8793   452.6    6.493      42.691
2015    5        2     1  55    4.8761   452.7    6.485      42.681
2015    5        2     2   1    4.8729   452.8    6.478      42.670
2015    5        2     2   7    4.8697   452.9    6.471      42.660
2015    5        2     2  14    4.8666   453.0    6.463      42.649
2015    5        2     2  20    4.8634   453.1    6.456      42.638
2015    5        2     2  26    4.8602   453.2    6.448      42.627
2015    5        2     2  32    4.8570   453.3    6.441      42.615
2015    5        2     2  38    4.8537   453.4    6.433      42.604
2015    5        2     2  44    4.8505   453.5    6.426      42.593
2015    5        2     2  50    4.8473   453.6    6.419      42.581
2015    5        2     2  57    4.8441   453.7    6.411      42.569
2015    5        2     3   3    4.8408   453.8    6.404      42.557
2015    5        2     3   9    4.8376   453.9    6.397      42.546
2015    5        2     3  15    4.8344   453.9    6.390      42.534
2015    5        2     3  21    4.8311   454.0    6.382      42.522
2015    5        2     3  27    4.8279   454.1    6.375      42.510
2015    5        2     3  33    4.8247   454.2    6.368      42.498
2015    5        2     3  39    4.8214   454.3    6.361      42.486
2015    5        2     3  46    4.8182   454.4    6.354      42.474
2015    5        2     3  52    4.8149   454.5    6.347      42.462
2015    5        2     3  58    4.8117   454.6    6.340      42.450
2015    5        2     4   4    4.8085   454.6    6.333      42.438
2015    5        2     4  10    4.8052   454.7    6.326      42.426
2015    5        2     4  16    4.8020   454.8    6.320      42.414
2015    5        2     4  22    4.7988   454.9    6.313      42.402
2015    5        2     4  28    4.7955   455.0    6.306      42.389
2015    5        2     4  35    4.7923   455.1    6.299      42.377
2015    5        2     4  41    4.7891   455.1    6.293      42.365
2015    5        2     4  47    4.7858   455.2    6.286      42.353
2015    5        2     4  53    4.7826   455.3    6.280      42.341
2015    5        2     4  59    4.7794   455.4    6.273      42.329
2015    5        2     5   5    4.7762   455.5    6.267      42.317
2015    5        2     5  11    4.7729   455.5    6.261      42.305
2015    5        2     5  17    4.7697   455.6    6.254      42.292
2015    5        2     5  24    4.7665   455.7    6.248      42.280
2015    5        2     5  30    4.7632   455.8    6.242      42.268
2015    5        2     5  36    4.7600   455.9    6.235      42.255
2015    5        2     5  42    4.7568   455.9    6.229      42.243
2015    5        2     5  48    4.7536   456.0    6.223      42.230
2015    5        2     5  54    4.7503   456.1    6.217      42.217
2015    5        2     6   0    4.7471   456.2    6.211      42.204
2015    5        2     6   6    4.7439   456.2    6.205      42.191
2015    5        2     6  13    4.7407   456.3    6.199      42.179
2015    5        2     6  19    4.7375   456.4    6.193      42.166
2015    5        2     6  25    4.7343   456.5    6.187      42.153
2015    5        2     6  31    4.7310   456.5    6.181      42.139
2015    5        2     6  37    4.7278   456.6    6.175      42.126
2015    5        2     6  43    4.7246   456.7    6.170      42.113
2015    5        2     6  49    4.7215   456.7    6.164      42.100
2015    5        2     6  55    4.7183   456.8    6.158      42.087
2015    5        2     7   2    4.7151   456.9    6.153      42.074
2015    5        2     7   8    4.7120   456.9    6.147      42.061
2015    5        2     7  14    4.7088   457.0    6.141      42.048
2015    5        2     7  20    4.7057   457.1    6.136      42.035
2015    5        2     7  26    4.7026   457.1    6.131      42.022
2015    5        2     7  32    4.6995   457.2    6.125      42.009
2015    5        2     7  38    4.6964   457.3    6.120      41.996
2015    5        2     7  44    4.6933   457.3    6.115      41.983
2015    5        2     7  51    4.6902   457.4    6.109      41.971
2015    5        2     7  57    4.6872   457.5    6.104      41.958
2015    5        2     8   3    4.6842   457.5    6.099      41.946
2015    5        2     8   9    4.6811   457.6    6.094      41.933
2015    5        2     8  15    4.6781   457.6    6.089      41.921
2015    5        2     8  21    4.6751   457.7    6.084      41.909
2015    5        2     8  27    4.6721   457.8    6.079      41.897
2015    5        2     8  34    4.6692   457.8    6.074      41.884
2015    5        2     8  40    4.6662   457.9    6.069      41.872
2015    5        2     8  46    4.6632   457.9    6.064      41.859
2015    5        2     8  52    4.6602   458.0    6.059      41.847
2015    5        2     8  58    4.6573   458.1    6.054      41.834
2015    5        2     9   4    4.6543   458.1    6.050      41.822
2015    5        2     9  10    4.6513   458.2    6.045      41.809
2015    5        2     9  16    4.6483   458.2    6.040      41.796
2015    5        2     9  23    4.6453   458.3    6.035      41.783
2015    5        2     9  29    4.6423   458.3    6.030      41.770
2015    5        2     9  35    4.6393   458.4    6.025      41.757
2015    5        2     9  41    4.6362   458.5    6.020      41.743
2015    5        2     9  47    4.6332   458.5    6.015      41.730
2015    5        2     9  53    4.6302   458.6    6.010      41.716
2015    5        2     9  59    4.6271   458.6    6.005      41.702
2015    5        2    10   5    4.6241   458.7    6.000      41.688
2015    5        2    10  12    4.6210   458.7    5.995      41.674
2015    5        2    10  18    4.6180   458.8    5.990      41.660
2015    5        2    10  24    4.6149   458.8    5.984      41.646
2015    5        2    10  30    4.6119   458.9    5.979      41.631
2015    5        2    10  36    4.6088   458.9    5.974      41.616
2015    5        2    10  42    4.6057   459.0    5.969      41.601
2015    5        2    10  48    4.6027   459.0    5.964      41.586
2015    5        2    10  54    4.5996   459.1    5.959      41.571
2015    5        2    11   1    4.5965   459.1    5.954      41.556
2015    5        2    11   7    4.5934   459.2    5.948      41.541
2015    5        2    11  13    4.5903   459.2    5.943      41.525
2015    5        2    11  19    4.5873   459.3    5.938      41.510
2015    5        2    11  25    4.5842   459.3    5.933      41.494
2015    5        2    11  31    4.5811   459.4    5.928      41.478
2015    5        2    11  37    4.5780   459.4    5.923      41.462
2015    5        2    11  43    4.5749   459.5    5.918      41.446
2015    5        2    11  50    4.5719   459.5    5.912      41.430
2015    5        2    11  56    4.5688   459.6    5.907      41.414
2015    5        2    12   2    4.5657   459.6    5.902      41.397
2015    5        2    12   8    4.5626   459.7    5.897      41.381
2015    5        2    12  14    4.5595   459.7    5.892      41.364
2015    5        2    12  20    4.5565   459.7    5.887      41.348
2015    5        2    12  26    4.5534   459.8    5.882      41.331
2015    5        2    12  32    4.5503   459.8    5.877      41.314
2015    5        2    12  39    4.5472   459.9    5.872      41.298
2015    5        2    12  45    4.5442   459.9    5.867      41.281
2015    5        2    12  51    4.5411   459.9    5.862      41.264
2015    5        2    12  57    4.5380   460.0    5.858      41.247
2015    5        2    13   3    4.5350   460.0    5.853      41.230
2015    5        2    13   9    4.5319   460.1    5.848      41.214
2015    5        2    13  15    4.5289   460.1    5.843      41.197
2015    5        2    13  21    4.5259   460.1    5.839      41.180
2015    5        2    13  28    4.5228   460.2    5.834      41.163
2015    5        2    13  34    4.5198   460.2    5.830      41.147
2015    5        2    13  40    4.5168   460.2    5.825      41.130
2015    5        2    13  46    4.5138   460.3    5.821      41.114
2015    5        2    13  52    4.5108   460.3    5.816      41.098
2015    5        2    13  58    4.5078   460.3    5.812      41.081
2015    5        2    14   4    4.5048   460.4    5.808      41.065
2015    5        2    14  10    4.5018   460.4    5.804      41.049
2015    5        2    14  17    4.4989   460.4    5.799      41.033
2015    5        2    14  23    4.4959   460.5    5.795      41.018
2015    5        2    14  29    4.4930   460.5    5.791      41.002
2015    5        2    14  35    4.4901   460.5    5.787      40.987
2015    5        2    14  41    4.4872   460.5    5.783      40.971
2015    5        2    14  47    4.4843   460.6    5.780      40.956
2015    5        2    14  53    4.4814   460.6    5.776      40.941
2015    5        2    15   0    4.4785   460.6    5.772      40.927
2015    5        2    15   6    4.4757   460.7    5.768      40.912
2015    5        2    15  12    4.4728   460.7    5.765      40.898
2015    5        2    15  18    4.4700   460.7    5.761      40.883
2015    5        2    15  24    4.4672   460.7    5.757      40.869
2015    5        2    15  30    4.4643   460.7    5.754      40.855
2015    5        2    15  36    4.4615   460.8    5.750      40.841
2015    5        2    15  42    4.4588   460.8    5.747      40.827
2015    5        2    15  49    4.4560   460.8    5.743      40.814
2015    5        2    15  55    4.4532   460.8    5.740      40.800
2015    5        2    16   1    4.4504   460.9    5.737      40.787
2015    5        2    16   7    4.4477   460.9    5.733      40.773
2015    5        2    16  13    4.4449   460.9    5.730      40.760
2015    5        2    16  19    4.4422   460.9    5.727      40.747
2015    5        2    16  25    4.4395   460.9    5.723      40.733
2015    5        2    16  31    4.4367   461.0    5.720      40.720
2015    5        2    16  38    4.4340   461.0    5.717      40.707
2015    5        2    16  44    4.4313   461.0    5.713      40.694
2015    5        2    16  50    4.4285   461.0    5.710      40.680
2015    5        2    16  56    4.4258   461.0    5.707      40.667
2015    5        2    17   2    4.4231   461.0    5.703      40.654
2015    5        2    17   8    4.4204   461.1    5.700      40.640
2015    5        2    17  14    4.4176   461.1    5.696      40.627
2015    5        2    17  20    4.4149   461.1    5.693      40.613
2015    5        2    17  27    4.4122   461.1    5.690      40.600
2015    5        2    17  33    4.4094   461.1    5.686      40.586
2015    5        2    17  39    4.4067   461.1    5.683      40.572
2015    5        2    17  45    4.4040   461.1    5.680      40.558
2015    5        2    17  51    4.4013   461.2    5.676      40.544
2015    5        2    17  57    4.3985   461.2    5.673      40.529
2015    5        2    18   3    4.3958   461.2    5.670      40.515
2015    5        2    18   9    4.3931   461.2    5.666      40.501
2015    5        2    18  16    4.3903   461.2    5.663      40.486
2015    5        2    18  22    4.3876   461.2    5.659      40.472
2015    5        2    18  28    4.3849   461.2    5.656      40.457
2015    5        2    18  34    4.3822   461.2    5.653      40.442
2015    5        2    18  40    4.3795   461.3    5.649      40.427
2015    5        2    18  46    4.3767   461.3    5.646      40.412
2015    5        2    18  52    4.3740   461.3    5.643      40.397
2015    5        2    18  58    4.3713   461.3    5.639      40.382
2015    5        2    19   5    4.3686   461.3    5.636      40.366
2015    5        2    19  11    4.3659   461.3    5.632      40.350
2015    5        2    19  17    4.3631   461.3    5.629      40.335
2015    5        2    19  23    4.3604   461.3    5.626      40.319
2015    5        2    19  29    4.3577   461.3    5.622      40.303
2015    5        2    19  35    4.3550   461.3    5.619      40.288
2015    5        2    19  41    4.3523   461.3    5.616      40.272
2015    5        2    19  47    4.3496   461.3    5.613      40.256
2015    5        2    19  54    4.3469   461.3    5.609      40.240
2015    5        2    20   0    4.3442   461.3    5.606      40.224
2015    5        2    20   6    4.3415   461.3    5.603      40.207
2015    5        2    20  12    4.3388   461.3    5.600      40.191
2015    5        2    20  18    4.3361   461.3    5.596      40.175
2015    5        2    20  24    4.3334   461.4    5.593      40.159
2015    5        2    20  30    4.3307   461.4    5.590      40.142
2015    5        2    20  37    4.3280   461.4    5.587      40.126
2015    5        2    20  43    4.3254   461.4    5.584      40.110
2015    5        2    20  49    4.3227   461.3    5.581      40.093
2015    5        2    20  55    4.3200   461.3    5.578      40.077
2015    5        2    21   1    4.3174   461.3    5.575      40.061
2015    5        2    21   7    4.3147   461.3    5.572      40.045
2015    5        2    21  13    4.3121   461.3    5.569      40.029
2015    5        2    21  19    4.3094   461.3    5.566      40.012
2015    5        2    21  26    4.3068   461.3    5.563      39.996
2015    5        2    21  32    4.3042   461.3    5.560      39.980
2015    5        2    21  38    4.3016   461.3    5.557      39.964
2015    5        2    21  44    4.2990   461.3    5.555      39.948
2015    5        2    21  50    4.2964   461.3    5.552      39.932
2015    5        2    21  56    4.2938   461.3    5.549      39.916
2015    5        2    22   2    4.2913   461.3    5.546      39.901
2015    5        2    22   8    4.2887   461.3    5.544      39.885
2015    5        2    22  15    4.2862   461.3    5.541      39.869
2015    5        2    22  21    4.2836   461.3    5.538      39.854
2015    5        2    22  27    4.2811   461.3    5.536      39.838
2015    5        2    22  33    4.2786   461.3    5.533      39.823
2015    5        2    22  39    4.2761   461.2    5.531      39.807
2015    5        2    22  45    4.2736   461.2    5.528      39.792
2015    5        2    22  51    4.2711   461.2    5.525      39.777
2015    5        2    22  57    4.2686   461.2    5.523      39.762
2015    5        2    23   4    4.2661   461.2    5.520      39.747
2015    5        2    23  10    4.2637   461.2    5.518      39.732
2015    5        2    23  16    4.2612   461.2    5.515      39.717
2015    5        2    23  22    4.2588   461.2    5.513      39.702
2015    5        2    23  28    4.2563   461.1    5.511      39.687
2015    5        2    23  34    4.2539   461.1    5.508      39.672
2015    5        2    23  40    4.2515   461.1    5.506      39.658
2015    5        2    23  46    4.2491   461.1    5.503      39.643
2015    5        2    23  53    4.2466   461.1    5.501      39.629
2015    5        2    23  59    4.2442   461.1    5.498      39.614
2015    5        3     0   5    4.2418   461.1    5.496      39.599
2015    5        3     0  11    4.2394   461.0    5.494      39.585
2015    5        3     0  17    4.2371   461.0    5.491      39.570
2015    5        3     0  23    4.2347   461.0    5.489      39.556
2015    5        3     0  29    4.2323   461.0    5.487      39.541
2015    5        3     0  35    4.2299   461.0    5.484      39.527
2015    5        3     0  42    4.2275   461.0    5.482      39.513
2015    5        3     0  48    4.2252   460.9    5.480      39.498
2015    5        3     0  54    4.2228   460.9    5.477      39.484
2015    5        3     1   0    4.2205   460.9    5.475      39.470
2015    5        3     1   6    4.2181   460.9    5.473      39.456
2015    5        3     1  12    4.2158   460.9    5.471      39.441
2015    5        3     1  18    4.2134   460.9    5.468      39.427
2015    5        3     1  25    4.2111   460.8    5.466      39.413
2015    5        3     1  31    4.2087   460.8    5.464      39.399
2015    5        3     1  37    4.2064   460.8    5.462      39.385
2015    5        3     1  43    4.2041   460.8    5.459      39.370
2015    5        3     1  49    4.2017   460.8    5.457      39.356
2015    5        3     1  55    4.1994   460.7    5.455      39.342
2015    5        3     2   1    4.1971   460.7    5.453      39.328
2015    5        3     2   7    4.1948   460.7    5.451      39.314
2015    5        3     2  14    4.1925   460.7    5.449      39.300
2015    5        3     2  20    4.1902   460.6    5.447      39.286
2015    5        3     2  26    4.1879   460.6    5.445      39.272
2015    5        3     2  32    4.1856   460.6    5.443      39.257
2015    5        3     2  38    4.1833   460.6    5.441      39.243
2015    5        3     2  44    4.1811   460.5    5.438      39.229
2015    5        3     2  50    4.1788   460.5    5.436      39.215
2015    5        3     2  56    4.1765   460.5    5.434      39.200
2015    5        3     3   3    4.1743   460.5    5.433      39.186
2015    5        3     3   9    4.1720   460.4    5.431      39.172
2015    5        3     3  15    4.1698   460.4    5.429      39.158
2015    5        3     3  21    4.1676   460.4    5.427      39.143
2015    5        3     3  27    4.1653   460.4    5.425      39.129
2015    5        3     3  33    4.1631   460.3    5.423      39.114
2015    5        3     3  39    4.1608   460.3    5.421      39.100
2015    5        3     3  45    4.1586   460.3    5.419      39.085
2015    5        3     3  52    4.1564   460.2    5.417      39.070
2015    5        3     3  58    4.1542   460.2    5.415      39.055
2015    5        3     4   4    4.1520   460.2    5.414      39.039
2015    5        3     4  10    4.1498   460.1    5.412      39.024
2015    5        3     4  16    4.1475   460.1    5.410      39.008
2015    5        3     4  22    4.1453   460.1    5.408      38.992
2015    5        3     4  28    4.1431   460.0    5.406      38.976
2015    5        3     4  34    4.1410   460.0    5.404      38.960
2015    5        3     4  41    4.1388   460.0    5.402      38.944
2015    5        3     4  47    4.1366   459.9    5.401      38.928
2015    5        3     4  53    4.1344   459.9    5.399      38.911
2015    5        3     4  59    4.1322   459.9    5.397      38.895
2015    5        3     5   5    4.1301   459.8    5.395      38.878
2015    5        3     5  11    4.1280   459.8    5.393      38.862
2015    5        3     5  17    4.1258   459.8    5.391      38.845
2015    5        3     5  23    4.1237   459.7    5.389      38.828
2015    5        3     5  30    4.1215   459.7    5.388      38.811
2015    5        3     5  36    4.1194   459.6    5.386      38.794
2015    5        3     5  42    4.1173   459.6    5.384      38.778
2015    5        3     5  48    4.1152   459.6    5.382      38.761
2015    5        3     5  54    4.1131   459.5    5.380      38.743
2015    5        3     6   0    4.1110   459.5    5.378      38.726
2015    5        3     6   6    4.1089   459.4    5.376      38.709
2015    5        3     6  12    4.1068   459.4    5.375      38.692
2015    5        3     6  19    4.1047   459.4    5.373      38.675
2015    5        3     6  25    4.1026   459.3    5.371      38.657
2015    5        3     6  31    4.1006   459.3    5.369      38.640
2015    5        3     6  37    4.0985   459.2    5.367      38.623
2015    5        3     6  43    4.0964   459.2    5.365      38.606
2015    5        3     6  49    4.0944   459.2    5.363      38.589
2015    5        3     6  55    4.0923   459.1    5.362      38.572
2015    5        3     7   1    4.0903   459.1    5.360      38.554
2015    5        3     7   8    4.0882   459.0    5.358      38.537
2015    5        3     7  14    4.0862   459.0    5.356      38.520
2015    5        3     7  20    4.0841   458.9    5.354      38.503
2015    5        3     7  26    4.0821   458.9    5.352      38.486
2015    5        3     7  32    4.0801   458.8    5.350      38.469
2015    5        3     7  38    4.0781   458.8    5.348      38.452
2015    5        3     7  44    4.0760   458.8    5.346      38.435
2015    5        3     7  51    4.0740   458.7    5.344      38.419
2015    5        3     7  57    4.0720   458.7    5.343      38.402
2015    5        3     8   3    4.0700   458.6    5.341      38.385
2015    5        3     8   9    4.0680   458.6    5.339      38.369
2015    5        3     8  15    4.0660   458.5    5.337      38.352
2015    5        3     8  21    4.0640   458.5    5.335      38.336
2015    5        3     8  27    4.0620   458.4    5.333      38.319
2015    5        3     8  33    4.0601   458.4    5.331      38.303
2015    5        3     8  40    4.0581   458.3    5.330      38.287
2015    5        3     8  46    4.0561   458.3    5.328      38.271
2015    5        3     8  52    4.0541   458.2    5.326      38.255
2015    5        3     8  58    4.0522   458.2    5.324      38.239
2015    5        3     9   4    4.0502   458.1    5.323      38.223
2015    5        3     9  10    4.0483   458.1    5.321      38.207
2015    5        3     9  16    4.0464   458.0    5.319      38.192
2015    5        3     9  22    4.0445   458.0    5.318      38.176
2015    5        3     9  29    4.0426   457.9    5.316      38.161
2015    5        3     9  35    4.0407   457.9    5.315      38.146
2015    5        3     9  41    4.0388   457.8    5.313      38.131
2015    5        3     9  47    4.0369   457.7    5.312      38.116
2015    5        3     9  53    4.0351   457.7    5.311      38.102
2015    5        3     9  59    4.0332   457.6    5.310      38.087
2015    5        3    10   5    4.0314   457.6    5.308      38.073
2015    5        3    10  11    4.0296   457.5    5.307      38.059
2015    5        3    10  18    4.0278   457.5    5.306      38.045
2015    5        3    10  24    4.0260   457.4    5.305      38.031
2015    5        3    10  30    4.0242   457.4    5.305      38.018
2015    5        3    10  36    4.0225   457.3    5.304      38.005
2015    5        3    10  42    4.0208   457.2    5.303      37.992
2015    5        3    10  48    4.0191   457.2    5.303      37.979
2015    5        3    10  54    4.0174   457.1    5.302      37.967
2015    5        3    11   0    4.0157   457.1    5.302      37.954
2015    5        3    11   7    4.0140   457.0    5.302      37.942
2015    5        3    11  13    4.0123   457.0    5.302      37.931
2015    5        3    11  19    4.0107   456.9    5.302      37.919
2015    5        3    11  25    4.0091   456.9    5.302      37.908
2015    5        3    11  31    4.0074   456.8    5.302      37.897
2015    5        3    11  37    4.0058   456.7    5.302      37.886
2015    5        3    11  43    4.0041   456.7    5.302      37.874
2015    5        3    11  49    4.0025   456.6    5.302      37.863
2015    5        3    11  56    4.0008   456.6    5.302      37.852
2015    5        3    12   2    3.9992   456.5    5.302      37.840
2015    5        3    12   8    3.9975   456.5    5.302      37.828
2015    5        3    12  14    3.9959   456.4    5.302      37.816
2015    5        3    12  20    3.9942   456.4    5.301      37.804
2015    5        3    12  26    3.9926   456.3    5.301      37.791
2015    5        3    12  32    3.9909   456.2    5.301      37.779
2015    5        3    12  38    3.9893   456.2    5.301      37.766
2015    5        3    12  45    3.9876   456.1    5.301      37.752
2015    5        3    12  51    3.9860   456.1    5.301      37.739
2015    5        3    12  57    3.9843   456.0    5.300      37.725
2015    5        3    13   3    3.9826   456.0    5.300      37.712
2015    5        3    13   9    3.9810   455.9    5.300      37.698
2015    5        3    13  15    3.9793   455.9    5.299      37.685
2015    5        3    13  21    3.9776   455.8    5.299      37.671
2015    5        3    13  28    3.9759   455.7    5.298      37.657
2015    5        3    13  34    3.9743   455.7    5.297      37.642
2015    5        3    13  40    3.9726   455.6    5.297      37.628
2015    5        3    13  46    3.9709   455.6    5.296      37.613
2015    5        3    13  52    3.9692   455.5    5.295      37.598
2015    5        3    13  58    3.9675   455.4    5.294      37.582
2015    5        3    14   4    3.9658   455.4    5.293      37.566
2015    5        3    14  10    3.9642   455.3    5.292      37.550
2015    5        3    14  17    3.9625   455.3    5.291      37.534
2015    5        3    14  23    3.9608   455.2    5.290      37.517
2015    5        3    14  29    3.9591   455.1    5.288      37.500
2015    5        3    14  35    3.9575   455.1    5.287      37.483
2015    5        3    14  41    3.9558   455.0    5.286      37.466
2015    5        3    14  47    3.9541   454.9    5.284      37.448
2015    5        3    14  53    3.9525   454.9    5.283      37.431
2015    5        3    14  59    3.9508   454.8    5.282      37.413
2015    5        3    15   6    3.9492   454.7    5.280      37.395
2015    5        3    15  12    3.9475   454.7    5.279      37.376
2015    5        3    15  18    3.9459   454.6    5.277      37.358
2015    5        3    15  24    3.9443   454.5    5.276      37.339
2015    5        3    15  30    3.9426   454.5    5.274      37.321
2015    5        3    15  36    3.9410   454.4    5.272      37.302
2015    5        3    15  42    3.9394   454.3    5.271      37.283
2015    5        3    15  48    3.9378   454.3    5.269      37.264
2015    5        3    15  55    3.9362   454.2    5.267      37.244
2015    5        3    16   1    3.9346   454.1    5.266      37.225
2015    5        3    16   7    3.9330   454.1    5.264      37.206
2015    5        3    16  13    3.9314   454.0    5.262      37.186
2015    5        3    16  19    3.9299   453.9    5.261      37.167
2015    5        3    16  25    3.9283   453.8    5.259      37.147
2015    5        3    16  31    3.9267   453.8    5.257      37.128
2015    5        3    16  37    3.9252   453.7    5.256      37.108
2015    5        3    16  44    3.9236   453.6    5.254      37.089
2015    5        3    16  50    3.9221   453.6    5.253      37.069
2015    5        3    16  56    3.9205   453.5    5.251      37.050
2015    5        3    17   2    3.9190   453.4    5.249      37.030
2015    5        3    17   8    3.9175   453.3    5.248      37.010
2015    5        3    17  14    3.9160   453.3    5.247      36.991
2015    5        3    17  20    3.9145   453.2    5.245      36.971
2015    5        3    17  26    3.9130   453.1    5.244      36.952
2015    5        3    17  33    3.9116   453.0    5.243      36.933
2015    5        3    17  39    3.9101   453.0    5.241      36.914
2015    5        3    17  45    3.9087   452.9    5.240      36.895
2015    5        3    17  51    3.9072   452.8    5.239      36.877
2015    5        3    17  57    3.9058   452.7    5.238      36.858
2015    5        3    18   3    3.9044   452.7    5.237      36.840
2015    5        3    18   9    3.9031   452.6    5.237      36.823
2015    5        3    18  15    3.9017   452.5    5.236      36.805
2015    5        3    18  22    3.9003   452.4    5.235      36.788
2015    5        3    18  28    3.8990   452.4    5.235      36.771
2015    5        3    18  34    3.8977   452.3    5.235      36.755
2015    5        3    18  40    3.8963   452.2    5.234      36.739
2015    5        3    18  46    3.8950   452.2    5.234      36.723
2015    5        3    18  52    3.8937   452.1    5.234      36.707
2015    5        3    18  58    3.8924   452.0    5.234      36.692
2015    5        3    19   5    3.8910   451.9    5.234      36.677
2015    5        3    19  11    3.8897   451.9    5.234      36.662
2015    5        3    19  17    3.8884   451.8    5.234      36.647
2015    5        3    19  23    3.8870   451.7    5.234      36.632
2015    5        3    19  29    3.8857   451.6    5.234      36.617
2015    5        3    19  35    3.8844   451.6    5.234      36.602
2015    5        3    19  41    3.8830   451.5    5.234      36.587
2015    5        3    19  47    3.8817   451.4    5.235      36.572
2015    5        3    19  54    3.8804   451.3    5.235      36.556
2015    5        3    20   0    3.8790   451.3    5.235      36.541
2015    5        3    20   6    3.8777   451.2    5.235      36.526
2015    5        3    20  12    3.8764   451.1    5.236      36.512
2015    5        3    20  18    3.8751   451.0    5.236      36.497
2015    5        3    20  24    3.8738   451.0    5.237      36.483
2015    5        3    20  30    3.8725   450.9    5.237      36.469
2015    5        3    20  36    3.8712   450.8    5.238      36.455
2015    5        3    20  43    3.8699   450.7    5.239      36.442
2015    5        3    20  49    3.8687   450.6    5.239      36.428
2015    5        3    20  55    3.8674   450.6    5.240      36.415
2015    5        3    21   1    3.8662   450.5    5.241      36.402
2015    5        3    21   7    3.8650   450.4    5.242      36.390
2015    5        3    21  13    3.8638   450.3    5.243      36.378
2015    5        3    21  19    3.8626   450.3    5.244      36.367
2015    5        3    21  25    3.8615   450.2    5.245      36.355
2015    5        3    21  32    3.8603   450.1    5.246      36.344
2015    5        3    21  38    3.8592   450.0    5.247      36.333
2015    5        3    21  44    3.8581   449.9    5.248      36.322
2015    5        3    21  50    3.8569   449.9    5.249      36.311
2015    5        3    21  56    3.8558   449.8    5.250      36.300
2015    5        3    22   2    3.8547   449.7    5.251      36.288
2015    5        3    22   8    3.8536   449.6    5.252      36.277
2015    5        3    22  14    3.8525   449.5    5.252      36.265
2015    5        3    22  21    3.8514   449.5    5.253      36.253
2015    5        3    22  27    3.8503   449.4    5.254      36.241
2015    5        3    22  33    3.8493   449.3    5.255      36.229
2015    5        3    22  39    3.8482   449.2    5.255      36.217
2015    5        3    22  45    3.8472   449.2    5.256      36.205
2015    5        3    22  51    3.8461   449.1    5.257      36.193
2015    5        3    22  57    3.8451   449.0    5.257      36.181
2015    5        3    23   3    3.8440   448.9    5.257      36.168
2015    5        3    23  10    3.8430   448.8    5.258      36.155
2015    5        3    23  16    3.8419   448.8    5.258      36.142
2015    5        3    23  22    3.8409   448.7    5.258      36.128
2015    5        3    23  28    3.8398   448.6    5.258      36.113
2015    5        3    23  34    3.8387   448.5    5.258      36.099
2015    5        3    23  40    3.8377   448.4    5.258      36.083
2015    5        3    23  46    3.8366   448.4    5.257      36.068
2015    5        3    23  52    3.8355   448.3    5.257      36.051
2015    5        3    23  59    3.8344   448.2    5.256      36.035
2015    5        4     0   5    3.8333   448.1    5.256      36.017
