year    month   day   hour  minute  B_enl V_enl   n_enl       T_enl
[year] [month] [day] [hour][minute] [nT]  [km/s]  [cm-3]      [kK]
2015    4       12     0   0    4.4569   439.1    6.331      40.270
2015    4       12     0   5    4.4559   439.1    6.330      40.263
2015    4       12     0  11    4.4549   439.1    6.329      40.255
2015    4       12     0  17    4.4539   439.1    6.329      40.248
2015    4       12     0  23    4.4529   439.1    6.328      40.240
2015    4       12     0  29    4.4519   439.2    6.327      40.233
2015    4       12     0  35    4.4509   439.2    6.326      40.226
2015    4       12     0  41    4.4500   439.2    6.325      40.219
2015    4       12     0  47    4.4490   439.2    6.324      40.212
2015    4       12     0  53    4.4480   439.2    6.323      40.206
2015    4       12     0  59    4.4471   439.2    6.323      40.199
2015    4       12     1   5    4.4461   439.2    6.322      40.193
2015    4       12     1  11    4.4452   439.2    6.321      40.187
2015    4       12     1  17    4.4443   439.3    6.320      40.181
2015    4       12     1  23    4.4434   439.3    6.320      40.175
2015    4       12     1  29    4.4425   439.3    6.319      40.170
2015    4       12     1  35    4.4416   439.3    6.318      40.164
2015    4       12     1  41    4.4407   439.3    6.318      40.159
2015    4       12     1  47    4.4398   439.3    6.317      40.154
2015    4       12     1  53    4.4390   439.3    6.316      40.149
2015    4       12     1  58    4.4381   439.3    6.315      40.144
2015    4       12     2   4    4.4373   439.3    6.315      40.139
2015    4       12     2  10    4.4364   439.4    6.314      40.134
2015    4       12     2  16    4.4356   439.4    6.313      40.129
2015    4       12     2  22    4.4348   439.4    6.312      40.124
2015    4       12     2  28    4.4339   439.4    6.311      40.120
2015    4       12     2  34    4.4331   439.4    6.310      40.115
2015    4       12     2  40    4.4323   439.4    6.309      40.109
2015    4       12     2  46    4.4314   439.4    6.308      40.104
2015    4       12     2  52    4.4306   439.4    6.307      40.098
2015    4       12     2  58    4.4298   439.4    6.306      40.092
2015    4       12     3   4    4.4289   439.5    6.305      40.086
2015    4       12     3  10    4.4281   439.5    6.304      40.080
2015    4       12     3  16    4.4272   439.5    6.303      40.073
2015    4       12     3  22    4.4264   439.5    6.301      40.067
2015    4       12     3  28    4.4256   439.5    6.300      40.060
2015    4       12     3  34    4.4247   439.5    6.299      40.053
2015    4       12     3  40    4.4238   439.5    6.298      40.046
2015    4       12     3  46    4.4230   439.5    6.296      40.038
2015    4       12     3  51    4.4221   439.5    6.295      40.031
2015    4       12     3  57    4.4212   439.5    6.294      40.023
2015    4       12     4   3    4.4204   439.6    6.292      40.016
2015    4       12     4   9    4.4195   439.6    6.291      40.008
2015    4       12     4  15    4.4186   439.6    6.289      40.000
2015    4       12     4  21    4.4177   439.6    6.288      39.992
2015    4       12     4  27    4.4169   439.6    6.287      39.984
2015    4       12     4  33    4.4160   439.6    6.285      39.975
2015    4       12     4  39    4.4151   439.6    6.284      39.967
2015    4       12     4  45    4.4142   439.6    6.282      39.958
2015    4       12     4  51    4.4133   439.6    6.281      39.950
2015    4       12     4  57    4.4124   439.6    6.280      39.941
2015    4       12     5   3    4.4115   439.6    6.278      39.932
2015    4       12     5   9    4.4106   439.6    6.277      39.923
2015    4       12     5  15    4.4097   439.6    6.275      39.914
2015    4       12     5  21    4.4088   439.7    6.274      39.905
2015    4       12     5  27    4.4079   439.7    6.273      39.896
2015    4       12     5  33    4.4070   439.7    6.271      39.886
2015    4       12     5  39    4.4062   439.7    6.270      39.877
2015    4       12     5  44    4.4052   439.7    6.269      39.868
2015    4       12     5  50    4.4043   439.7    6.268      39.859
2015    4       12     5  56    4.4035   439.7    6.267      39.849
2015    4       12     6   2    4.4025   439.7    6.265      39.840
2015    4       12     6   8    4.4017   439.7    6.264      39.831
2015    4       12     6  14    4.4008   439.7    6.263      39.822
2015    4       12     6  20    4.3999   439.7    6.262      39.813
2015    4       12     6  26    4.3990   439.7    6.261      39.804
2015    4       12     6  32    4.3981   439.7    6.260      39.795
2015    4       12     6  38    4.3972   439.7    6.260      39.786
2015    4       12     6  44    4.3963   439.8    6.259      39.778
2015    4       12     6  50    4.3954   439.8    6.258      39.769
2015    4       12     6  56    4.3945   439.8    6.257      39.761
2015    4       12     7   2    4.3937   439.8    6.257      39.753
2015    4       12     7   8    4.3928   439.8    6.256      39.745
2015    4       12     7  14    4.3919   439.8    6.255      39.738
2015    4       12     7  20    4.3911   439.8    6.255      39.731
2015    4       12     7  26    4.3902   439.8    6.255      39.724
2015    4       12     7  32    4.3894   439.8    6.254      39.717
2015    4       12     7  37    4.3886   439.8    6.254      39.711
2015    4       12     7  43    4.3877   439.8    6.254      39.705
2015    4       12     7  49    4.3869   439.8    6.253      39.699
2015    4       12     7  55    4.3861   439.8    6.253      39.694
2015    4       12     8   1    4.3853   439.8    6.253      39.689
2015    4       12     8   7    4.3845   439.8    6.253      39.684
2015    4       12     8  13    4.3838   439.8    6.253      39.679
2015    4       12     8  19    4.3830   439.8    6.253      39.675
2015    4       12     8  25    4.3823   439.8    6.253      39.672
2015    4       12     8  31    4.3816   439.9    6.254      39.669
2015    4       12     8  37    4.3809   439.9    6.254      39.666
2015    4       12     8  43    4.3802   439.9    6.254      39.663
2015    4       12     8  49    4.3795   439.9    6.254      39.661
2015    4       12     8  55    4.3788   439.9    6.255      39.659
2015    4       12     9   1    4.3782   439.9    6.255      39.657
2015    4       12     9   7    4.3776   439.9    6.255      39.656
2015    4       12     9  13    4.3770   439.9    6.256      39.655
2015    4       12     9  19    4.3764   439.9    6.256      39.654
2015    4       12     9  25    4.3758   439.9    6.257      39.653
2015    4       12     9  30    4.3752   439.9    6.257      39.653
2015    4       12     9  36    4.3747   439.9    6.257      39.652
2015    4       12     9  42    4.3742   439.9    6.258      39.651
2015    4       12     9  48    4.3737   439.9    6.258      39.650
2015    4       12     9  54    4.3732   439.9    6.258      39.650
2015    4       12    10   0    4.3727   439.9    6.259      39.648
2015    4       12    10   6    4.3722   439.9    6.259      39.647
2015    4       12    10  12    4.3718   439.9    6.259      39.646
2015    4       12    10  18    4.3713   439.9    6.259      39.644
2015    4       12    10  24    4.3709   439.9    6.259      39.642
2015    4       12    10  30    4.3704   439.9    6.259      39.639
2015    4       12    10  36    4.3700   439.9    6.259      39.636
2015    4       12    10  42    4.3696   439.9    6.259      39.633
2015    4       12    10  48    4.3692   439.9    6.259      39.630
2015    4       12    10  54    4.3688   439.9    6.259      39.626
2015    4       12    11   0    4.3684   439.9    6.259      39.621
2015    4       12    11   6    4.3680   439.9    6.258      39.617
2015    4       12    11  12    4.3676   439.9    6.258      39.612
2015    4       12    11  18    4.3672   439.9    6.258      39.607
2015    4       12    11  23    4.3668   440.0    6.257      39.602
2015    4       12    11  29    4.3664   440.0    6.257      39.596
2015    4       12    11  35    4.3660   440.0    6.257      39.591
2015    4       12    11  41    4.3656   440.0    6.256      39.585
2015    4       12    11  47    4.3652   440.0    6.256      39.579
2015    4       12    11  53    4.3649   440.0    6.255      39.572
2015    4       12    11  59    4.3645   440.0    6.255      39.566
2015    4       12    12   5    4.3641   440.0    6.255      39.559
2015    4       12    12  11    4.3637   440.0    6.254      39.553
2015    4       12    12  17    4.3634   440.0    6.254      39.546
2015    4       12    12  23    4.3630   440.0    6.253      39.539
2015    4       12    12  29    4.3626   440.0    6.253      39.532
2015    4       12    12  35    4.3623   440.0    6.252      39.526
2015    4       12    12  41    4.3619   440.0    6.252      39.519
2015    4       12    12  47    4.3616   440.0    6.252      39.512
2015    4       12    12  53    4.3612   440.0    6.251      39.505
2015    4       12    12  59    4.3609   440.0    6.251      39.498
2015    4       12    13   5    4.3605   440.0    6.251      39.492
2015    4       12    13  11    4.3602   440.0    6.250      39.485
2015    4       12    13  16    4.3598   440.0    6.250      39.478
2015    4       12    13  22    4.3595   440.0    6.250      39.472
2015    4       12    13  28    4.3591   440.0    6.250      39.466
2015    4       12    13  34    4.3588   440.0    6.250      39.459
2015    4       12    13  40    4.3584   440.0    6.250      39.453
2015    4       12    13  46    4.3581   440.0    6.250      39.448
2015    4       12    13  52    4.3578   440.0    6.250      39.442
2015    4       12    13  58    4.3574   440.0    6.250      39.437
2015    4       12    14   4    4.3571   440.0    6.250      39.431
2015    4       12    14  10    4.3567   440.0    6.250      39.426
2015    4       12    14  16    4.3564   440.0    6.250      39.422
2015    4       12    14  22    4.3561   440.0    6.250      39.417
2015    4       12    14  28    4.3557   440.0    6.251      39.413
2015    4       12    14  34    4.3554   440.0    6.251      39.408
2015    4       12    14  40    4.3551   440.0    6.251      39.404
2015    4       12    14  46    4.3548   440.0    6.252      39.401
2015    4       12    14  52    4.3544   440.0    6.252      39.397
2015    4       12    14  58    4.3541   440.1    6.252      39.394
2015    4       12    15   4    4.3538   440.1    6.253      39.390
2015    4       12    15   9    4.3535   440.1    6.253      39.388
2015    4       12    15  15    4.3532   440.1    6.254      39.385
2015    4       12    15  21    4.3529   440.1    6.254      39.382
2015    4       12    15  27    4.3526   440.1    6.255      39.380
2015    4       12    15  33    4.3523   440.1    6.255      39.378
2015    4       12    15  39    4.3520   440.1    6.256      39.376
2015    4       12    15  45    4.3517   440.1    6.256      39.374
2015    4       12    15  51    4.3515   440.1    6.257      39.373
2015    4       12    15  57    4.3512   440.1    6.257      39.372
2015    4       12    16   3    4.3510   440.1    6.258      39.371
2015    4       12    16   9    4.3508   440.1    6.258      39.370
2015    4       12    16  15    4.3506   440.1    6.259      39.369
2015    4       12    16  21    4.3504   440.1    6.259      39.369
2015    4       12    16  27    4.3502   440.1    6.260      39.369
2015    4       12    16  33    4.3500   440.1    6.261      39.369
2015    4       12    16  39    4.3499   440.1    6.261      39.369
2015    4       12    16  45    4.3497   440.1    6.262      39.369
2015    4       12    16  51    4.3496   440.1    6.262      39.370
2015    4       12    16  57    4.3495   440.1    6.263      39.370
2015    4       12    17   2    4.3495   440.1    6.264      39.371
2015    4       12    17   8    4.3494   440.1    6.264      39.372
2015    4       12    17  14    4.3494   440.1    6.265      39.373
2015    4       12    17  20    4.3494   440.1    6.266      39.374
2015    4       12    17  26    4.3494   440.1    6.267      39.375
2015    4       12    17  32    4.3495   440.1    6.267      39.376
2015    4       12    17  38    4.3495   440.1    6.268      39.377
2015    4       12    17  44    4.3496   440.1    6.269      39.378
2015    4       12    17  50    4.3497   440.1    6.269      39.379
2015    4       12    17  56    4.3498   440.1    6.270      39.380
2015    4       12    18   2    4.3499   440.1    6.271      39.381
2015    4       12    18   8    4.3501   440.1    6.272      39.382
2015    4       12    18  14    4.3503   440.1    6.272      39.383
2015    4       12    18  20    4.3505   440.1    6.273      39.383
2015    4       12    18  26    4.3507   440.1    6.274      39.383
2015    4       12    18  32    4.3509   440.1    6.274      39.384
2015    4       12    18  38    4.3511   440.1    6.275      39.384
2015    4       12    18  44    4.3513   440.1    6.276      39.384
2015    4       12    18  49    4.3515   440.1    6.276      39.384
2015    4       12    18  55    4.3518   440.1    6.277      39.383
2015    4       12    19   1    4.3520   440.1    6.278      39.383
2015    4       12    19   7    4.3523   440.1    6.278      39.383
2015    4       12    19  13    4.3525   440.1    6.279      39.382
2015    4       12    19  19    4.3527   440.1    6.280      39.381
2015    4       12    19  25    4.3529   440.1    6.280      39.380
2015    4       12    19  31    4.3532   440.1    6.281      39.379
2015    4       12    19  37    4.3534   440.1    6.281      39.378
2015    4       12    19  43    4.3536   440.1    6.282      39.377
2015    4       12    19  49    4.3538   440.1    6.282      39.375
2015    4       12    19  55    4.3540   440.1    6.283      39.374
2015    4       12    20   1    4.3542   440.1    6.283      39.372
2015    4       12    20   7    4.3545   440.1    6.284      39.370
2015    4       12    20  13    4.3547   440.1    6.284      39.368
2015    4       12    20  19    4.3549   440.1    6.285      39.367
2015    4       12    20  25    4.3551   440.1    6.285      39.365
2015    4       12    20  31    4.3553   440.1    6.286      39.363
2015    4       12    20  37    4.3555   440.1    6.286      39.361
2015    4       12    20  42    4.3557   440.1    6.287      39.359
2015    4       12    20  48    4.3559   440.1    6.287      39.356
2015    4       12    20  54    4.3562   440.1    6.287      39.354
2015    4       12    21   0    4.3564   440.1    6.288      39.352
2015    4       12    21   6    4.3566   440.1    6.288      39.349
2015    4       12    21  12    4.3568   440.1    6.289      39.347
2015    4       12    21  18    4.3570   440.1    6.289      39.345
2015    4       12    21  24    4.3572   440.1    6.290      39.342
2015    4       12    21  30    4.3574   440.1    6.290      39.340
2015    4       12    21  36    4.3576   440.1    6.290      39.337
2015    4       12    21  42    4.3578   440.1    6.291      39.335
2015    4       12    21  48    4.3580   440.1    6.291      39.333
2015    4       12    21  54    4.3582   440.1    6.292      39.330
2015    4       12    22   0    4.3584   440.1    6.292      39.328
2015    4       12    22   6    4.3586   440.1    6.292      39.325
2015    4       12    22  12    4.3588   440.0    6.292      39.322
2015    4       12    22  18    4.3590   440.0    6.293      39.320
2015    4       12    22  24    4.3592   440.0    6.293      39.318
2015    4       12    22  30    4.3594   440.0    6.293      39.315
2015    4       12    22  35    4.3596   440.0    6.293      39.313
2015    4       12    22  41    4.3599   440.0    6.294      39.310
2015    4       12    22  47    4.3601   440.0    6.294      39.308
2015    4       12    22  53    4.3603   440.0    6.294      39.305
2015    4       12    22  59    4.3606   440.0    6.294      39.303
2015    4       12    23   5    4.3608   440.0    6.294      39.300
2015    4       12    23  11    4.3611   440.0    6.295      39.297
2015    4       12    23  17    4.3613   440.0    6.295      39.295
2015    4       12    23  23    4.3616   440.0    6.295      39.292
2015    4       12    23  29    4.3619   440.0    6.295      39.290
2015    4       12    23  35    4.3622   440.0    6.295      39.288
2015    4       12    23  41    4.3625   440.0    6.296      39.285
2015    4       12    23  47    4.3629   440.0    6.296      39.283
2015    4       12    23  53    4.3632   440.0    6.296      39.281
2015    4       12    23  59    4.3636   439.9    6.297      39.280
2015    4       13     0   5    4.3640   439.9    6.297      39.278
2015    4       13     0  11    4.3644   439.9    6.298      39.276
2015    4       13     0  17    4.3649   439.9    6.298      39.275
2015    4       13     0  23    4.3653   439.9    6.299      39.274
2015    4       13     0  28    4.3658   439.9    6.299      39.273
2015    4       13     0  34    4.3663   439.9    6.300      39.273
2015    4       13     0  40    4.3669   439.9    6.301      39.273
2015    4       13     0  46    4.3674   439.9    6.302      39.273
2015    4       13     0  52    4.3680   439.9    6.303      39.273
2015    4       13     0  58    4.3686   439.9    6.303      39.274
2015    4       13     1   4    4.3693   439.9    6.305      39.274
2015    4       13     1  10    4.3699   439.9    6.306      39.276
2015    4       13     1  16    4.3706   439.9    6.307      39.277
2015    4       13     1  22    4.3713   439.9    6.308      39.279
2015    4       13     1  28    4.3720   439.8    6.309      39.280
2015    4       13     1  34    4.3728   439.8    6.311      39.283
2015    4       13     1  40    4.3736   439.8    6.312      39.285
2015    4       13     1  46    4.3743   439.8    6.313      39.287
2015    4       13     1  52    4.3752   439.8    6.315      39.290
2015    4       13     1  58    4.3760   439.8    6.316      39.293
2015    4       13     2   4    4.3768   439.8    6.318      39.296
2015    4       13     2  10    4.3777   439.8    6.319      39.299
2015    4       13     2  16    4.3785   439.8    6.321      39.302
2015    4       13     2  21    4.3793   439.8    6.323      39.306
2015    4       13     2  27    4.3802   439.8    6.324      39.309
2015    4       13     2  33    4.3811   439.8    6.326      39.312
2015    4       13     2  39    4.3819   439.8    6.327      39.315
2015    4       13     2  45    4.3828   439.8    6.329      39.319
2015    4       13     2  51    4.3836   439.8    6.330      39.322
2015    4       13     2  57    4.3845   439.8    6.332      39.325
2015    4       13     3   3    4.3853   439.8    6.334      39.328
2015    4       13     3   9    4.3862   439.8    6.335      39.330
2015    4       13     3  15    4.3870   439.7    6.336      39.333
2015    4       13     3  21    4.3879   439.7    6.338      39.335
2015    4       13     3  27    4.3887   439.7    6.339      39.338
2015    4       13     3  33    4.3896   439.7    6.340      39.340
2015    4       13     3  39    4.3905   439.7    6.342      39.342
2015    4       13     3  45    4.3913   439.7    6.343      39.343
2015    4       13     3  51    4.3922   439.7    6.344      39.345
2015    4       13     3  57    4.3930   439.7    6.345      39.346
2015    4       13     4   3    4.3939   439.7    6.346      39.347
2015    4       13     4   9    4.3948   439.6    6.347      39.348
2015    4       13     4  14    4.3957   439.6    6.349      39.349
2015    4       13     4  20    4.3966   439.6    6.350      39.350
2015    4       13     4  26    4.3975   439.6    6.351      39.350
2015    4       13     4  32    4.3985   439.6    6.351      39.351
2015    4       13     4  38    4.3994   439.6    6.352      39.352
2015    4       13     4  44    4.4003   439.6    6.353      39.352
2015    4       13     4  50    4.4013   439.6    6.354      39.352
2015    4       13     4  56    4.4023   439.5    6.355      39.353
2015    4       13     5   2    4.4033   439.5    6.356      39.353
2015    4       13     5   8    4.4043   439.5    6.357      39.353
2015    4       13     5  14    4.4054   439.5    6.358      39.354
2015    4       13     5  20    4.4064   439.5    6.359      39.354
2015    4       13     5  26    4.4075   439.5    6.360      39.355
2015    4       13     5  32    4.4086   439.4    6.361      39.356
2015    4       13     5  38    4.4097   439.4    6.362      39.356
2015    4       13     5  44    4.4108   439.4    6.363      39.357
2015    4       13     5  50    4.4120   439.4    6.364      39.359
2015    4       13     5  56    4.4132   439.4    6.365      39.360
2015    4       13     6   2    4.4144   439.4    6.366      39.362
2015    4       13     6   7    4.4156   439.3    6.367      39.364
2015    4       13     6  13    4.4169   439.3    6.368      39.366
2015    4       13     6  19    4.4182   439.3    6.370      39.368
2015    4       13     6  25    4.4195   439.3    6.371      39.371
2015    4       13     6  31    4.4208   439.3    6.373      39.374
2015    4       13     6  37    4.4222   439.3    6.374      39.378
2015    4       13     6  43    4.4236   439.2    6.376      39.382
2015    4       13     6  49    4.4250   439.2    6.378      39.387
2015    4       13     6  55    4.4265   439.2    6.380      39.392
2015    4       13     7   1    4.4280   439.2    6.382      39.397
2015    4       13     7   7    4.4295   439.2    6.384      39.403
2015    4       13     7  13    4.4311   439.2    6.386      39.410
2015    4       13     7  19    4.4326   439.1    6.389      39.416
2015    4       13     7  25    4.4343   439.1    6.391      39.424
2015    4       13     7  31    4.4359   439.1    6.394      39.432
2015    4       13     7  37    4.4376   439.1    6.396      39.440
2015    4       13     7  43    4.4393   439.1    6.399      39.449
2015    4       13     7  49    4.4411   439.1    6.402      39.458
2015    4       13     7  55    4.4429   439.1    6.405      39.468
2015    4       13     8   0    4.4447   439.1    6.408      39.478
2015    4       13     8   6    4.4465   439.0    6.412      39.488
2015    4       13     8  12    4.4484   439.0    6.415      39.499
2015    4       13     8  18    4.4502   439.0    6.418      39.510
2015    4       13     8  24    4.4521   439.0    6.422      39.521
2015    4       13     8  30    4.4540   439.0    6.425      39.533
2015    4       13     8  36    4.4560   439.0    6.429      39.544
2015    4       13     8  42    4.4579   439.0    6.432      39.556
2015    4       13     8  48    4.4599   439.0    6.436      39.568
2015    4       13     8  54    4.4619   439.0    6.440      39.580
2015    4       13     9   0    4.4638   439.0    6.444      39.592
2015    4       13     9   6    4.4658   439.0    6.447      39.604
2015    4       13     9  12    4.4678   439.0    6.451      39.616
2015    4       13     9  18    4.4699   439.0    6.455      39.628
2015    4       13     9  24    4.4719   439.0    6.459      39.640
2015    4       13     9  30    4.4739   439.0    6.463      39.652
2015    4       13     9  36    4.4760   439.0    6.466      39.664
2015    4       13     9  42    4.4781   439.0    6.470      39.675
2015    4       13     9  48    4.4802   439.0    6.474      39.687
2015    4       13     9  53    4.4822   438.9    6.478      39.698
2015    4       13     9  59    4.4844   438.9    6.482      39.710
2015    4       13    10   5    4.4865   438.9    6.486      39.721
2015    4       13    10  11    4.4886   438.9    6.489      39.732
2015    4       13    10  17    4.4908   438.9    6.493      39.743
2015    4       13    10  23    4.4930   438.9    6.497      39.754
2015    4       13    10  29    4.4952   438.9    6.501      39.764
2015    4       13    10  35    4.4974   438.9    6.504      39.775
2015    4       13    10  41    4.4997   438.9    6.508      39.786
2015    4       13    10  47    4.5020   438.9    6.512      39.797
2015    4       13    10  53    4.5043   438.9    6.516      39.808
2015    4       13    10  59    4.5067   438.9    6.520      39.819
2015    4       13    11   5    4.5091   438.9    6.524      39.830
2015    4       13    11  11    4.5115   438.9    6.527      39.841
2015    4       13    11  17    4.5140   438.9    6.531      39.852
2015    4       13    11  23    4.5165   438.9    6.535      39.864
2015    4       13    11  29    4.5191   438.9    6.540      39.876
2015    4       13    11  35    4.5217   438.9    6.544      39.888
2015    4       13    11  41    4.5244   438.9    6.548      39.900
2015    4       13    11  46    4.5271   438.9    6.552      39.913
2015    4       13    11  52    4.5299   438.9    6.557      39.926
2015    4       13    11  58    4.5327   438.9    6.561      39.941
2015    4       13    12   4    4.5355   438.9    6.566      39.956
2015    4       13    12  10    4.5384   438.9    6.570      39.972
2015    4       13    12  16    4.5414   438.9    6.575      39.988
2015    4       13    12  22    4.5444   438.9    6.580      40.005
2015    4       13    12  28    4.5474   438.9    6.585      40.024
2015    4       13    12  34    4.5504   438.9    6.590      40.043
2015    4       13    12  40    4.5534   438.9    6.595      40.063
2015    4       13    12  46    4.5565   438.9    6.599      40.085
2015    4       13    12  52    4.5595   439.0    6.604      40.108
2015    4       13    12  58    4.5626   439.0    6.609      40.133
2015    4       13    13   4    4.5656   439.0    6.613      40.158
2015    4       13    13  10    4.5687   439.1    6.618      40.184
2015    4       13    13  16    4.5718   439.1    6.622      40.210
2015    4       13    13  22    4.5748   439.1    6.627      40.236
2015    4       13    13  28    4.5779   439.1    6.631      40.262
2015    4       13    13  34    4.5810   439.2    6.635      40.287
2015    4       13    13  39    4.5841   439.2    6.640      40.313
2015    4       13    13  45    4.5872   439.2    6.644      40.338
2015    4       13    13  51    4.5904   439.2    6.648      40.363
2015    4       13    13  57    4.5935   439.3    6.652      40.388
2015    4       13    14   3    4.5967   439.3    6.657      40.413
2015    4       13    14   9    4.5999   439.3    6.661      40.439
2015    4       13    14  15    4.6032   439.3    6.666      40.464
2015    4       13    14  21    4.6065   439.4    6.670      40.490
2015    4       13    14  27    4.6098   439.4    6.675      40.516
2015    4       13    14  33    4.6132   439.4    6.679      40.542
2015    4       13    14  39    4.6166   439.5    6.684      40.568
2015    4       13    14  45    4.6200   439.5    6.689      40.595
2015    4       13    14  51    4.6235   439.5    6.694      40.621
2015    4       13    14  57    4.6270   439.6    6.699      40.648
2015    4       13    15   3    4.6305   439.6    6.704      40.676
2015    4       13    15   9    4.6341   439.6    6.709      40.703
2015    4       13    15  15    4.6377   439.7    6.714      40.731
2015    4       13    15  21    4.6414   439.7    6.719      40.758
2015    4       13    15  27    4.6450   439.8    6.725      40.787
2015    4       13    15  32    4.6487   439.8    6.730      40.815
2015    4       13    15  38    4.6524   439.8    6.735      40.843
2015    4       13    15  44    4.6561   439.9    6.741      40.872
2015    4       13    15  50    4.6599   439.9    6.746      40.901
2015    4       13    15  56    4.6636   440.0    6.752      40.930
2015    4       13    16   2    4.6674   440.0    6.758      40.959
2015    4       13    16   8    4.6712   440.1    6.763      40.989
2015    4       13    16  14    4.6749   440.1    6.769      41.018
2015    4       13    16  20    4.6787   440.1    6.775      41.048
2015    4       13    16  26    4.6825   440.2    6.780      41.077
2015    4       13    16  32    4.6863   440.2    6.786      41.107
2015    4       13    16  38    4.6901   440.3    6.792      41.137
2015    4       13    16  44    4.6939   440.3    6.798      41.167
2015    4       13    16  50    4.6977   440.4    6.803      41.197
2015    4       13    16  56    4.7015   440.4    6.809      41.227
2015    4       13    17   2    4.7054   440.5    6.815      41.257
2015    4       13    17   8    4.7092   440.5    6.821      41.288
2015    4       13    17  14    4.7131   440.5    6.827      41.318
2015    4       13    17  20    4.7170   440.6    6.833      41.349
2015    4       13    17  25    4.7209   440.6    6.839      41.379
2015    4       13    17  31    4.7248   440.7    6.845      41.411
2015    4       13    17  37    4.7288   440.7    6.851      41.443
2015    4       13    17  43    4.7328   440.8    6.857      41.475
2015    4       13    17  49    4.7369   440.8    6.863      41.509
2015    4       13    17  55    4.7410   440.9    6.870      41.543
2015    4       13    18   1    4.7452   440.9    6.876      41.578
2015    4       13    18   7    4.7494   441.0    6.883      41.613
2015    4       13    18  13    4.7536   441.1    6.889      41.650
2015    4       13    18  19    4.7579   441.1    6.896      41.688
2015    4       13    18  25    4.7622   441.2    6.902      41.728
2015    4       13    18  31    4.7665   441.3    6.909      41.769
2015    4       13    18  37    4.7709   441.4    6.915      41.811
2015    4       13    18  43    4.7753   441.4    6.921      41.854
2015    4       13    18  49    4.7796   441.5    6.927      41.898
2015    4       13    18  55    4.7840   441.6    6.934      41.942
2015    4       13    19   1    4.7884   441.7    6.940      41.986
2015    4       13    19   7    4.7928   441.8    6.946      42.029
2015    4       13    19  13    4.7972   441.8    6.952      42.072
2015    4       13    19  18    4.8016   441.9    6.958      42.114
2015    4       13    19  24    4.8060   442.0    6.964      42.157
2015    4       13    19  30    4.8104   442.1    6.970      42.200
2015    4       13    19  36    4.8148   442.2    6.976      42.243
2015    4       13    19  42    4.8193   442.3    6.982      42.286
2015    4       13    19  48    4.8237   442.4    6.988      42.330
2015    4       13    19  54    4.8282   442.5    6.994      42.374
2015    4       13    20   0    4.8326   442.6    7.000      42.418
2015    4       13    20   6    4.8370   442.7    7.006      42.463
2015    4       13    20  12    4.8414   442.8    7.013      42.509
2015    4       13    20  18    4.8458   442.9    7.018      42.556
2015    4       13    20  24    4.8501   443.0    7.024      42.603
2015    4       13    20  30    4.8545   443.1    7.030      42.652
2015    4       13    20  36    4.8588   443.3    7.036      42.700
2015    4       13    20  42    4.8631   443.4    7.041      42.749
2015    4       13    20  48    4.8674   443.5    7.047      42.798
2015    4       13    20  54    4.8717   443.6    7.052      42.846
2015    4       13    21   0    4.8759   443.7    7.057      42.893
2015    4       13    21   6    4.8802   443.8    7.063      42.941
2015    4       13    21  11    4.8845   444.0    7.068      42.988
2015    4       13    21  17    4.8887   444.1    7.073      43.035
2015    4       13    21  23    4.8930   444.2    7.079      43.082
2015    4       13    21  29    4.8974   444.3    7.084      43.128
2015    4       13    21  35    4.9017   444.4    7.090      43.175
2015    4       13    21  41    4.9061   444.5    7.096      43.223
2015    4       13    21  47    4.9106   444.7    7.102      43.272
2015    4       13    21  53    4.9150   444.8    7.108      43.322
2015    4       13    21  59    4.9196   444.9    7.114      43.372
2015    4       13    22   5    4.9241   445.0    7.121      43.423
2015    4       13    22  11    4.9287   445.2    7.128      43.475
2015    4       13    22  17    4.9334   445.3    7.134      43.529
2015    4       13    22  23    4.9381   445.4    7.141      43.584
2015    4       13    22  29    4.9427   445.6    7.148      43.641
2015    4       13    22  35    4.9474   445.7    7.155      43.700
2015    4       13    22  41    4.9521   445.9    7.161      43.760
2015    4       13    22  47    4.9567   446.1    7.167      43.822
2015    4       13    22  53    4.9613   446.2    7.173      43.885
2015    4       13    22  59    4.9658   446.4    7.179      43.947
2015    4       13    23   4    4.9703   446.6    7.184      44.008
2015    4       13    23  10    4.9747   446.7    7.190      44.068
2015    4       13    23  16    4.9791   446.9    7.195      44.127
2015    4       13    23  22    4.9834   447.0    7.199      44.186
2015    4       13    23  28    4.9878   447.2    7.204      44.243
2015    4       13    23  34    4.9920   447.4    7.208      44.301
2015    4       13    23  40    4.9962   447.5    7.212      44.357
2015    4       13    23  46    5.0004   447.7    7.216      44.413
2015    4       13    23  52    5.0046   447.9    7.220      44.469
2015    4       13    23  58    5.0088   448.0    7.223      44.525
2015    4       14     0   4    5.0129   448.2    7.227      44.580
2015    4       14     0  10    5.0171   448.4    7.230      44.635
2015    4       14     0  16    5.0212   448.5    7.233      44.690
2015    4       14     0  22    5.0253   448.7    7.236      44.744
2015    4       14     0  28    5.0295   448.9    7.240      44.799
2015    4       14     0  34    5.0336   449.0    7.243      44.853
2015    4       14     0  40    5.0377   449.2    7.246      44.908
2015    4       14     0  46    5.0419   449.4    7.249      44.963
2015    4       14     0  51    5.0461   449.6    7.252      45.018
2015    4       14     0  57    5.0503   449.7    7.255      45.073
2015    4       14     1   3    5.0545   449.9    7.258      45.129
2015    4       14     1   9    5.0587   450.1    7.261      45.185
2015    4       14     1  15    5.0629   450.2    7.264      45.241
2015    4       14     1  21    5.0671   450.4    7.266      45.298
2015    4       14     1  27    5.0713   450.6    7.269      45.355
2015    4       14     1  33    5.0756   450.7    7.272      45.412
2015    4       14     1  39    5.0799   450.9    7.275      45.470
2015    4       14     1  45    5.0841   451.1    7.278      45.528
2015    4       14     1  51    5.0883   451.3    7.280      45.588
2015    4       14     1  57    5.0925   451.5    7.283      45.648
2015    4       14     2   3    5.0967   451.7    7.285      45.709
2015    4       14     2   9    5.1008   451.9    7.287      45.770
2015    4       14     2  15    5.1049   452.1    7.289      45.832
2015    4       14     2  21    5.1090   452.2    7.291      45.893
2015    4       14     2  27    5.1129   452.4    7.292      45.953
2015    4       14     2  33    5.1169   452.6    7.294      46.011
2015    4       14     2  39    5.1208   452.8    7.295      46.069
2015    4       14     2  44    5.1246   453.0    7.296      46.126
2015    4       14     2  50    5.1284   453.2    7.297      46.182
2015    4       14     2  56    5.1321   453.4    7.297      46.237
2015    4       14     3   2    5.1357   453.6    7.298      46.291
2015    4       14     3   8    5.1394   453.8    7.298      46.345
2015    4       14     3  14    5.1430   454.0    7.299      46.398
2015    4       14     3  20    5.1466   454.2    7.299      46.450
2015    4       14     3  26    5.1501   454.3    7.299      46.502
2015    4       14     3  32    5.1536   454.5    7.300      46.553
2015    4       14     3  38    5.1570   454.7    7.300      46.603
2015    4       14     3  44    5.1605   454.9    7.300      46.654
2015    4       14     3  50    5.1639   455.1    7.300      46.703
2015    4       14     3  56    5.1673   455.3    7.300      46.753
2015    4       14     4   2    5.1707   455.5    7.301      46.802
2015    4       14     4   8    5.1741   455.7    7.301      46.850
2015    4       14     4  14    5.1774   455.8    7.301      46.899
2015    4       14     4  20    5.1807   456.0    7.302      46.947
2015    4       14     4  26    5.1841   456.2    7.302      46.995
2015    4       14     4  32    5.1874   456.4    7.303      47.044
2015    4       14     4  37    5.1908   456.6    7.304      47.092
2015    4       14     4  43    5.1941   456.7    7.305      47.141
2015    4       14     4  49    5.1975   456.9    7.306      47.190
2015    4       14     4  55    5.2009   457.1    7.308      47.240
2015    4       14     5   1    5.2044   457.3    7.309      47.291
2015    4       14     5   7    5.2078   457.4    7.312      47.344
2015    4       14     5  13    5.2113   457.6    7.314      47.398
2015    4       14     5  19    5.2149   457.8    7.317      47.454
2015    4       14     5  25    5.2185   458.0    7.321      47.511
2015    4       14     5  31    5.2222   458.2    7.324      47.571
2015    4       14     5  37    5.2259   458.3    7.328      47.633
2015    4       14     5  43    5.2297   458.5    7.333      47.698
2015    4       14     5  49    5.2335   458.7    7.337      47.767
2015    4       14     5  55    5.2373   458.9    7.342      47.839
2015    4       14     6   1    5.2412   459.2    7.347      47.914
2015    4       14     6   7    5.2450   459.4    7.352      47.993
2015    4       14     6  13    5.2489   459.6    7.357      48.073
2015    4       14     6  19    5.2527   459.8    7.362      48.152
2015    4       14     6  24    5.2566   460.0    7.367      48.233
2015    4       14     6  30    5.2604   460.3    7.372      48.315
2015    4       14     6  36    5.2643   460.5    7.377      48.399
2015    4       14     6  42    5.2682   460.7    7.382      48.484
2015    4       14     6  48    5.2720   461.0    7.387      48.569
2015    4       14     6  54    5.2758   461.2    7.391      48.655
2015    4       14     7   0    5.2796   461.5    7.395      48.741
2015    4       14     7   6    5.2833   461.8    7.399      48.828
2015    4       14     7  12    5.2869   462.1    7.402      48.914
2015    4       14     7  18    5.2904   462.3    7.404      48.997
2015    4       14     7  24    5.2939   462.6    7.407      49.078
2015    4       14     7  30    5.2973   462.9    7.409      49.157
2015    4       14     7  36    5.3006   463.1    7.411      49.236
2015    4       14     7  42    5.3039   463.4    7.412      49.313
2015    4       14     7  48    5.3072   463.7    7.414      49.388
2015    4       14     7  54    5.3104   464.0    7.415      49.463
2015    4       14     8   0    5.3136   464.2    7.415      49.536
2015    4       14     8   6    5.3167   464.5    7.416      49.609
2015    4       14     8  12    5.3199   464.8    7.417      49.682
2015    4       14     8  17    5.3231   465.0    7.418      49.754
2015    4       14     8  23    5.3262   465.3    7.418      49.825
2015    4       14     8  29    5.3294   465.6    7.419      49.897
2015    4       14     8  35    5.3327   465.9    7.420      49.968
2015    4       14     8  41    5.3359   466.1    7.421      50.040
2015    4       14     8  47    5.3392   466.4    7.421      50.112
2015    4       14     8  53    5.3425   466.7    7.422      50.185
2015    4       14     8  59    5.3458   467.0    7.423      50.259
2015    4       14     9   5    5.3491   467.2    7.424      50.333
2015    4       14     9  11    5.3525   467.5    7.425      50.408
2015    4       14     9  17    5.3559   467.8    7.426      50.485
2015    4       14     9  23    5.3592   468.1    7.426      50.565
2015    4       14     9  29    5.3625   468.4    7.427      50.646
2015    4       14     9  35    5.3658   468.7    7.427      50.729
2015    4       14     9  41    5.3690   469.0    7.427      50.813
2015    4       14     9  47    5.3721   469.3    7.426      50.898
2015    4       14     9  53    5.3751   469.6    7.425      50.981
2015    4       14     9  59    5.3780   469.9    7.424      51.063
2015    4       14    10   5    5.3808   470.2    7.422      51.143
2015    4       14    10  10    5.3835   470.5    7.420      51.222
2015    4       14    10  16    5.3861   470.8    7.417      51.300
2015    4       14    10  22    5.3886   471.1    7.415      51.376
2015    4       14    10  28    5.3911   471.4    7.411      51.452
2015    4       14    10  34    5.3934   471.7    7.408      51.525
2015    4       14    10  40    5.3957   472.0    7.404      51.598
2015    4       14    10  46    5.3979   472.3    7.400      51.669
2015    4       14    10  52    5.4001   472.6    7.396      51.739
2015    4       14    10  58    5.4022   472.9    7.391      51.808
2015    4       14    11   4    5.4042   473.2    7.387      51.876
2015    4       14    11  10    5.4062   473.5    7.382      51.943
2015    4       14    11  16    5.4082   473.8    7.376      52.009
2015    4       14    11  22    5.4101   474.1    7.371      52.074
2015    4       14    11  28    5.4120   474.3    7.365      52.138
2015    4       14    11  34    5.4138   474.6    7.359      52.201
2015    4       14    11  40    5.4156   474.9    7.353      52.263
2015    4       14    11  46    5.4173   475.2    7.347      52.324
2015    4       14    11  52    5.4191   475.5    7.341      52.384
2015    4       14    11  58    5.4208   475.8    7.335      52.444
2015    4       14    12   3    5.4224   476.1    7.328      52.503
2015    4       14    12   9    5.4241   476.4    7.322      52.561
2015    4       14    12  15    5.4257   476.7    7.315      52.619
2015    4       14    12  21    5.4273   476.9    7.309      52.677
2015    4       14    12  27    5.4289   477.2    7.302      52.734
2015    4       14    12  33    5.4305   477.5    7.296      52.791
2015    4       14    12  39    5.4320   477.8    7.290      52.848
2015    4       14    12  45    5.4336   478.1    7.284      52.905
2015    4       14    12  51    5.4352   478.3    7.278      52.962
2015    4       14    12  57    5.4368   478.6    7.273      53.019
2015    4       14    13   3    5.4385   478.9    7.268      53.077
2015    4       14    13   9    5.4402   479.1    7.263      53.136
2015    4       14    13  15    5.4419   479.4    7.258      53.196
2015    4       14    13  21    5.4437   479.7    7.254      53.258
2015    4       14    13  27    5.4455   480.0    7.250      53.320
2015    4       14    13  33    5.4473   480.2    7.246      53.383
2015    4       14    13  39    5.4492   480.5    7.243      53.446
2015    4       14    13  45    5.4511   480.8    7.239      53.512
2015    4       14    13  50    5.4530   481.1    7.236      53.579
2015    4       14    13  56    5.4550   481.4    7.234      53.648
2015    4       14    14   2    5.4570   481.6    7.231      53.717
2015    4       14    14   8    5.4589   481.9    7.228      53.787
2015    4       14    14  14    5.4608   482.2    7.225      53.858
2015    4       14    14  20    5.4626   482.6    7.222      53.931
2015    4       14    14  26    5.4644   482.9    7.218      54.003
2015    4       14    14  32    5.4661   483.2    7.215      54.073
2015    4       14    14  38    5.4676   483.5    7.211      54.142
2015    4       14    14  44    5.4691   483.8    7.207      54.209
2015    4       14    14  50    5.4705   484.2    7.203      54.276
2015    4       14    14  56    5.4718   484.5    7.198      54.341
2015    4       14    15   2    5.4731   484.8    7.194      54.406
2015    4       14    15   8    5.4742   485.1    7.189      54.470
2015    4       14    15  14    5.4753   485.4    7.185      54.533
2015    4       14    15  20    5.4763   485.8    7.180      54.596
2015    4       14    15  26    5.4773   486.1    7.176      54.658
2015    4       14    15  32    5.4782   486.4    7.171      54.720
2015    4       14    15  38    5.4792   486.7    7.167      54.781
2015    4       14    15  43    5.4801   487.0    7.163      54.841
2015    4       14    15  49    5.4811   487.3    7.159      54.902
2015    4       14    15  55    5.4820   487.7    7.156      54.964
2015    4       14    16   1    5.4830   488.0    7.152      55.027
2015    4       14    16   7    5.4839   488.3    7.149      55.091
2015    4       14    16  13    5.4849   488.6    7.146      55.155
2015    4       14    16  19    5.4858   488.9    7.143      55.221
2015    4       14    16  25    5.4868   489.3    7.141      55.288
2015    4       14    16  31    5.4877   489.6    7.138      55.358
2015    4       14    16  37    5.4886   489.9    7.135      55.430
2015    4       14    16  43    5.4894   490.3    7.132      55.506
2015    4       14    16  49    5.4902   490.6    7.129      55.584
2015    4       14    16  55    5.4908   491.0    7.125      55.663
2015    4       14    17   1    5.4914   491.3    7.120      55.743
2015    4       14    17   7    5.4917   491.6    7.115      55.822
2015    4       14    17  13    5.4920   492.0    7.110      55.899
2015    4       14    17  19    5.4921   492.3    7.104      55.974
2015    4       14    17  25    5.4920   492.6    7.097      56.047
2015    4       14    17  31    5.4918   493.0    7.090      56.117
2015    4       14    17  36    5.4915   493.3    7.083      56.186
2015    4       14    17  42    5.4910   493.6    7.075      56.254
2015    4       14    17  48    5.4905   494.0    7.067      56.319
2015    4       14    17  54    5.4898   494.3    7.059      56.383
2015    4       14    18   0    5.4891   494.6    7.050      56.446
2015    4       14    18   6    5.4883   494.9    7.041      56.507
2015    4       14    18  12    5.4875   495.3    7.032      56.567
2015    4       14    18  18    5.4866   495.6    7.023      56.626
2015    4       14    18  24    5.4857   495.9    7.013      56.684
2015    4       14    18  30    5.4847   496.2    7.003      56.741
2015    4       14    18  36    5.4837   496.5    6.993      56.797
2015    4       14    18  42    5.4826   496.9    6.982      56.852
2015    4       14    18  48    5.4816   497.2    6.972      56.905
2015    4       14    18  54    5.4804   497.5    6.961      56.957
2015    4       14    19   0    5.4793   497.8    6.950      57.008
2015    4       14    19   6    5.4780   498.2    6.939      57.058
2015    4       14    19  12    5.4768   498.5    6.927      57.107
2015    4       14    19  18    5.4755   498.8    6.916      57.154
2015    4       14    19  24    5.4742   499.2    6.904      57.200
2015    4       14    19  29    5.4729   499.5    6.892      57.245
2015    4       14    19  35    5.4715   499.8    6.880      57.288
2015    4       14    19  41    5.4701   500.2    6.867      57.331
2015    4       14    19  47    5.4687   500.5    6.855      57.371
2015    4       14    19  53    5.4672   500.8    6.842      57.411
2015    4       14    19  59    5.4657   501.2    6.829      57.449
2015    4       14    20   5    5.4641   501.5    6.817      57.485
2015    4       14    20  11    5.4626   501.8    6.804      57.521
2015    4       14    20  17    5.4609   502.2    6.791      57.555
2015    4       14    20  23    5.4592   502.5    6.777      57.589
2015    4       14    20  29    5.4575   502.9    6.764      57.621
2015    4       14    20  35    5.4558   503.2    6.750      57.652
2015    4       14    20  41    5.4539   503.5    6.737      57.682
2015    4       14    20  47    5.4520   503.9    6.723      57.712
2015    4       14    20  53    5.4499   504.3    6.709      57.740
2015    4       14    20  59    5.4478   504.6    6.694      57.767
2015    4       14    21   5    5.4455   505.0    6.680      57.794
2015    4       14    21  11    5.4432   505.4    6.665      57.818
2015    4       14    21  16    5.4406   505.7    6.650      57.842
2015    4       14    21  22    5.4380   506.1    6.635      57.866
2015    4       14    21  28    5.4352   506.5    6.619      57.889
2015    4       14    21  34    5.4322   506.8    6.603      57.907
2015    4       14    21  40    5.4290   507.2    6.587      57.922
2015    4       14    21  46    5.4257   507.6    6.571      57.933
2015    4       14    21  52    5.4222   507.9    6.555      57.943
2015    4       14    21  58    5.4186   508.2    6.539      57.949
2015    4       14    22   4    5.4149   508.5    6.523      57.952
2015    4       14    22  10    5.4112   508.8    6.508      57.954
2015    4       14    22  16    5.4075   509.1    6.493      57.958
2015    4       14    22  22    5.4039   509.4    6.478      57.963
2015    4       14    22  28    5.4002   509.7    6.463      57.969
2015    4       14    22  34    5.3966   510.0    6.449      57.976
2015    4       14    22  40    5.3930   510.3    6.435      57.984
2015    4       14    22  46    5.3894   510.6    6.422      57.991
2015    4       14    22  52    5.3858   510.8    6.409      57.999
2015    4       14    22  58    5.3822   511.1    6.396      58.008
2015    4       14    23   4    5.3787   511.4    6.383      58.017
2015    4       14    23   9    5.3751   511.7    6.371      58.027
2015    4       14    23  15    5.3715   511.9    6.359      58.037
2015    4       14    23  21    5.3679   512.2    6.347      58.047
2015    4       14    23  27    5.3643   512.5    6.335      58.059
2015    4       14    23  33    5.3608   512.7    6.324      58.071
2015    4       14    23  39    5.3571   513.0    6.312      58.084
2015    4       14    23  45    5.3535   513.3    6.301      58.099
2015    4       14    23  51    5.3498   513.6    6.290      58.117
2015    4       14    23  57    5.3460   513.9    6.279      58.136
2015    4       15     0   3    5.3422   514.2    6.268      58.157
2015    4       15     0   9    5.3383   514.5    6.257      58.178
2015    4       15     0  15    5.3343   514.8    6.245      58.199
2015    4       15     0  21    5.3302   515.1    6.233      58.217
2015    4       15     0  27    5.3261   515.4    6.221      58.233
2015    4       15     0  33    5.3218   515.6    6.209      58.245
2015    4       15     0  39    5.3174   515.9    6.196      58.254
2015    4       15     0  45    5.3129   516.2    6.183      58.260
2015    4       15     0  51    5.3082   516.4    6.170      58.264
2015    4       15     0  57    5.3034   516.7    6.157      58.266
2015    4       15     1   2    5.2984   517.0    6.144      58.267
2015    4       15     1   8    5.2935   517.2    6.130      58.266
2015    4       15     1  14    5.2883   517.5    6.116      58.264
2015    4       15     1  20    5.2832   517.7    6.102      58.261
2015    4       15     1  26    5.2779   518.0    6.089      58.256
2015    4       15     1  32    5.2727   518.2    6.075      58.251
2015    4       15     1  38    5.2674   518.4    6.061      58.243
2015    4       15     1  44    5.2622   518.7    6.048      58.233
2015    4       15     1  50    5.2569   518.9    6.034      58.223
2015    4       15     1  56    5.2517   519.1    6.021      58.211
2015    4       15     2   2    5.2466   519.3    6.007      58.200
2015    4       15     2   8    5.2415   519.5    5.994      58.187
2015    4       15     2  14    5.2364   519.7    5.981      58.175
2015    4       15     2  20    5.2314   519.9    5.968      58.161
2015    4       15     2  26    5.2264   520.1    5.955      58.148
2015    4       15     2  32    5.2214   520.3    5.942      58.134
2015    4       15     2  38    5.2165   520.5    5.930      58.120
2015    4       15     2  44    5.2115   520.7    5.917      58.106
2015    4       15     2  50    5.2066   520.9    5.905      58.092
2015    4       15     2  55    5.2017   521.2    5.892      58.078
2015    4       15     3   1    5.1968   521.4    5.880      58.064
2015    4       15     3   7    5.1919   521.6    5.868      58.050
2015    4       15     3  13    5.1870   521.8    5.856      58.035
2015    4       15     3  19    5.1821   522.1    5.844      58.019
2015    4       15     3  25    5.1771   522.3    5.832      58.002
2015    4       15     3  31    5.1722   522.5    5.820      57.985
2015    4       15     3  37    5.1672   522.7    5.808      57.967
2015    4       15     3  43    5.1623   523.0    5.796      57.947
2015    4       15     3  49    5.1572   523.2    5.784      57.926
2015    4       15     3  55    5.1522   523.4    5.772      57.905
2015    4       15     4   1    5.1472   523.6    5.760      57.884
2015    4       15     4   7    5.1421   523.9    5.748      57.863
2015    4       15     4  13    5.1370   524.1    5.736      57.840
2015    4       15     4  19    5.1318   524.3    5.724      57.817
2015    4       15     4  25    5.1265   524.5    5.712      57.794
2015    4       15     4  31    5.1212   524.8    5.700      57.770
2015    4       15     4  37    5.1158   525.0    5.688      57.747
2015    4       15     4  43    5.1103   525.3    5.675      57.724
2015    4       15     4  48    5.1048   525.5    5.663      57.702
2015    4       15     4  54    5.0990   525.7    5.650      57.675
2015    4       15     5   0    5.0932   526.0    5.638      57.646
2015    4       15     5   6    5.0872   526.2    5.625      57.613
2015    4       15     5  12    5.0812   526.3    5.613      57.580
2015    4       15     5  18    5.0751   526.5    5.601      57.544
2015    4       15     5  24    5.0690   526.7    5.590      57.505
2015    4       15     5  30    5.0630   526.8    5.578      57.467
2015    4       15     5  36    5.0570   527.0    5.568      57.431
2015    4       15     5  42    5.0511   527.1    5.557      57.396
2015    4       15     5  48    5.0453   527.3    5.546      57.363
2015    4       15     5  54    5.0395   527.4    5.536      57.331
2015    4       15     6   0    5.0338   527.6    5.526      57.298
2015    4       15     6   6    5.0281   527.7    5.516      57.265
2015    4       15     6  12    5.0225   527.8    5.505      57.232
2015    4       15     6  18    5.0169   528.0    5.495      57.199
2015    4       15     6  24    5.0114   528.1    5.485      57.166
2015    4       15     6  30    5.0058   528.2    5.476      57.133
2015    4       15     6  35    5.0003   528.4    5.466      57.100
2015    4       15     6  41    4.9947   528.5    5.456      57.066
2015    4       15     6  47    4.9892   528.6    5.446      57.033
2015    4       15     6  53    4.9837   528.7    5.437      56.999
2015    4       15     6  59    4.9782   528.8    5.427      56.966
2015    4       15     7   5    4.9727   529.0    5.418      56.935
2015    4       15     7  11    4.9672   529.1    5.409      56.904
2015    4       15     7  17    4.9618   529.2    5.399      56.876
2015    4       15     7  23    4.9562   529.4    5.390      56.848
2015    4       15     7  29    4.9507   529.5    5.381      56.820
2015    4       15     7  35    4.9451   529.7    5.371      56.793
2015    4       15     7  41    4.9395   529.9    5.362      56.765
2015    4       15     7  47    4.9339   530.0    5.352      56.734
2015    4       15     7  53    4.9282   530.1    5.343      56.701
2015    4       15     7  59    4.9224   530.3    5.333      56.666
2015    4       15     8   5    4.9166   530.4    5.324      56.629
2015    4       15     8  11    4.9107   530.5    5.314      56.591
2015    4       15     8  17    4.9047   530.7    5.304      56.552
2015    4       15     8  23    4.8987   530.8    5.294      56.512
2015    4       15     8  28    4.8927   530.9    5.284      56.472
2015    4       15     8  34    4.8865   531.1    5.274      56.431
2015    4       15     8  40    4.8804   531.2    5.264      56.389
2015    4       15     8  46    4.8742   531.3    5.254      56.347
2015    4       15     8  52    4.8680   531.5    5.243      56.304
2015    4       15     8  58    4.8619   531.6    5.233      56.259
2015    4       15     9   4    4.8557   531.7    5.223      56.213
2015    4       15     9  10    4.8496   531.8    5.214      56.166
2015    4       15     9  16    4.8436   531.9    5.204      56.118
2015    4       15     9  22    4.8377   531.9    5.194      56.071
2015    4       15     9  28    4.8318   532.0    5.185      56.024
2015    4       15     9  34    4.8260   532.1    5.176      55.977
2015    4       15     9  40    4.8202   532.2    5.167      55.930
2015    4       15     9  46    4.8146   532.2    5.158      55.884
2015    4       15     9  52    4.8089   532.3    5.149      55.839
2015    4       15     9  58    4.8033   532.4    5.141      55.794
2015    4       15    10   4    4.7978   532.5    5.132      55.751
2015    4       15    10  10    4.7923   532.6    5.124      55.708
2015    4       15    10  16    4.7868   532.6    5.116      55.666
2015    4       15    10  21    4.7813   532.7    5.108      55.626
2015    4       15    10  27    4.7759   532.8    5.101      55.586
2015    4       15    10  33    4.7705   532.9    5.093      55.548
2015    4       15    10  39    4.7652   533.0    5.086      55.510
2015    4       15    10  45    4.7598   533.1    5.079      55.472
2015    4       15    10  51    4.7545   533.1    5.072      55.435
2015    4       15    10  57    4.7492   533.2    5.066      55.398
2015    4       15    11   3    4.7439   533.3    5.059      55.361
2015    4       15    11   9    4.7387   533.4    5.053      55.324
2015    4       15    11  15    4.7335   533.4    5.047      55.287
2015    4       15    11  21    4.7284   533.5    5.041      55.251
2015    4       15    11  27    4.7233   533.5    5.035      55.216
2015    4       15    11  33    4.7183   533.6    5.029      55.181
2015    4       15    11  39    4.7134   533.6    5.024      55.147
2015    4       15    11  45    4.7085   533.6    5.019      55.114
2015    4       15    11  51    4.7037   533.7    5.014      55.083
2015    4       15    11  57    4.6989   533.7    5.009      55.052
2015    4       15    12   3    4.6942   533.7    5.004      55.024
2015    4       15    12   9    4.6895   533.8    5.000      54.996
2015    4       15    12  14    4.6849   533.8    4.996      54.971
2015    4       15    12  20    4.6803   533.8    4.992      54.946
2015    4       15    12  26    4.6757   533.8    4.988      54.921
2015    4       15    12  32    4.6711   533.8    4.985      54.898
2015    4       15    12  38    4.6666   533.9    4.982      54.877
2015    4       15    12  44    4.6621   533.9    4.978      54.856
2015    4       15    12  50    4.6575   533.9    4.975      54.837
2015    4       15    12  56    4.6530   533.9    4.971      54.817
2015    4       15    13   2    4.6485   534.0    4.968      54.797
2015    4       15    13   8    4.6440   534.0    4.964      54.777
2015    4       15    13  14    4.6395   534.0    4.961      54.758
2015    4       15    13  20    4.6350   534.1    4.957      54.737
2015    4       15    13  26    4.6305   534.1    4.953      54.715
2015    4       15    13  32    4.6260   534.2    4.948      54.691
2015    4       15    13  38    4.6215   534.2    4.944      54.667
2015    4       15    13  44    4.6170   534.3    4.940      54.642
2015    4       15    13  50    4.6125   534.3    4.935      54.615
2015    4       15    13  56    4.6079   534.3    4.930      54.588
2015    4       15    14   1    4.6034   534.4    4.925      54.561
2015    4       15    14   7    4.5989   534.4    4.921      54.532
2015    4       15    14  13    4.5944   534.5    4.916      54.502
2015    4       15    14  19    4.5898   534.5    4.911      54.473
2015    4       15    14  25    4.5853   534.5    4.906      54.442
2015    4       15    14  31    4.5807   534.6    4.901      54.411
2015    4       15    14  37    4.5762   534.6    4.895      54.380
2015    4       15    14  43    4.5716   534.7    4.890      54.349
2015    4       15    14  49    4.5671   534.7    4.885      54.317
2015    4       15    14  55    4.5625   534.7    4.880      54.285
2015    4       15    15   1    4.5580   534.8    4.875      54.253
2015    4       15    15   7    4.5534   534.8    4.870      54.221
2015    4       15    15  13    4.5488   534.8    4.865      54.189
2015    4       15    15  19    4.5443   534.9    4.860      54.156
2015    4       15    15  25    4.5397   534.9    4.855      54.124
2015    4       15    15  31    4.5352   534.9    4.850      54.092
2015    4       15    15  37    4.5306   535.0    4.845      54.059
2015    4       15    15  43    4.5261   535.0    4.840      54.026
2015    4       15    15  49    4.5215   535.0    4.835      53.993
2015    4       15    15  54    4.5170   535.1    4.830      53.961
2015    4       15    16   0    4.5125   535.1    4.825      53.928
2015    4       15    16   6    4.5080   535.1    4.820      53.895
2015    4       15    16  12    4.5035   535.2    4.815      53.863
2015    4       15    16  18    4.4990   535.2    4.810      53.830
2015    4       15    16  24    4.4946   535.2    4.805      53.798
2015    4       15    16  30    4.4901   535.2    4.800      53.765
2015    4       15    16  36    4.4858   535.3    4.795      53.733
2015    4       15    16  42    4.4814   535.3    4.791      53.700
2015    4       15    16  48    4.4771   535.3    4.786      53.668
2015    4       15    16  54    4.4728   535.3    4.781      53.635
2015    4       15    17   0    4.4685   535.4    4.777      53.603
2015    4       15    17   6    4.4643   535.4    4.772      53.572
2015    4       15    17  12    4.4601   535.4    4.768      53.540
2015    4       15    17  18    4.4559   535.4    4.763      53.509
2015    4       15    17  24    4.4517   535.4    4.759      53.478
2015    4       15    17  30    4.4476   535.5    4.755      53.448
2015    4       15    17  36    4.4435   535.5    4.751      53.418
2015    4       15    17  42    4.4394   535.5    4.747      53.389
2015    4       15    17  47    4.4354   535.5    4.743      53.360
2015    4       15    17  53    4.4314   535.5    4.739      53.331
2015    4       15    17  59    4.4274   535.5    4.735      53.303
2015    4       15    18   5    4.4235   535.5    4.731      53.276
2015    4       15    18  11    4.4196   535.5    4.728      53.249
2015    4       15    18  17    4.4157   535.5    4.724      53.223
2015    4       15    18  23    4.4118   535.6    4.721      53.197
2015    4       15    18  29    4.4080   535.6    4.717      53.172
2015    4       15    18  35    4.4043   535.6    4.714      53.148
2015    4       15    18  41    4.4005   535.6    4.711      53.124
2015    4       15    18  47    4.3968   535.6    4.708      53.100
2015    4       15    18  53    4.3932   535.6    4.705      53.077
2015    4       15    18  59    4.3896   535.6    4.702      53.054
2015    4       15    19   5    4.3860   535.6    4.699      53.032
2015    4       15    19  11    4.3824   535.6    4.696      53.010
2015    4       15    19  17    4.3789   535.6    4.693      52.988
2015    4       15    19  23    4.3754   535.6    4.690      52.967
2015    4       15    19  29    4.3719   535.6    4.687      52.946
2015    4       15    19  35    4.3684   535.6    4.684      52.925
2015    4       15    19  40    4.3650   535.6    4.681      52.903
2015    4       15    19  46    4.3615   535.6    4.679      52.882
2015    4       15    19  52    4.3581   535.6    4.676      52.860
2015    4       15    19  58    4.3546   535.5    4.673      52.838
2015    4       15    20   4    4.3511   535.5    4.670      52.816
2015    4       15    20  10    4.3476   535.5    4.667      52.794
2015    4       15    20  16    4.3441   535.5    4.664      52.771
2015    4       15    20  22    4.3406   535.5    4.661      52.747
2015    4       15    20  28    4.3371   535.5    4.657      52.724
2015    4       15    20  34    4.3336   535.5    4.654      52.700
2015    4       15    20  40    4.3301   535.5    4.651      52.675
2015    4       15    20  46    4.3266   535.5    4.648      52.651
2015    4       15    20  52    4.3231   535.5    4.645      52.625
2015    4       15    20  58    4.3195   535.5    4.641      52.600
2015    4       15    21   4    4.3160   535.5    4.638      52.574
2015    4       15    21  10    4.3125   535.5    4.635      52.548
2015    4       15    21  16    4.3089   535.5    4.631      52.521
2015    4       15    21  22    4.3054   535.5    4.628      52.494
2015    4       15    21  28    4.3019   535.5    4.625      52.466
2015    4       15    21  33    4.2984   535.5    4.621      52.439
2015    4       15    21  39    4.2948   535.4    4.618      52.410
2015    4       15    21  45    4.2913   535.4    4.614      52.382
2015    4       15    21  51    4.2878   535.4    4.611      52.353
2015    4       15    21  57    4.2843   535.4    4.607      52.324
2015    4       15    22   3    4.2808   535.4    4.604      52.294
2015    4       15    22   9    4.2773   535.4    4.600      52.264
2015    4       15    22  15    4.2738   535.4    4.596      52.233
2015    4       15    22  21    4.2703   535.4    4.593      52.203
2015    4       15    22  27    4.2668   535.4    4.589      52.172
2015    4       15    22  33    4.2633   535.3    4.586      52.140
2015    4       15    22  39    4.2598   535.3    4.582      52.109
2015    4       15    22  45    4.2564   535.3    4.578      52.077
2015    4       15    22  51    4.2529   535.3    4.575      52.044
2015    4       15    22  57    4.2495   535.3    4.571      52.011
2015    4       15    23   3    4.2460   535.3    4.568      51.978
2015    4       15    23   9    4.2426   535.3    4.564      51.945
2015    4       15    23  15    4.2392   535.2    4.561      51.912
2015    4       15    23  21    4.2358   535.2    4.557      51.878
2015    4       15    23  26    4.2325   535.2    4.554      51.845
2015    4       15    23  32    4.2291   535.2    4.550      51.811
2015    4       15    23  38    4.2257   535.2    4.547      51.777
2015    4       15    23  44    4.2224   535.1    4.544      51.743
2015    4       15    23  50    4.2191   535.1    4.540      51.709
2015    4       15    23  56    4.2158   535.1    4.537      51.675
2015    4       16     0   2    4.2126   535.1    4.534      51.640
2015    4       16     0   8    4.2094   535.0    4.531      51.606
2015    4       16     0  14    4.2062   535.0    4.528      51.572
2015    4       16     0  20    4.2030   535.0    4.525      51.539
2015    4       16     0  26    4.1998   535.0    4.522      51.505
2015    4       16     0  32    4.1967   534.9    4.519      51.471
2015    4       16     0  38    4.1936   534.9    4.516      51.438
2015    4       16     0  44    4.1905   534.9    4.514      51.405
2015    4       16     0  50    4.1875   534.8    4.511      51.372
2015    4       16     0  56    4.1845   534.8    4.508      51.340
2015    4       16     1   2    4.1814   534.8    4.506      51.307
2015    4       16     1   8    4.1785   534.7    4.503      51.275
2015    4       16     1  14    4.1755   534.7    4.501      51.243
2015    4       16     1  19    4.1726   534.7    4.499      51.212
2015    4       16     1  25    4.1697   534.6    4.497      51.180
2015    4       16     1  31    4.1668   534.6    4.494      51.149
2015    4       16     1  37    4.1639   534.5    4.492      51.119
2015    4       16     1  43    4.1611   534.5    4.490      51.088
2015    4       16     1  49    4.1582   534.5    4.488      51.059
2015    4       16     1  55    4.1554   534.4    4.486      51.029
2015    4       16     2   1    4.1526   534.4    4.484      51.000
2015    4       16     2   7    4.1498   534.3    4.483      50.971
2015    4       16     2  13    4.1470   534.3    4.481      50.942
2015    4       16     2  19    4.1443   534.3    4.479      50.914
2015    4       16     2  25    4.1415   534.2    4.477      50.886
2015    4       16     2  31    4.1387   534.2    4.476      50.859
2015    4       16     2  37    4.1360   534.1    4.474      50.832
2015    4       16     2  43    4.1332   534.1    4.472      50.806
2015    4       16     2  49    4.1304   534.0    4.471      50.780
2015    4       16     2  55    4.1277   534.0    4.469      50.754
2015    4       16     3   1    4.1249   533.9    4.468      50.729
2015    4       16     3   6    4.1222   533.9    4.466      50.704
2015    4       16     3  12    4.1194   533.8    4.465      50.680
2015    4       16     3  18    4.1166   533.8    4.463      50.656
2015    4       16     3  24    4.1138   533.7    4.461      50.633
2015    4       16     3  30    4.1110   533.7    4.460      50.609
2015    4       16     3  36    4.1082   533.6    4.458      50.587
2015    4       16     3  42    4.1054   533.6    4.457      50.564
2015    4       16     3  48    4.1026   533.5    4.455      50.542
2015    4       16     3  54    4.0998   533.5    4.453      50.520
2015    4       16     4   0    4.0971   533.4    4.451      50.498
2015    4       16     4   6    4.0942   533.4    4.449      50.475
2015    4       16     4  12    4.0915   533.3    4.448      50.453
2015    4       16     4  18    4.0887   533.3    4.446      50.431
2015    4       16     4  24    4.0859   533.2    4.444      50.408
2015    4       16     4  30    4.0831   533.2    4.442      50.384
2015    4       16     4  36    4.0803   533.1    4.440      50.360
2015    4       16     4  42    4.0775   533.1    4.438      50.336
2015    4       16     4  48    4.0747   533.0    4.435      50.311
2015    4       16     4  54    4.0720   533.0    4.433      50.285
2015    4       16     4  59    4.0692   532.9    4.431      50.260
2015    4       16     5   5    4.0664   532.9    4.429      50.233
2015    4       16     5  11    4.0636   532.8    4.427      50.207
2015    4       16     5  17    4.0609   532.8    4.424      50.180
2015    4       16     5  23    4.0581   532.7    4.422      50.152
2015    4       16     5  29    4.0554   532.7    4.420      50.124
2015    4       16     5  35    4.0526   532.6    4.417      50.096
2015    4       16     5  41    4.0499   532.5    4.415      50.067
2015    4       16     5  47    4.0472   532.5    4.413      50.038
2015    4       16     5  53    4.0444   532.4    4.410      50.009
2015    4       16     5  59    4.0417   532.4    4.408      49.979
2015    4       16     6   5    4.0390   532.3    4.405      49.949
2015    4       16     6  11    4.0363   532.3    4.403      49.919
2015    4       16     6  17    4.0335   532.2    4.400      49.888
2015    4       16     6  23    4.0309   532.2    4.398      49.857
2015    4       16     6  29    4.0282   532.1    4.395      49.826
2015    4       16     6  35    4.0255   532.0    4.393      49.794
2015    4       16     6  41    4.0228   532.0    4.390      49.762
2015    4       16     6  47    4.0201   531.9    4.388      49.730
2015    4       16     6  52    4.0175   531.9    4.386      49.697
2015    4       16     6  58    4.0148   531.8    4.383      49.665
2015    4       16     7   4    4.0122   531.7    4.381      49.632
2015    4       16     7  10    4.0096   531.7    4.379      49.599
2015    4       16     7  16    4.0070   531.6    4.376      49.566
2015    4       16     7  22    4.0044   531.5    4.374      49.533
2015    4       16     7  28    4.0019   531.5    4.372      49.500
2015    4       16     7  34    3.9993   531.4    4.370      49.467
2015    4       16     7  40    3.9968   531.3    4.368      49.434
2015    4       16     7  46    3.9943   531.3    4.366      49.401
2015    4       16     7  52    3.9918   531.2    4.364      49.368
2015    4       16     7  58    3.9893   531.1    4.362      49.336
2015    4       16     8   4    3.9869   531.1    4.360      49.303
2015    4       16     8  10    3.9844   531.0    4.359      49.271
2015    4       16     8  16    3.9820   530.9    4.357      49.239
2015    4       16     8  22    3.9796   530.9    4.356      49.208
2015    4       16     8  28    3.9773   530.8    4.354      49.176
2015    4       16     8  34    3.9749   530.7    4.353      49.145
2015    4       16     8  40    3.9726   530.7    4.352      49.114
2015    4       16     8  45    3.9702   530.6    4.351      49.084
2015    4       16     8  51    3.9679   530.5    4.350      49.054
2015    4       16     8  57    3.9656   530.4    4.349      49.024
2015    4       16     9   3    3.9633   530.4    4.348      48.994
2015    4       16     9   9    3.9610   530.3    4.347      48.965
2015    4       16     9  15    3.9587   530.2    4.346      48.935
2015    4       16     9  21    3.9565   530.1    4.345      48.907
2015    4       16     9  27    3.9542   530.1    4.345      48.878
2015    4       16     9  33    3.9519   530.0    4.344      48.849
2015    4       16     9  39    3.9496   529.9    4.343      48.821
2015    4       16     9  45    3.9473   529.8    4.343      48.792
2015    4       16     9  51    3.9450   529.8    4.342      48.764
2015    4       16     9  57    3.9427   529.7    4.342      48.736
2015    4       16    10   3    3.9404   529.6    4.341      48.708
2015    4       16    10   9    3.9381   529.5    4.341      48.680
2015    4       16    10  15    3.9358   529.4    4.340      48.652
2015    4       16    10  21    3.9335   529.4    4.340      48.624
2015    4       16    10  27    3.9312   529.3    4.339      48.596
2015    4       16    10  33    3.9289   529.2    4.339      48.568
2015    4       16    10  38    3.9266   529.1    4.338      48.540
2015    4       16    10  44    3.9243   529.0    4.337      48.512
2015    4       16    10  50    3.9219   528.9    4.337      48.484
2015    4       16    10  56    3.9196   528.8    4.336      48.457
2015    4       16    11   2    3.9173   528.7    4.336      48.429
2015    4       16    11   8    3.9150   528.7    4.335      48.401
2015    4       16    11  14    3.9127   528.6    4.335      48.374
2015    4       16    11  20    3.9104   528.5    4.334      48.347
2015    4       16    11  26    3.9080   528.4    4.333      48.319
2015    4       16    11  32    3.9057   528.3    4.333      48.292
2015    4       16    11  38    3.9034   528.2    4.332      48.264
2015    4       16    11  44    3.9011   528.1    4.331      48.237
2015    4       16    11  50    3.8988   528.0    4.330      48.209
2015    4       16    11  56    3.8965   527.9    4.329      48.182
2015    4       16    12   2    3.8942   527.8    4.329      48.154
2015    4       16    12   8    3.8919   527.7    4.328      48.127
2015    4       16    12  14    3.8896   527.7    4.327      48.099
2015    4       16    12  20    3.8873   527.6    4.326      48.070
2015    4       16    12  26    3.8850   527.5    4.325      48.041
2015    4       16    12  31    3.8828   527.4    4.324      48.012
2015    4       16    12  37    3.8805   527.3    4.323      47.983
2015    4       16    12  43    3.8782   527.2    4.322      47.953
2015    4       16    12  49    3.8759   527.1    4.320      47.922
2015    4       16    12  55    3.8736   527.0    4.319      47.891
2015    4       16    13   1    3.8713   526.9    4.318      47.860
2015    4       16    13   7    3.8690   526.8    4.317      47.829
2015    4       16    13  13    3.8668   526.7    4.316      47.797
2015    4       16    13  19    3.8645   526.6    4.315      47.765
2015    4       16    13  25    3.8622   526.5    4.313      47.733
2015    4       16    13  31    3.8599   526.4    4.312      47.700
2015    4       16    13  37    3.8577   526.3    4.311      47.668
2015    4       16    13  43    3.8554   526.2    4.309      47.635
2015    4       16    13  49    3.8531   526.1    4.308      47.602
2015    4       16    13  55    3.8509   526.0    4.307      47.569
2015    4       16    14   1    3.8486   525.9    4.306      47.535
2015    4       16    14   7    3.8464   525.8    4.304      47.502
2015    4       16    14  13    3.8441   525.7    4.303      47.468
2015    4       16    14  19    3.8419   525.6    4.302      47.434
2015    4       16    14  24    3.8396   525.5    4.301      47.400
2015    4       16    14  30    3.8374   525.4    4.299      47.366
2015    4       16    14  36    3.8352   525.3    4.298      47.331
2015    4       16    14  42    3.8329   525.2    4.297      47.297
2015    4       16    14  48    3.8307   525.1    4.296      47.262
2015    4       16    14  54    3.8285   525.0    4.294      47.227
2015    4       16    15   0    3.8263   524.9    4.293      47.193
2015    4       16    15   6    3.8241   524.8    4.292      47.158
2015    4       16    15  12    3.8219   524.7    4.291      47.123
2015    4       16    15  18    3.8197   524.6    4.290      47.088
2015    4       16    15  24    3.8175   524.5    4.289      47.053
2015    4       16    15  30    3.8154   524.4    4.288      47.018
2015    4       16    15  36    3.8132   524.3    4.287      46.983
2015    4       16    15  42    3.8110   524.2    4.286      46.948
2015    4       16    15  48    3.8089   524.1    4.285      46.913
2015    4       16    15  54    3.8067   524.0    4.284      46.878
2015    4       16    16   0    3.8045   523.9    4.284      46.843
2015    4       16    16   6    3.8024   523.8    4.283      46.808
2015    4       16    16  11    3.8003   523.7    4.282      46.773
2015    4       16    16  17    3.7981   523.6    4.282      46.738
2015    4       16    16  23    3.7960   523.4    4.281      46.703
2015    4       16    16  29    3.7939   523.3    4.280      46.668
2015    4       16    16  35    3.7917   523.2    4.280      46.633
2015    4       16    16  41    3.7896   523.1    4.279      46.597
2015    4       16    16  47    3.7875   523.0    4.278      46.562
2015    4       16    16  53    3.7854   522.9    4.278      46.527
2015    4       16    16  59    3.7833   522.8    4.277      46.491
2015    4       16    17   5    3.7811   522.7    4.277      46.456
2015    4       16    17  11    3.7790   522.5    4.276      46.420
2015    4       16    17  17    3.7769   522.4    4.276      46.384
2015    4       16    17  23    3.7748   522.3    4.275      46.348
2015    4       16    17  29    3.7727   522.2    4.275      46.312
2015    4       16    17  35    3.7706   522.1    4.274      46.276
2015    4       16    17  41    3.7685   522.0    4.274      46.240
2015    4       16    17  47    3.7664   521.8    4.273      46.203
2015    4       16    17  53    3.7643   521.7    4.272      46.167
2015    4       16    17  59    3.7622   521.6    4.272      46.130
2015    4       16    18   4    3.7601   521.5    4.271      46.094
2015    4       16    18  10    3.7581   521.3    4.271      46.057
2015    4       16    18  16    3.7560   521.2    4.270      46.020
2015    4       16    18  22    3.7539   521.1    4.270      45.983
2015    4       16    18  28    3.7519   520.9    4.269      45.946
2015    4       16    18  34    3.7498   520.8    4.269      45.910
2015    4       16    18  40    3.7478   520.7    4.268      45.873
2015    4       16    18  46    3.7458   520.6    4.268      45.836
2015    4       16    18  52    3.7438   520.4    4.267      45.799
2015    4       16    18  58    3.7418   520.3    4.267      45.763
2015    4       16    19   4    3.7398   520.2    4.266      45.726
2015    4       16    19  10    3.7378   520.1    4.266      45.690
2015    4       16    19  16    3.7358   519.9    4.266      45.654
2015    4       16    19  22    3.7339   519.8    4.265      45.617
2015    4       16    19  28    3.7319   519.7    4.265      45.581
2015    4       16    19  34    3.7300   519.5    4.265      45.545
2015    4       16    19  40    3.7281   519.4    4.264      45.509
2015    4       16    19  46    3.7262   519.3    4.264      45.473
2015    4       16    19  52    3.7242   519.2    4.264      45.438
2015    4       16    19  57    3.7223   519.0    4.263      45.402
2015    4       16    20   3    3.7204   518.9    4.263      45.366
2015    4       16    20   9    3.7185   518.8    4.263      45.330
2015    4       16    20  15    3.7166   518.6    4.263      45.294
2015    4       16    20  21    3.7147   518.5    4.263      45.259
2015    4       16    20  27    3.7128   518.4    4.262      45.223
2015    4       16    20  33    3.7108   518.3    4.262      45.187
2015    4       16    20  39    3.7089   518.1    4.262      45.151
2015    4       16    20  45    3.7070   518.0    4.262      45.115
2015    4       16    20  51    3.7051   517.9    4.261      45.079
2015    4       16    20  57    3.7032   517.7    4.261      45.043
2015    4       16    21   3    3.7013   517.6    4.261      45.007
2015    4       16    21   9    3.6994   517.5    4.261      44.971
2015    4       16    21  15    3.6975   517.4    4.260      44.934
2015    4       16    21  21    3.6956   517.2    4.260      44.898
2015    4       16    21  27    3.6937   517.1    4.260      44.861
2015    4       16    21  33    3.6918   517.0    4.259      44.824
2015    4       16    21  39    3.6899   516.8    4.259      44.788
2015    4       16    21  45    3.6880   516.7    4.258      44.750
2015    4       16    21  50    3.6862   516.6    4.258      44.713
2015    4       16    21  56    3.6843   516.4    4.258      44.676
2015    4       16    22   2    3.6824   516.3    4.257      44.639
2015    4       16    22   8    3.6805   516.2    4.257      44.601
2015    4       16    22  14    3.6786   516.0    4.256      44.563
2015    4       16    22  20    3.6768   515.9    4.256      44.526
2015    4       16    22  26    3.6749   515.8    4.255      44.488
2015    4       16    22  32    3.6731   515.6    4.255      44.450
2015    4       16    22  38    3.6712   515.5    4.254      44.412
2015    4       16    22  44    3.6694   515.4    4.253      44.374
2015    4       16    22  50    3.6676   515.2    4.253      44.337
2015    4       16    22  56    3.6658   515.1    4.252      44.299
2015    4       16    23   2    3.6640   515.0    4.252      44.261
2015    4       16    23   8    3.6622   514.8    4.251      44.223
2015    4       16    23  14    3.6604   514.7    4.251      44.185
2015    4       16    23  20    3.6586   514.6    4.250      44.148
2015    4       16    23  26    3.6568   514.4    4.250      44.110
2015    4       16    23  32    3.6550   514.3    4.249      44.072
2015    4       16    23  38    3.6533   514.1    4.248      44.035
2015    4       16    23  43    3.6515   514.0    4.248      43.997
2015    4       16    23  49    3.6497   513.9    4.247      43.960
2015    4       16    23  55    3.6480   513.7    4.247      43.922
2015    4       17     0   1    3.6462   513.6    4.246      43.885
2015    4       17     0   7    3.6444   513.4    4.246      43.847
2015    4       17     0  13    3.6427   513.3    4.245      43.810
2015    4       17     0  19    3.6409   513.2    4.245      43.773
2015    4       17     0  25    3.6391   513.0    4.244      43.735
2015    4       17     0  31    3.6373   512.9    4.244      43.697
2015    4       17     0  37    3.6355   512.7    4.244      43.660
2015    4       17     0  43    3.6337   512.6    4.243      43.622
2015    4       17     0  49    3.6319   512.4    4.243      43.584
2015    4       17     0  55    3.6301   512.3    4.242      43.547
2015    4       17     1   1    3.6283   512.2    4.242      43.508
2015    4       17     1   7    3.6265   512.0    4.241      43.470
2015    4       17     1  13    3.6247   511.9    4.241      43.432
2015    4       17     1  19    3.6229   511.7    4.240      43.393
2015    4       17     1  25    3.6210   511.6    4.240      43.355
2015    4       17     1  30    3.6192   511.4    4.239      43.316
2015    4       17     1  36    3.6174   511.3    4.239      43.276
2015    4       17     1  42    3.6155   511.1    4.238      43.237
2015    4       17     1  48    3.6136   511.0    4.238      43.197
2015    4       17     1  54    3.6118   510.8    4.237      43.157
2015    4       17     2   0    3.6099   510.7    4.237      43.117
2015    4       17     2   6    3.6080   510.5    4.236      43.076
2015    4       17     2  12    3.6061   510.4    4.236      43.036
2015    4       17     2  18    3.6042   510.2    4.235      42.995
2015    4       17     2  24    3.6024   510.1    4.234      42.954
2015    4       17     2  30    3.6005   509.9    4.234      42.913
2015    4       17     2  36    3.5986   509.8    4.233      42.871
2015    4       17     2  42    3.5967   509.6    4.232      42.830
2015    4       17     2  48    3.5948   509.4    4.232      42.788
2015    4       17     2  54    3.5929   509.3    4.231      42.746
2015    4       17     3   0    3.5910   509.1    4.231      42.705
2015    4       17     3   6    3.5891   509.0    4.230      42.663
2015    4       17     3  12    3.5872   508.8    4.229      42.621
2015    4       17     3  18    3.5853   508.7    4.229      42.579
2015    4       17     3  23    3.5834   508.5    4.228      42.537
2015    4       17     3  29    3.5815   508.3    4.228      42.495
2015    4       17     3  35    3.5796   508.2    4.227      42.453
2015    4       17     3  41    3.5777   508.0    4.226      42.411
2015    4       17     3  47    3.5759   507.9    4.226      42.370
2015    4       17     3  53    3.5740   507.7    4.225      42.328
2015    4       17     3  59    3.5722   507.5    4.225      42.286
2015    4       17     4   5    3.5703   507.4    4.225      42.245
2015    4       17     4  11    3.5684   507.2    4.224      42.203
2015    4       17     4  17    3.5666   507.1    4.224      42.162
2015    4       17     4  23    3.5648   506.9    4.223      42.121
2015    4       17     4  29    3.5630   506.7    4.223      42.080
2015    4       17     4  35    3.5612   506.6    4.223      42.039
2015    4       17     4  41    3.5593   506.4    4.223      41.998
2015    4       17     4  47    3.5575   506.2    4.222      41.957
2015    4       17     4  53    3.5558   506.1    4.222      41.917
2015    4       17     4  59    3.5540   505.9    4.222      41.877
2015    4       17     5   5    3.5522   505.8    4.222      41.837
2015    4       17     5  11    3.5505   505.6    4.222      41.797
2015    4       17     5  16    3.5487   505.4    4.222      41.757
2015    4       17     5  22    3.5470   505.3    4.222      41.718
2015    4       17     5  28    3.5453   505.1    4.222      41.678
2015    4       17     5  34    3.5436   505.0    4.222      41.640
2015    4       17     5  40    3.5418   504.8    4.222      41.601
2015    4       17     5  46    3.5401   504.6    4.222      41.563
2015    4       17     5  52    3.5385   504.5    4.222      41.525
2015    4       17     5  58    3.5368   504.3    4.222      41.487
2015    4       17     6   4    3.5351   504.1    4.222      41.450
2015    4       17     6  10    3.5334   504.0    4.223      41.413
2015    4       17     6  16    3.5318   503.8    4.223      41.376
2015    4       17     6  22    3.5301   503.7    4.223      41.339
2015    4       17     6  28    3.5284   503.5    4.224      41.303
2015    4       17     6  34    3.5268   503.4    4.224      41.267
2015    4       17     6  40    3.5251   503.2    4.224      41.231
2015    4       17     6  46    3.5234   503.0    4.225      41.196
2015    4       17     6  52    3.5218   502.9    4.225      41.161
2015    4       17     6  58    3.5201   502.7    4.226      41.126
2015    4       17     7   4    3.5184   502.6    4.226      41.091
2015    4       17     7   9    3.5168   502.4    4.227      41.057
2015    4       17     7  15    3.5151   502.2    4.227      41.023
2015    4       17     7  21    3.5134   502.1    4.228      40.988
2015    4       17     7  27    3.5117   501.9    4.228      40.955
2015    4       17     7  33    3.5100   501.8    4.229      40.921
2015    4       17     7  39    3.5084   501.6    4.230      40.887
2015    4       17     7  45    3.5067   501.5    4.230      40.853
2015    4       17     7  51    3.5050   501.3    4.231      40.820
2015    4       17     7  57    3.5033   501.1    4.232      40.786
2015    4       17     8   3    3.5015   501.0    4.232      40.753
2015    4       17     8   9    3.4998   500.8    4.233      40.719
2015    4       17     8  15    3.4981   500.7    4.234      40.685
2015    4       17     8  21    3.4964   500.5    4.235      40.652
2015    4       17     8  27    3.4946   500.4    4.235      40.618
2015    4       17     8  33    3.4928   500.2    4.236      40.584
2015    4       17     8  39    3.4911   500.0    4.237      40.549
2015    4       17     8  45    3.4893   499.9    4.237      40.515
2015    4       17     8  51    3.4875   499.7    4.238      40.480
2015    4       17     8  57    3.4857   499.6    4.239      40.444
2015    4       17     9   2    3.4839   499.4    4.239      40.408
2015    4       17     9   8    3.4821   499.3    4.240      40.372
2015    4       17     9  14    3.4803   499.1    4.240      40.335
2015    4       17     9  20    3.4784   498.9    4.240      40.298
2015    4       17     9  26    3.4766   498.8    4.241      40.260
2015    4       17     9  32    3.4748   498.6    4.241      40.223
2015    4       17     9  38    3.4729   498.5    4.241      40.184
2015    4       17     9  44    3.4711   498.3    4.241      40.146
2015    4       17     9  50    3.4693   498.1    4.241      40.107
2015    4       17     9  56    3.4674   498.0    4.241      40.068
2015    4       17    10   2    3.4656   497.8    4.241      40.029
2015    4       17    10   8    3.4637   497.6    4.241      39.989
2015    4       17    10  14    3.4619   497.5    4.240      39.949
2015    4       17    10  20    3.4601   497.3    4.240      39.908
2015    4       17    10  26    3.4582   497.1    4.240      39.868
2015    4       17    10  32    3.4564   497.0    4.240      39.827
2015    4       17    10  38    3.4545   496.8    4.239      39.785
2015    4       17    10  44    3.4527   496.6    4.239      39.744
2015    4       17    10  50    3.4509   496.4    4.239      39.702
2015    4       17    10  55    3.4491   496.3    4.238      39.660
2015    4       17    11   1    3.4473   496.1    4.238      39.618
2015    4       17    11   7    3.4455   495.9    4.237      39.575
2015    4       17    11  13    3.4436   495.7    4.237      39.533
2015    4       17    11  19    3.4419   495.6    4.236      39.490
2015    4       17    11  25    3.4401   495.4    4.236      39.447
2015    4       17    11  31    3.4383   495.2    4.235      39.404
2015    4       17    11  37    3.4365   495.0    4.235      39.361
2015    4       17    11  43    3.4348   494.8    4.235      39.318
2015    4       17    11  49    3.4331   494.7    4.234      39.275
2015    4       17    11  55    3.4313   494.5    4.234      39.232
2015    4       17    12   1    3.4296   494.3    4.233      39.189
2015    4       17    12   7    3.4279   494.1    4.233      39.146
2015    4       17    12  13    3.4262   493.9    4.233      39.103
2015    4       17    12  19    3.4245   493.7    4.232      39.060
2015    4       17    12  25    3.4228   493.5    4.232      39.017
2015    4       17    12  31    3.4212   493.4    4.232      38.974
2015    4       17    12  37    3.4195   493.2    4.231      38.931
2015    4       17    12  43    3.4178   493.0    4.231      38.888
2015    4       17    12  48    3.4162   492.8    4.231      38.845
2015    4       17    12  54    3.4145   492.6    4.230      38.802
2015    4       17    13   0    3.4129   492.4    4.230      38.759
2015    4       17    13   6    3.4112   492.2    4.230      38.716
2015    4       17    13  12    3.4096   492.1    4.230      38.673
2015    4       17    13  18    3.4079   491.9    4.230      38.630
2015    4       17    13  24    3.4063   491.7    4.229      38.587
2015    4       17    13  30    3.4046   491.5    4.229      38.544
2015    4       17    13  36    3.4029   491.3    4.229      38.501
2015    4       17    13  42    3.4013   491.1    4.229      38.457
2015    4       17    13  48    3.3996   490.9    4.229      38.414
2015    4       17    13  54    3.3979   490.7    4.228      38.371
2015    4       17    14   0    3.3963   490.5    4.228      38.327
2015    4       17    14   6    3.3946   490.3    4.228      38.284
2015    4       17    14  12    3.3930   490.1    4.228      38.241
2015    4       17    14  18    3.3913   489.9    4.228      38.198
2015    4       17    14  24    3.3897   489.7    4.228      38.155
2015    4       17    14  30    3.3881   489.5    4.228      38.112
2015    4       17    14  36    3.3864   489.3    4.228      38.070
2015    4       17    14  41    3.3848   489.1    4.229      38.028
2015    4       17    14  47    3.3832   489.0    4.229      37.986
2015    4       17    14  53    3.3817   488.8    4.229      37.944
2015    4       17    14  59    3.3801   488.6    4.230      37.904
2015    4       17    15   5    3.3785   488.4    4.230      37.863
2015    4       17    15  11    3.3770   488.2    4.231      37.823
2015    4       17    15  17    3.3754   488.0    4.232      37.783
2015    4       17    15  23    3.3739   487.8    4.233      37.745
2015    4       17    15  29    3.3724   487.6    4.234      37.706
2015    4       17    15  35    3.3709   487.4    4.235      37.669
2015    4       17    15  41    3.3695   487.2    4.236      37.631
2015    4       17    15  47    3.3680   487.0    4.237      37.595
2015    4       17    15  53    3.3665   486.8    4.238      37.559
2015    4       17    15  59    3.3651   486.6    4.240      37.524
2015    4       17    16   5    3.3636   486.4    4.241      37.489
2015    4       17    16  11    3.3622   486.2    4.243      37.455
2015    4       17    16  17    3.3607   486.0    4.245      37.421
2015    4       17    16  23    3.3593   485.8    4.247      37.388
2015    4       17    16  29    3.3579   485.6    4.249      37.355
2015    4       17    16  34    3.3564   485.4    4.251      37.322
2015    4       17    16  40    3.3550   485.2    4.253      37.290
2015    4       17    16  46    3.3536   485.0    4.255      37.258
2015    4       17    16  52    3.3522   484.8    4.257      37.227
2015    4       17    16  58    3.3508   484.6    4.259      37.196
2015    4       17    17   4    3.3495   484.4    4.261      37.164
2015    4       17    17  10    3.3481   484.2    4.264      37.133
2015    4       17    17  16    3.3467   484.0    4.266      37.102
2015    4       17    17  22    3.3454   483.8    4.268      37.072
2015    4       17    17  28    3.3441   483.6    4.271      37.041
2015    4       17    17  34    3.3427   483.4    4.273      37.010
2015    4       17    17  40    3.3414   483.2    4.275      36.980
2015    4       17    17  46    3.3400   483.0    4.278      36.949
2015    4       17    17  52    3.3387   482.8    4.280      36.919
2015    4       17    17  58    3.3374   482.6    4.283      36.888
2015    4       17    18   4    3.3361   482.4    4.285      36.858
2015    4       17    18  10    3.3347   482.2    4.287      36.827
2015    4       17    18  16    3.3334   482.0    4.290      36.796
2015    4       17    18  22    3.3320   481.8    4.292      36.765
2015    4       17    18  27    3.3307   481.6    4.294      36.734
2015    4       17    18  33    3.3293   481.4    4.296      36.703
2015    4       17    18  39    3.3280   481.2    4.299      36.671
2015    4       17    18  45    3.3266   481.0    4.301      36.639
2015    4       17    18  51    3.3253   480.8    4.303      36.607
2015    4       17    18  57    3.3239   480.6    4.305      36.575
2015    4       17    19   3    3.3225   480.3    4.307      36.542
2015    4       17    19   9    3.3212   480.1    4.309      36.509
2015    4       17    19  15    3.3198   479.9    4.310      36.476
2015    4       17    19  21    3.3184   479.7    4.312      36.442
2015    4       17    19  27    3.3171   479.5    4.314      36.408
2015    4       17    19  33    3.3157   479.3    4.316      36.374
2015    4       17    19  39    3.3144   479.1    4.317      36.340
2015    4       17    19  45    3.3131   478.8    4.319      36.306
2015    4       17    19  51    3.3117   478.6    4.320      36.271
2015    4       17    19  57    3.3104   478.4    4.322      36.236
2015    4       17    20   3    3.3091   478.2    4.323      36.200
2015    4       17    20   9    3.3077   478.0    4.325      36.164
2015    4       17    20  15    3.3064   477.8    4.326      36.129
2015    4       17    20  20    3.3051   477.5    4.328      36.092
2015    4       17    20  26    3.3038   477.3    4.329      36.056
2015    4       17    20  32    3.3025   477.1    4.330      36.019
2015    4       17    20  38    3.3012   476.9    4.332      35.982
2015    4       17    20  44    3.2999   476.7    4.333      35.945
2015    4       17    20  50    3.2987   476.4    4.334      35.907
2015    4       17    20  56    3.2974   476.2    4.336      35.870
2015    4       17    21   2    3.2961   476.0    4.337      35.832
2015    4       17    21   8    3.2948   475.7    4.338      35.794
2015    4       17    21  14    3.2936   475.5    4.340      35.756
2015    4       17    21  20    3.2924   475.3    4.341      35.718
2015    4       17    21  26    3.2911   475.0    4.343      35.679
2015    4       17    21  32    3.2899   474.8    4.344      35.641
2015    4       17    21  38    3.2887   474.6    4.346      35.602
2015    4       17    21  44    3.2875   474.3    4.347      35.564
2015    4       17    21  50    3.2864   474.1    4.349      35.526
2015    4       17    21  56    3.2852   473.9    4.351      35.487
2015    4       17    22   2    3.2841   473.6    4.353      35.449
2015    4       17    22   8    3.2830   473.4    4.355      35.411
2015    4       17    22  13    3.2819   473.1    4.357      35.374
2015    4       17    22  19    3.2808   472.9    4.359      35.337
2015    4       17    22  25    3.2797   472.7    4.361      35.300
2015    4       17    22  31    3.2787   472.4    4.364      35.263
2015    4       17    22  37    3.2777   472.2    4.366      35.227
2015    4       17    22  43    3.2768   471.9    4.369      35.191
2015    4       17    22  49    3.2758   471.7    4.372      35.156
2015    4       17    22  55    3.2749   471.4    4.375      35.121
2015    4       17    23   1    3.2740   471.2    4.378      35.087
2015    4       17    23   7    3.2732   470.9    4.381      35.053
2015    4       17    23  13    3.2724   470.7    4.385      35.020
2015    4       17    23  19    3.2716   470.4    4.388      34.988
2015    4       17    23  25    3.2708   470.2    4.392      34.956
2015    4       17    23  31    3.2701   469.9    4.396      34.925
2015    4       17    23  37    3.2694   469.7    4.401      34.894
2015    4       17    23  43    3.2687   469.5    4.405      34.864
2015    4       17    23  49    3.2681   469.2    4.409      34.835
2015    4       17    23  55    3.2675   469.0    4.414      34.806
2015    4       18     0   1    3.2669   468.7    4.419      34.778
2015    4       18     0   6    3.2664   468.5    4.424      34.751
2015    4       18     0  12    3.2659   468.2    4.429      34.725
2015    4       18     0  18    3.2655   468.0    4.435      34.699
2015    4       18     0  24    3.2650   467.7    4.440      34.674
2015    4       18     0  30    3.2646   467.5    4.446      34.649
2015    4       18     0  36    3.2643   467.2    4.451      34.626
2015    4       18     0  42    3.2640   467.0    4.457      34.603
2015    4       18     0  48    3.2637   466.7    4.463      34.580
2015    4       18     0  54    3.2634   466.5    4.469      34.559
2015    4       18     1   0    3.2632   466.2    4.475      34.538
2015    4       18     1   6    3.2630   466.0    4.482      34.517
2015    4       18     1  12    3.2628   465.8    4.488      34.497
2015    4       18     1  18    3.2627   465.5    4.494      34.478
2015    4       18     1  24    3.2626   465.3    4.501      34.459
2015    4       18     1  30    3.2625   465.1    4.507      34.440
2015    4       18     1  36    3.2625   464.8    4.514      34.422
2015    4       18     1  42    3.2624   464.6    4.520      34.404
2015    4       18     1  48    3.2624   464.4    4.527      34.386
2015    4       18     1  54    3.2624   464.1    4.533      34.368
2015    4       18     1  59    3.2624   463.9    4.540      34.350
2015    4       18     2   5    3.2625   463.7    4.547      34.333
2015    4       18     2  11    3.2625   463.4    4.553      34.316
2015    4       18     2  17    3.2626   463.2    4.560      34.299
2015    4       18     2  23    3.2627   463.0    4.566      34.282
2015    4       18     2  29    3.2628   462.7    4.573      34.265
2015    4       18     2  35    3.2629   462.5    4.579      34.249
2015    4       18     2  41    3.2630   462.3    4.586      34.232
2015    4       18     2  47    3.2632   462.0    4.592      34.215
2015    4       18     2  53    3.2633   461.8    4.599      34.198
2015    4       18     2  59    3.2635   461.6    4.605      34.181
2015    4       18     3   5    3.2637   461.4    4.612      34.164
2015    4       18     3  11    3.2639   461.1    4.618      34.147
2015    4       18     3  17    3.2641   460.9    4.624      34.130
2015    4       18     3  23    3.2644   460.7    4.631      34.113
2015    4       18     3  29    3.2646   460.5    4.637      34.096
2015    4       18     3  35    3.2649   460.3    4.643      34.078
2015    4       18     3  41    3.2652   460.0    4.650      34.060
2015    4       18     3  47    3.2655   459.8    4.656      34.042
2015    4       18     3  52    3.2658   459.6    4.662      34.025
2015    4       18     3  58    3.2661   459.4    4.669      34.006
2015    4       18     4   4    3.2664   459.2    4.675      33.988
2015    4       18     4  10    3.2667   459.0    4.681      33.970
2015    4       18     4  16    3.2670   458.7    4.687      33.951
2015    4       18     4  22    3.2673   458.5    4.693      33.932
2015    4       18     4  28    3.2677   458.3    4.699      33.913
2015    4       18     4  34    3.2681   458.1    4.705      33.894
2015    4       18     4  40    3.2684   457.9    4.711      33.875
2015    4       18     4  46    3.2688   457.7    4.717      33.855
2015    4       18     4  52    3.2692   457.5    4.724      33.836
2015    4       18     4  58    3.2696   457.2    4.730      33.816
2015    4       18     5   4    3.2701   457.0    4.736      33.797
2015    4       18     5  10    3.2705   456.8    4.742      33.777
2015    4       18     5  16    3.2710   456.6    4.748      33.758
2015    4       18     5  22    3.2715   456.4    4.754      33.738
2015    4       18     5  28    3.2720   456.2    4.760      33.719
2015    4       18     5  34    3.2726   456.0    4.766      33.699
2015    4       18     5  40    3.2731   455.7    4.772      33.680
2015    4       18     5  45    3.2737   455.5    4.779      33.661
2015    4       18     5  51    3.2744   455.3    4.785      33.642
2015    4       18     5  57    3.2750   455.1    4.791      33.624
2015    4       18     6   3    3.2757   454.9    4.798      33.605
2015    4       18     6   9    3.2764   454.7    4.804      33.587
2015    4       18     6  15    3.2771   454.5    4.811      33.569
2015    4       18     6  21    3.2779   454.3    4.817      33.552
2015    4       18     6  27    3.2787   454.1    4.824      33.535
2015    4       18     6  33    3.2796   453.9    4.830      33.518
2015    4       18     6  39    3.2805   453.7    4.837      33.501
2015    4       18     6  45    3.2814   453.4    4.844      33.485
2015    4       18     6  51    3.2823   453.2    4.851      33.469
2015    4       18     6  57    3.2833   453.0    4.858      33.454
2015    4       18     7   3    3.2843   452.8    4.865      33.439
2015    4       18     7   9    3.2853   452.6    4.872      33.424
2015    4       18     7  15    3.2863   452.5    4.879      33.409
2015    4       18     7  21    3.2874   452.3    4.886      33.395
2015    4       18     7  27    3.2885   452.1    4.893      33.380
2015    4       18     7  33    3.2896   451.9    4.900      33.366
2015    4       18     7  38    3.2907   451.7    4.907      33.352
2015    4       18     7  44    3.2919   451.5    4.915      33.338
2015    4       18     7  50    3.2930   451.3    4.922      33.325
2015    4       18     7  56    3.2942   451.1    4.929      33.311
2015    4       18     8   2    3.2953   450.9    4.936      33.297
2015    4       18     8   8    3.2965   450.7    4.943      33.283
2015    4       18     8  14    3.2976   450.5    4.950      33.270
2015    4       18     8  20    3.2988   450.3    4.957      33.256
2015    4       18     8  26    3.3000   450.1    4.964      33.242
2015    4       18     8  32    3.3012   450.0    4.972      33.229
2015    4       18     8  38    3.3024   449.8    4.979      33.215
2015    4       18     8  44    3.3036   449.6    4.986      33.202
2015    4       18     8  50    3.3048   449.4    4.993      33.188
2015    4       18     8  56    3.3061   449.2    5.000      33.175
2015    4       18     9   2    3.3073   449.0    5.007      33.162
2015    4       18     9   8    3.3086   448.8    5.014      33.148
2015    4       18     9  14    3.3098   448.7    5.021      33.135
2015    4       18     9  20    3.3111   448.5    5.028      33.122
2015    4       18     9  26    3.3124   448.3    5.036      33.109
2015    4       18     9  31    3.3137   448.1    5.043      33.097
2015    4       18     9  37    3.3150   447.9    5.050      33.084
2015    4       18     9  43    3.3163   447.7    5.057      33.072
2015    4       18     9  49    3.3177   447.6    5.065      33.059
2015    4       18     9  55    3.3190   447.4    5.072      33.047
2015    4       18    10   1    3.3204   447.2    5.079      33.035
2015    4       18    10   7    3.3218   447.0    5.087      33.023
2015    4       18    10  13    3.3232   446.9    5.094      33.012
2015    4       18    10  19    3.3246   446.7    5.102      33.001
2015    4       18    10  25    3.3260   446.5    5.109      32.990
2015    4       18    10  31    3.3274   446.3    5.117      32.979
2015    4       18    10  37    3.3289   446.2    5.124      32.968
2015    4       18    10  43    3.3304   446.0    5.132      32.958
2015    4       18    10  49    3.3318   445.8    5.139      32.948
2015    4       18    10  55    3.3333   445.7    5.147      32.938
2015    4       18    11   1    3.3348   445.5    5.155      32.928
2015    4       18    11   7    3.3363   445.3    5.162      32.919
2015    4       18    11  13    3.3379   445.2    5.170      32.909
2015    4       18    11  19    3.3394   445.0    5.178      32.900
2015    4       18    11  24    3.3410   444.9    5.185      32.891
2015    4       18    11  30    3.3425   444.7    5.193      32.883
2015    4       18    11  36    3.3441   444.5    5.201      32.874
2015    4       18    11  42    3.3457   444.4    5.208      32.865
2015    4       18    11  48    3.3473   444.2    5.216      32.857
2015    4       18    11  54    3.3489   444.1    5.224      32.849
2015    4       18    12   0    3.3506   443.9    5.231      32.841
2015    4       18    12   6    3.3522   443.8    5.239      32.833
2015    4       18    12  12    3.3539   443.6    5.246      32.825
2015    4       18    12  18    3.3555   443.5    5.254      32.818
2015    4       18    12  24    3.3572   443.3    5.261      32.810
2015    4       18    12  30    3.3589   443.2    5.269      32.802
2015    4       18    12  36    3.3606   443.0    5.276      32.795
2015    4       18    12  42    3.3623   442.9    5.283      32.788
2015    4       18    12  48    3.3641   442.7    5.290      32.780
2015    4       18    12  54    3.3658   442.6    5.298      32.773
2015    4       18    13   0    3.3675   442.4    5.305      32.766
2015    4       18    13   6    3.3693   442.3    5.312      32.759
2015    4       18    13  12    3.3711   442.1    5.319      32.752
2015    4       18    13  17    3.3729   442.0    5.326      32.746
2015    4       18    13  23    3.3747   441.8    5.333      32.739
2015    4       18    13  29    3.3765   441.7    5.340      32.733
2015    4       18    13  35    3.3783   441.5    5.347      32.727
2015    4       18    13  41    3.3802   441.4    5.354      32.721
2015    4       18    13  47    3.3821   441.3    5.361      32.715
2015    4       18    13  53    3.3840   441.1    5.368      32.710
2015    4       18    13  59    3.3859   441.0    5.374      32.704
2015    4       18    14   5    3.3878   440.8    5.381      32.699
2015    4       18    14  11    3.3897   440.7    5.388      32.694
2015    4       18    14  17    3.3917   440.6    5.395      32.689
2015    4       18    14  23    3.3936   440.4    5.402      32.685
2015    4       18    14  29    3.3956   440.3    5.409      32.681
2015    4       18    14  35    3.3976   440.1    5.415      32.677
2015    4       18    14  41    3.3996   440.0    5.422      32.673
2015    4       18    14  47    3.4017   439.9    5.429      32.669
2015    4       18    14  53    3.4037   439.7    5.436      32.666
2015    4       18    14  59    3.4058   439.6    5.443      32.663
2015    4       18    15   5    3.4079   439.5    5.450      32.660
2015    4       18    15  10    3.4100   439.3    5.457      32.657
2015    4       18    15  16    3.4121   439.2    5.464      32.655
2015    4       18    15  22    3.4142   439.1    5.471      32.653
2015    4       18    15  28    3.4163   438.9    5.478      32.651
2015    4       18    15  34    3.4185   438.8    5.485      32.649
2015    4       18    15  40    3.4206   438.7    5.492      32.648
2015    4       18    15  46    3.4228   438.5    5.499      32.646
2015    4       18    15  52    3.4250   438.4    5.507      32.645
2015    4       18    15  58    3.4271   438.3    5.514      32.644
2015    4       18    16   4    3.4293   438.1    5.521      32.643
2015    4       18    16  10    3.4315   438.0    5.529      32.642
2015    4       18    16  16    3.4337   437.9    5.536      32.642
2015    4       18    16  22    3.4358   437.8    5.543      32.642
2015    4       18    16  28    3.4380   437.6    5.551      32.641
2015    4       18    16  34    3.4402   437.5    5.558      32.641
2015    4       18    16  40    3.4423   437.4    5.566      32.641
2015    4       18    16  46    3.4445   437.3    5.574      32.641
2015    4       18    16  52    3.4466   437.1    5.581      32.641
2015    4       18    16  58    3.4488   437.0    5.589      32.641
2015    4       18    17   3    3.4509   436.9    5.596      32.642
2015    4       18    17   9    3.4531   436.8    5.604      32.642
2015    4       18    17  15    3.4552   436.7    5.612      32.642
2015    4       18    17  21    3.4574   436.5    5.619      32.643
2015    4       18    17  27    3.4595   436.4    5.627      32.644
2015    4       18    17  33    3.4616   436.3    5.635      32.644
2015    4       18    17  39    3.4638   436.2    5.643      32.645
2015    4       18    17  45    3.4659   436.1    5.650      32.646
2015    4       18    17  51    3.4680   436.0    5.658      32.647
2015    4       18    17  57    3.4702   435.8    5.665      32.648
2015    4       18    18   3    3.4723   435.7    5.673      32.650
2015    4       18    18   9    3.4744   435.6    5.681      32.651
2015    4       18    18  15    3.4766   435.5    5.688      32.652
2015    4       18    18  21    3.4787   435.4    5.696      32.654
2015    4       18    18  27    3.4809   435.3    5.703      32.656
2015    4       18    18  33    3.4830   435.2    5.711      32.657
2015    4       18    18  39    3.4851   435.0    5.718      32.659
2015    4       18    18  45    3.4873   434.9    5.725      32.661
2015    4       18    18  51    3.4894   434.8    5.733      32.663
2015    4       18    18  56    3.4916   434.7    5.740      32.666
2015    4       18    19   2    3.4937   434.6    5.747      32.668
2015    4       18    19   8    3.4959   434.5    5.754      32.670
2015    4       18    19  14    3.4980   434.4    5.762      32.673
2015    4       18    19  20    3.5002   434.3    5.769      32.676
2015    4       18    19  26    3.5024   434.2    5.776      32.679
2015    4       18    19  32    3.5046   434.1    5.783      32.682
2015    4       18    19  38    3.5067   434.0    5.790      32.685
2015    4       18    19  44    3.5089   433.9    5.797      32.688
2015    4       18    19  50    3.5111   433.8    5.804      32.692
2015    4       18    19  56    3.5133   433.7    5.811      32.696
2015    4       18    20   2    3.5155   433.6    5.818      32.700
2015    4       18    20   8    3.5177   433.5    5.824      32.704
2015    4       18    20  14    3.5200   433.4    5.831      32.709
2015    4       18    20  20    3.5222   433.3    5.838      32.714
2015    4       18    20  26    3.5244   433.2    5.844      32.718
2015    4       18    20  32    3.5267   433.1    5.851      32.724
2015    4       18    20  38    3.5289   433.0    5.857      32.729
2015    4       18    20  43    3.5312   432.9    5.863      32.734
2015    4       18    20  49    3.5335   432.8    5.870      32.739
2015    4       18    20  55    3.5357   432.7    5.876      32.745
2015    4       18    21   1    3.5380   432.6    5.882      32.750
2015    4       18    21   7    3.5403   432.5    5.889      32.756
2015    4       18    21  13    3.5426   432.4    5.895      32.761
2015    4       18    21  19    3.5449   432.3    5.901      32.767
2015    4       18    21  25    3.5472   432.2    5.907      32.772
2015    4       18    21  31    3.5495   432.1    5.913      32.778
2015    4       18    21  37    3.5518   432.0    5.920      32.783
2015    4       18    21  43    3.5542   431.9    5.926      32.788
2015    4       18    21  49    3.5565   431.8    5.932      32.794
2015    4       18    21  55    3.5589   431.7    5.938      32.799
2015    4       18    22   1    3.5612   431.7    5.944      32.804
2015    4       18    22   7    3.5636   431.6    5.950      32.810
2015    4       18    22  13    3.5660   431.5    5.956      32.815
2015    4       18    22  19    3.5684   431.4    5.962      32.820
2015    4       18    22  25    3.5708   431.3    5.968      32.826
2015    4       18    22  31    3.5732   431.2    5.974      32.831
2015    4       18    22  36    3.5756   431.1    5.980      32.836
2015    4       18    22  42    3.5781   431.0    5.986      32.842
2015    4       18    22  48    3.5805   431.0    5.992      32.847
2015    4       18    22  54    3.5829   430.9    5.998      32.852
2015    4       18    23   0    3.5854   430.8    6.004      32.858
2015    4       18    23   6    3.5878   430.7    6.010      32.863
2015    4       18    23  12    3.5903   430.6    6.016      32.868
2015    4       18    23  18    3.5928   430.5    6.023      32.874
2015    4       18    23  24    3.5953   430.5    6.029      32.879
2015    4       18    23  30    3.5977   430.4    6.035      32.885
2015    4       18    23  36    3.6002   430.3    6.041      32.891
2015    4       18    23  42    3.6027   430.2    6.047      32.896
2015    4       18    23  48    3.6052   430.2    6.053      32.902
2015    4       18    23  54    3.6077   430.1    6.059      32.908
2015    4       19     0   0    3.6101   430.0    6.066      32.914
2015    4       19     0   6    3.6126   429.9    6.072      32.920
2015    4       19     0  12    3.6151   429.8    6.078      32.926
2015    4       19     0  18    3.6176   429.8    6.084      32.932
2015    4       19     0  24    3.6200   429.7    6.091      32.939
2015    4       19     0  29    3.6225   429.6    6.097      32.946
2015    4       19     0  35    3.6249   429.5    6.103      32.952
2015    4       19     0  41    3.6273   429.5    6.109      32.959
2015    4       19     0  47    3.6298   429.4    6.116      32.966
2015    4       19     0  53    3.6322   429.3    6.122      32.973
2015    4       19     0  59    3.6346   429.3    6.128      32.980
2015    4       19     1   5    3.6370   429.2    6.135      32.988
2015    4       19     1  11    3.6394   429.1    6.141      32.995
2015    4       19     1  17    3.6418   429.1    6.147      33.003
2015    4       19     1  23    3.6441   429.0    6.154      33.011
2015    4       19     1  29    3.6465   428.9    6.160      33.019
2015    4       19     1  35    3.6489   428.9    6.166      33.027
2015    4       19     1  41    3.6512   428.8    6.173      33.036
2015    4       19     1  47    3.6536   428.7    6.179      33.044
2015    4       19     1  53    3.6559   428.7    6.185      33.053
2015    4       19     1  59    3.6582   428.6    6.191      33.061
2015    4       19     2   5    3.6605   428.5    6.198      33.070
2015    4       19     2  11    3.6628   428.5    6.204      33.079
2015    4       19     2  16    3.6651   428.4    6.210      33.088
2015    4       19     2  22    3.6674   428.4    6.216      33.097
2015    4       19     2  28    3.6697   428.3    6.222      33.106
2015    4       19     2  34    3.6719   428.2    6.228      33.115
2015    4       19     2  40    3.6742   428.2    6.233      33.125
2015    4       19     2  46    3.6764   428.1    6.239      33.134
2015    4       19     2  52    3.6787   428.0    6.245      33.143
2015    4       19     2  58    3.6809   428.0    6.251      33.153
2015    4       19     3   4    3.6832   427.9    6.256      33.162
2015    4       19     3  10    3.6854   427.9    6.262      33.172
2015    4       19     3  16    3.6876   427.8    6.267      33.181
2015    4       19     3  22    3.6898   427.7    6.272      33.190
2015    4       19     3  28    3.6920   427.7    6.278      33.199
2015    4       19     3  34    3.6943   427.6    6.283      33.208
2015    4       19     3  40    3.6965   427.6    6.288      33.217
2015    4       19     3  46    3.6987   427.5    6.293      33.226
2015    4       19     3  52    3.7009   427.4    6.298      33.235
2015    4       19     3  58    3.7031   427.4    6.303      33.244
2015    4       19     4   4    3.7053   427.3    6.308      33.252
2015    4       19     4   9    3.7075   427.3    6.313      33.261
2015    4       19     4  15    3.7097   427.2    6.318      33.269
2015    4       19     4  21    3.7119   427.1    6.322      33.277
2015    4       19     4  27    3.7141   427.1    6.327      33.285
2015    4       19     4  33    3.7163   427.0    6.332      33.293
2015    4       19     4  39    3.7185   427.0    6.336      33.301
2015    4       19     4  45    3.7207   426.9    6.341      33.308
2015    4       19     4  51    3.7229   426.9    6.345      33.316
2015    4       19     4  57    3.7251   426.8    6.350      33.323
2015    4       19     5   3    3.7273   426.7    6.354      33.330
2015    4       19     5   9    3.7295   426.7    6.359      33.337
2015    4       19     5  15    3.7317   426.6    6.363      33.344
2015    4       19     5  21    3.7339   426.6    6.367      33.351
2015    4       19     5  27    3.7361   426.5    6.371      33.358
2015    4       19     5  33    3.7383   426.5    6.376      33.365
2015    4       19     5  39    3.7405   426.4    6.380      33.371
2015    4       19     5  45    3.7428   426.4    6.384      33.377
2015    4       19     5  51    3.7450   426.3    6.388      33.384
2015    4       19     5  57    3.7472   426.2    6.392      33.390
2015    4       19     6   2    3.7495   426.2    6.396      33.396
2015    4       19     6   8    3.7517   426.1    6.400      33.402
2015    4       19     6  14    3.7540   426.1    6.404      33.408
2015    4       19     6  20    3.7562   426.0    6.408      33.414
2015    4       19     6  26    3.7584   426.0    6.413      33.420
2015    4       19     6  32    3.7607   425.9    6.417      33.426
2015    4       19     6  38    3.7630   425.9    6.421      33.432
2015    4       19     6  44    3.7652   425.8    6.425      33.438
2015    4       19     6  50    3.7675   425.8    6.429      33.444
2015    4       19     6  56    3.7698   425.7    6.433      33.450
2015    4       19     7   2    3.7721   425.7    6.437      33.457
2015    4       19     7   8    3.7744   425.6    6.441      33.463
2015    4       19     7  14    3.7767   425.6    6.445      33.469
2015    4       19     7  20    3.7790   425.5    6.449      33.476
2015    4       19     7  26    3.7813   425.5    6.454      33.483
2015    4       19     7  32    3.7837   425.4    6.458      33.489
2015    4       19     7  38    3.7860   425.4    6.462      33.496
2015    4       19     7  44    3.7883   425.3    6.467      33.503
2015    4       19     7  50    3.7906   425.3    6.471      33.510
2015    4       19     7  55    3.7930   425.2    6.475      33.518
2015    4       19     8   1    3.7953   425.2    6.480      33.525
2015    4       19     8   7    3.7976   425.1    6.484      33.533
2015    4       19     8  13    3.8000   425.1    6.489      33.541
2015    4       19     8  19    3.8023   425.0    6.493      33.549
2015    4       19     8  25    3.8046   425.0    6.498      33.557
2015    4       19     8  31    3.8070   425.0    6.502      33.566
2015    4       19     8  37    3.8093   424.9    6.507      33.574
2015    4       19     8  43    3.8116   424.9    6.511      33.583
2015    4       19     8  49    3.8139   424.8    6.516      33.592
2015    4       19     8  55    3.8162   424.8    6.521      33.601
2015    4       19     9   1    3.8185   424.7    6.525      33.611
2015    4       19     9   7    3.8207   424.7    6.530      33.620
2015    4       19     9  13    3.8230   424.7    6.534      33.630
2015    4       19     9  19    3.8252   424.6    6.539      33.639
2015    4       19     9  25    3.8275   424.6    6.544      33.649
2015    4       19     9  31    3.8297   424.6    6.548      33.659
2015    4       19     9  37    3.8319   424.5    6.553      33.670
2015    4       19     9  42    3.8341   424.5    6.557      33.680
2015    4       19     9  48    3.8363   424.4    6.561      33.690
2015    4       19     9  54    3.8384   424.4    6.566      33.701
2015    4       19    10   0    3.8406   424.4    6.570      33.712
2015    4       19    10   6    3.8427   424.3    6.574      33.722
2015    4       19    10  12    3.8449   424.3    6.578      33.733
2015    4       19    10  18    3.8470   424.3    6.583      33.743
2015    4       19    10  24    3.8491   424.2    6.587      33.754
2015    4       19    10  30    3.8512   424.2    6.591      33.764
2015    4       19    10  36    3.8533   424.2    6.595      33.775
2015    4       19    10  42    3.8554   424.1    6.598      33.785
2015    4       19    10  48    3.8574   424.1    6.602      33.795
2015    4       19    10  54    3.8595   424.1    6.606      33.804
2015    4       19    11   0    3.8616   424.0    6.610      33.814
2015    4       19    11   6    3.8636   424.0    6.613      33.824
2015    4       19    11  12    3.8657   424.0    6.617      33.833
2015    4       19    11  18    3.8677   423.9    6.621      33.842
2015    4       19    11  24    3.8697   423.9    6.624      33.850
2015    4       19    11  30    3.8718   423.9    6.628      33.859
2015    4       19    11  35    3.8738   423.8    6.631      33.867
2015    4       19    11  41    3.8758   423.8    6.634      33.876
2015    4       19    11  47    3.8778   423.8    6.638      33.883
2015    4       19    11  53    3.8798   423.7    6.641      33.891
2015    4       19    11  59    3.8819   423.7    6.644      33.899
2015    4       19    12   5    3.8839   423.7    6.647      33.906
2015    4       19    12  11    3.8859   423.6    6.651      33.914
2015    4       19    12  17    3.8879   423.6    6.654      33.921
2015    4       19    12  23    3.8899   423.6    6.657      33.928
2015    4       19    12  29    3.8918   423.5    6.660      33.935
2015    4       19    12  35    3.8938   423.5    6.663      33.942
2015    4       19    12  41    3.8958   423.5    6.666      33.948
2015    4       19    12  47    3.8978   423.4    6.669      33.955
2015    4       19    12  53    3.8998   423.4    6.672      33.962
2015    4       19    12  59    3.9017   423.4    6.675      33.968
2015    4       19    13   5    3.9037   423.3    6.678      33.975
2015    4       19    13  11    3.9057   423.3    6.681      33.981
2015    4       19    13  17    3.9077   423.3    6.684      33.988
2015    4       19    13  23    3.9096   423.2    6.687      33.995
2015    4       19    13  28    3.9116   423.2    6.690      34.001
2015    4       19    13  34    3.9136   423.2    6.692      34.008
2015    4       19    13  40    3.9155   423.1    6.695      34.014
2015    4       19    13  46    3.9175   423.1    6.698      34.021
2015    4       19    13  52    3.9195   423.1    6.701      34.028
2015    4       19    13  58    3.9215   423.1    6.704      34.035
2015    4       19    14   4    3.9234   423.0    6.707      34.042
2015    4       19    14  10    3.9254   423.0    6.710      34.049
2015    4       19    14  16    3.9274   423.0    6.713      34.056
2015    4       19    14  22    3.9293   422.9    6.716      34.064
2015    4       19    14  28    3.9313   422.9    6.719      34.071
2015    4       19    14  34    3.9333   422.9    6.722      34.079
2015    4       19    14  40    3.9353   422.8    6.725      34.087
2015    4       19    14  46    3.9373   422.8    6.728      34.094
2015    4       19    14  52    3.9393   422.8    6.731      34.102
2015    4       19    14  58    3.9413   422.7    6.734      34.111
2015    4       19    15   4    3.9433   422.7    6.737      34.119
2015    4       19    15  10    3.9453   422.7    6.740      34.128
2015    4       19    15  15    3.9473   422.6    6.743      34.136
2015    4       19    15  21    3.9494   422.6    6.747      34.145
2015    4       19    15  27    3.9514   422.6    6.750      34.154
2015    4       19    15  33    3.9534   422.6    6.753      34.164
2015    4       19    15  39    3.9555   422.5    6.756      34.173
2015    4       19    15  45    3.9575   422.5    6.760      34.182
2015    4       19    15  51    3.9596   422.5    6.763      34.192
2015    4       19    15  57    3.9617   422.4    6.766      34.202
2015    4       19    16   3    3.9638   422.4    6.769      34.212
2015    4       19    16   9    3.9658   422.4    6.773      34.222
2015    4       19    16  15    3.9679   422.3    6.776      34.232
2015    4       19    16  21    3.9700   422.3    6.779      34.242
2015    4       19    16  27    3.9721   422.3    6.783      34.252
2015    4       19    16  33    3.9743   422.3    6.786      34.263
2015    4       19    16  39    3.9764   422.2    6.790      34.273
2015    4       19    16  45    3.9785   422.2    6.793      34.283
2015    4       19    16  51    3.9806   422.2    6.796      34.294
2015    4       19    16  57    3.9827   422.2    6.800      34.304
2015    4       19    17   3    3.9849   422.1    6.803      34.314
2015    4       19    17   8    3.9870   422.1    6.807      34.325
2015    4       19    17  14    3.9891   422.1    6.810      34.335
2015    4       19    17  20    3.9912   422.0    6.813      34.345
2015    4       19    17  26    3.9933   422.0    6.817      34.355
2015    4       19    17  32    3.9954   422.0    6.820      34.365
2015    4       19    17  38    3.9974   422.0    6.823      34.375
2015    4       19    17  44    3.9995   421.9    6.826      34.385
2015    4       19    17  50    4.0016   421.9    6.830      34.394
2015    4       19    17  56    4.0036   421.9    6.833      34.404
2015    4       19    18   2    4.0056   421.9    6.836      34.413
2015    4       19    18   8    4.0077   421.9    6.839      34.423
2015    4       19    18  14    4.0097   421.8    6.842      34.432
2015    4       19    18  20    4.0117   421.8    6.845      34.441
2015    4       19    18  26    4.0137   421.8    6.848      34.450
2015    4       19    18  32    4.0157   421.8    6.851      34.459
2015    4       19    18  38    4.0176   421.8    6.854      34.468
2015    4       19    18  44    4.0196   421.7    6.857      34.476
2015    4       19    18  50    4.0216   421.7    6.860      34.484
2015    4       19    18  56    4.0236   421.7    6.863      34.492
2015    4       19    19   1    4.0255   421.7    6.866      34.501
2015    4       19    19   7    4.0275   421.7    6.869      34.508
2015    4       19    19  13    4.0294   421.6    6.872      34.516
2015    4       19    19  19    4.0313   421.6    6.875      34.524
2015    4       19    19  25    4.0333   421.6    6.877      34.531
2015    4       19    19  31    4.0352   421.6    6.880      34.539
2015    4       19    19  37    4.0371   421.6    6.883      34.546
2015    4       19    19  43    4.0390   421.5    6.886      34.554
2015    4       19    19  49    4.0410   421.5    6.889      34.561
2015    4       19    19  55    4.0429   421.5    6.892      34.569
2015    4       19    20   1    4.0448   421.5    6.894      34.576
2015    4       19    20   7    4.0467   421.5    6.897      34.584
2015    4       19    20  13    4.0486   421.5    6.900      34.591
2015    4       19    20  19    4.0505   421.4    6.903      34.599
2015    4       19    20  25    4.0524   421.4    6.906      34.607
2015    4       19    20  31    4.0543   421.4    6.909      34.615
2015    4       19    20  37    4.0562   421.4    6.912      34.623
2015    4       19    20  43    4.0581   421.4    6.914      34.632
2015    4       19    20  49    4.0600   421.4    6.917      34.640
2015    4       19    20  54    4.0619   421.4    6.920      34.649
2015    4       19    21   0    4.0638   421.3    6.923      34.658
2015    4       19    21   6    4.0657   421.3    6.926      34.667
2015    4       19    21  12    4.0675   421.3    6.929      34.676
2015    4       19    21  18    4.0694   421.3    6.932      34.686
2015    4       19    21  24    4.0713   421.3    6.934      34.696
2015    4       19    21  30    4.0732   421.3    6.937      34.706
2015    4       19    21  36    4.0750   421.3    6.940      34.717
2015    4       19    21  42    4.0769   421.3    6.943      34.727
2015    4       19    21  48    4.0787   421.2    6.945      34.738
2015    4       19    21  54    4.0806   421.2    6.948      34.749
2015    4       19    22   0    4.0824   421.2    6.951      34.760
2015    4       19    22   6    4.0843   421.2    6.953      34.771
2015    4       19    22  12    4.0862   421.2    6.956      34.782
2015    4       19    22  18    4.0880   421.2    6.958      34.793
2015    4       19    22  24    4.0899   421.2    6.961      34.804
2015    4       19    22  30    4.0917   421.2    6.964      34.816
2015    4       19    22  36    4.0936   421.2    6.966      34.827
2015    4       19    22  42    4.0955   421.1    6.969      34.838
2015    4       19    22  47    4.0973   421.1    6.971      34.850
2015    4       19    22  53    4.0992   421.1    6.974      34.861
2015    4       19    22  59    4.1011   421.1    6.977      34.873
2015    4       19    23   5    4.1029   421.1    6.979      34.884
2015    4       19    23  11    4.1048   421.1    6.982      34.895
2015    4       19    23  17    4.1067   421.1    6.984      34.907
2015    4       19    23  23    4.1086   421.1    6.987      34.918
2015    4       19    23  29    4.1105   421.0    6.989      34.930
2015    4       19    23  35    4.1124   421.0    6.991      34.941
2015    4       19    23  41    4.1143   421.0    6.994      34.952
2015    4       19    23  47    4.1162   421.0    6.996      34.964
2015    4       19    23  53    4.1181   421.0    6.999      34.975
2015    4       19    23  59    4.1200   421.0    7.001      34.986
2015    4       20     0   5    4.1219   421.0    7.003      34.997
2015    4       20     0  11    4.1238   421.0    7.006      35.008
2015    4       20     0  17    4.1257   421.0    7.008      35.019
2015    4       20     0  23    4.1277   420.9    7.010      35.030
2015    4       20     0  29    4.1296   420.9    7.013      35.041
2015    4       20     0  35    4.1315   420.9    7.015      35.051
2015    4       20     0  40    4.1334   420.9    7.017      35.062
2015    4       20     0  46    4.1353   420.9    7.019      35.072
2015    4       20     0  52    4.1372   420.9    7.021      35.082
2015    4       20     0  58    4.1391   420.9    7.024      35.092
2015    4       20     1   4    4.1410   420.9    7.026      35.101
2015    4       20     1  10    4.1429   420.9    7.028      35.111
2015    4       20     1  16    4.1448   420.9    7.030      35.120
2015    4       20     1  22    4.1467   420.9    7.032      35.129
2015    4       20     1  28    4.1486   420.9    7.034      35.138
2015    4       20     1  34    4.1505   420.8    7.037      35.147
2015    4       20     1  40    4.1523   420.8    7.039      35.155
2015    4       20     1  46    4.1542   420.8    7.041      35.163
2015    4       20     1  52    4.1560   420.8    7.043      35.172
2015    4       20     1  58    4.1579   420.8    7.045      35.179
2015    4       20     2   4    4.1597   420.8    7.047      35.187
2015    4       20     2  10    4.1616   420.8    7.049      35.195
2015    4       20     2  16    4.1634   420.8    7.052      35.202
2015    4       20     2  22    4.1653   420.8    7.054      35.210
2015    4       20     2  28    4.1671   420.8    7.056      35.217
2015    4       20     2  33    4.1689   420.8    7.058      35.224
2015    4       20     2  39    4.1708   420.8    7.060      35.232
2015    4       20     2  45    4.1726   420.8    7.063      35.239
2015    4       20     2  51    4.1744   420.7    7.065      35.246
2015    4       20     2  57    4.1763   420.7    7.067      35.253
2015    4       20     3   3    4.1781   420.7    7.070      35.260
2015    4       20     3   9    4.1799   420.7    7.072      35.268
2015    4       20     3  15    4.1818   420.7    7.074      35.275
2015    4       20     3  21    4.1836   420.7    7.077      35.282
2015    4       20     3  27    4.1855   420.7    7.079      35.290
2015    4       20     3  33    4.1873   420.7    7.082      35.298
2015    4       20     3  39    4.1891   420.7    7.084      35.306
2015    4       20     3  45    4.1910   420.7    7.086      35.314
2015    4       20     3  51    4.1928   420.7    7.089      35.323
2015    4       20     3  57    4.1947   420.7    7.091      35.331
2015    4       20     4   3    4.1965   420.7    7.094      35.340
2015    4       20     4   9    4.1983   420.7    7.096      35.349
2015    4       20     4  15    4.2002   420.7    7.099      35.359
2015    4       20     4  20    4.2020   420.7    7.101      35.369
2015    4       20     4  26    4.2038   420.7    7.103      35.379
2015    4       20     4  32    4.2057   420.7    7.106      35.389
2015    4       20     4  38    4.2075   420.7    7.108      35.400
2015    4       20     4  44    4.2093   420.7    7.110      35.411
2015    4       20     4  50    4.2111   420.7    7.112      35.422
2015    4       20     4  56    4.2129   420.7    7.114      35.433
2015    4       20     5   2    4.2147   420.7    7.116      35.445
2015    4       20     5   8    4.2165   420.7    7.118      35.456
2015    4       20     5  14    4.2183   420.7    7.120      35.468
2015    4       20     5  20    4.2201   420.7    7.122      35.480
2015    4       20     5  26    4.2218   420.7    7.124      35.492
2015    4       20     5  32    4.2236   420.7    7.126      35.503
2015    4       20     5  38    4.2254   420.7    7.128      35.515
2015    4       20     5  44    4.2272   420.7    7.129      35.526
2015    4       20     5  50    4.2289   420.7    7.131      35.538
2015    4       20     5  56    4.2307   420.7    7.133      35.549
2015    4       20     6   2    4.2325   420.7    7.135      35.561
2015    4       20     6   8    4.2342   420.7    7.136      35.572
2015    4       20     6  13    4.2360   420.7    7.138      35.584
2015    4       20     6  19    4.2377   420.7    7.139      35.595
2015    4       20     6  25    4.2395   420.8    7.141      35.606
2015    4       20     6  31    4.2412   420.8    7.142      35.617
2015    4       20     6  37    4.2430   420.8    7.144      35.628
2015    4       20     6  43    4.2448   420.8    7.145      35.639
2015    4       20     6  49    4.2465   420.8    7.147      35.650
2015    4       20     6  55    4.2483   420.8    7.148      35.661
2015    4       20     7   1    4.2501   420.8    7.149      35.672
2015    4       20     7   7    4.2518   420.8    7.151      35.683
2015    4       20     7  13    4.2536   420.8    7.152      35.694
2015    4       20     7  19    4.2554   420.8    7.154      35.705
2015    4       20     7  25    4.2571   420.8    7.155      35.716
2015    4       20     7  31    4.2589   420.8    7.157      35.727
2015    4       20     7  37    4.2607   420.8    7.158      35.738
2015    4       20     7  43    4.2625   420.8    7.159      35.748
2015    4       20     7  49    4.2643   420.8    7.161      35.759
2015    4       20     7  55    4.2660   420.8    7.162      35.770
2015    4       20     8   1    4.2678   420.8    7.164      35.781
2015    4       20     8   6    4.2696   420.8    7.165      35.792
2015    4       20     8  12    4.2714   420.8    7.167      35.803
2015    4       20     8  18    4.2732   420.9    7.168      35.813
2015    4       20     8  24    4.2750   420.9    7.170      35.824
2015    4       20     8  30    4.2768   420.9    7.171      35.835
2015    4       20     8  36    4.2786   420.9    7.173      35.845
2015    4       20     8  42    4.2804   420.9    7.175      35.856
2015    4       20     8  48    4.2822   420.9    7.176      35.866
2015    4       20     8  54    4.2840   420.9    7.178      35.877
2015    4       20     9   0    4.2857   420.9    7.180      35.887
2015    4       20     9   6    4.2875   420.9    7.181      35.897
2015    4       20     9  12    4.2893   420.9    7.183      35.907
2015    4       20     9  18    4.2911   420.9    7.185      35.917
2015    4       20     9  24    4.2928   420.9    7.186      35.927
2015    4       20     9  30    4.2946   420.9    7.188      35.937
2015    4       20     9  36    4.2964   420.9    7.190      35.947
2015    4       20     9  42    4.2981   421.0    7.192      35.957
2015    4       20     9  48    4.2999   421.0    7.194      35.966
2015    4       20     9  54    4.3017   421.0    7.195      35.976
2015    4       20     9  59    4.3035   421.0    7.197      35.985
2015    4       20    10   5    4.3052   421.0    7.199      35.995
2015    4       20    10  11    4.3070   421.0    7.201      36.004
2015    4       20    10  17    4.3088   421.0    7.203      36.014
2015    4       20    10  23    4.3106   421.0    7.205      36.023
2015    4       20    10  29    4.3123   421.0    7.207      36.033
2015    4       20    10  35    4.3141   421.0    7.209      36.042
2015    4       20    10  41    4.3159   421.0    7.211      36.052
2015    4       20    10  47    4.3177   421.0    7.213      36.061
2015    4       20    10  53    4.3194   421.1    7.215      36.071
2015    4       20    10  59    4.3212   421.1    7.217      36.081
2015    4       20    11   5    4.3230   421.1    7.219      36.091
2015    4       20    11  11    4.3248   421.1    7.221      36.102
2015    4       20    11  17    4.3266   421.1    7.223      36.112
2015    4       20    11  23    4.3284   421.1    7.224      36.123
2015    4       20    11  29    4.3301   421.1    7.226      36.134
2015    4       20    11  35    4.3319   421.1    7.228      36.145
2015    4       20    11  41    4.3337   421.1    7.230      36.156
2015    4       20    11  47    4.3355   421.2    7.231      36.168
2015    4       20    11  52    4.3373   421.2    7.233      36.179
2015    4       20    11  58    4.3391   421.2    7.235      36.191
2015    4       20    12   4    4.3408   421.2    7.236      36.203
2015    4       20    12  10    4.3426   421.2    7.238      36.214
2015    4       20    12  16    4.3444   421.2    7.239      36.226
2015    4       20    12  22    4.3461   421.2    7.240      36.238
2015    4       20    12  28    4.3479   421.3    7.242      36.250
2015    4       20    12  34    4.3497   421.3    7.243      36.262
2015    4       20    12  40    4.3514   421.3    7.244      36.274
2015    4       20    12  46    4.3532   421.3    7.245      36.286
2015    4       20    12  52    4.3549   421.3    7.246      36.298
2015    4       20    12  58    4.3567   421.3    7.247      36.310
2015    4       20    13   4    4.3585   421.3    7.248      36.322
2015    4       20    13  10    4.3602   421.4    7.249      36.334
2015    4       20    13  16    4.3620   421.4    7.250      36.345
2015    4       20    13  22    4.3637   421.4    7.251      36.357
2015    4       20    13  28    4.3655   421.4    7.252      36.368
2015    4       20    13  34    4.3673   421.4    7.253      36.380
2015    4       20    13  40    4.3690   421.4    7.254      36.391
2015    4       20    13  45    4.3708   421.4    7.255      36.402
2015    4       20    13  51    4.3726   421.5    7.256      36.413
2015    4       20    13  57    4.3744   421.5    7.257      36.425
2015    4       20    14   3    4.3762   421.5    7.258      36.436
2015    4       20    14   9    4.3780   421.5    7.259      36.447
2015    4       20    14  15    4.3799   421.5    7.261      36.459
2015    4       20    14  21    4.3817   421.5    7.262      36.470
2015    4       20    14  27    4.3835   421.5    7.263      36.482
2015    4       20    14  33    4.3854   421.6    7.264      36.493
2015    4       20    14  39    4.3873   421.6    7.266      36.505
2015    4       20    14  45    4.3892   421.6    7.267      36.518
2015    4       20    14  51    4.3911   421.6    7.269      36.530
2015    4       20    14  57    4.3930   421.6    7.271      36.543
2015    4       20    15   3    4.3950   421.6    7.272      36.556
2015    4       20    15   9    4.3969   421.6    7.274      36.570
2015    4       20    15  15    4.3989   421.7    7.276      36.583
2015    4       20    15  21    4.4009   421.7    7.278      36.597
2015    4       20    15  27    4.4028   421.7    7.280      36.612
2015    4       20    15  32    4.4048   421.7    7.282      36.627
2015    4       20    15  38    4.4067   421.7    7.284      36.642
2015    4       20    15  44    4.4087   421.8    7.286      36.657
2015    4       20    15  50    4.4106   421.8    7.289      36.673
2015    4       20    15  56    4.4126   421.8    7.291      36.689
2015    4       20    16   2    4.4145   421.8    7.293      36.705
2015    4       20    16   8    4.4164   421.9    7.295      36.721
2015    4       20    16  14    4.4183   421.9    7.296      36.737
2015    4       20    16  20    4.4201   421.9    7.298      36.752
2015    4       20    16  26    4.4220   421.9    7.300      36.767
2015    4       20    16  32    4.4239   422.0    7.302      36.781
2015    4       20    16  38    4.4257   422.0    7.304      36.796
2015    4       20    16  44    4.4275   422.0    7.305      36.810
2015    4       20    16  50    4.4293   422.0    7.307      36.824
2015    4       20    16  56    4.4311   422.1    7.309      36.837
2015    4       20    17   2    4.4329   422.1    7.311      36.851
2015    4       20    17   8    4.4347   422.1    7.312      36.864
2015    4       20    17  14    4.4365   422.2    7.314      36.877
2015    4       20    17  20    4.4382   422.2    7.316      36.890
2015    4       20    17  25    4.4400   422.2    7.317      36.903
2015    4       20    17  31    4.4418   422.2    7.319      36.916
2015    4       20    17  37    4.4436   422.3    7.321      36.928
2015    4       20    17  43    4.4453   422.3    7.322      36.941
2015    4       20    17  49    4.4471   422.3    7.324      36.953
2015    4       20    17  55    4.4488   422.3    7.326      36.966
2015    4       20    18   1    4.4506   422.4    7.327      36.979
2015    4       20    18   7    4.4523   422.4    7.329      36.991
2015    4       20    18  13    4.4540   422.4    7.330      37.004
2015    4       20    18  19    4.4558   422.5    7.332      37.017
2015    4       20    18  25    4.4575   422.5    7.333      37.030
2015    4       20    18  31    4.4592   422.5    7.334      37.043
2015    4       20    18  37    4.4609   422.6    7.335      37.055
2015    4       20    18  43    4.4626   422.6    7.336      37.068
2015    4       20    18  49    4.4642   422.6    7.337      37.080
2015    4       20    18  55    4.4659   422.6    7.338      37.092
2015    4       20    19   1    4.4676   422.7    7.339      37.104
2015    4       20    19   7    4.4692   422.7    7.340      37.115
2015    4       20    19  13    4.4709   422.7    7.341      37.126
2015    4       20    19  18    4.4725   422.8    7.341      37.137
2015    4       20    19  24    4.4742   422.8    7.342      37.148
2015    4       20    19  30    4.4758   422.8    7.343      37.158
2015    4       20    19  36    4.4774   422.8    7.343      37.168
2015    4       20    19  42    4.4790   422.9    7.344      37.178
2015    4       20    19  48    4.4807   422.9    7.344      37.188
2015    4       20    19  54    4.4823   422.9    7.345      37.198
2015    4       20    20   0    4.4839   422.9    7.345      37.207
2015    4       20    20   6    4.4856   423.0    7.345      37.217
2015    4       20    20  12    4.4872   423.0    7.346      37.226
2015    4       20    20  18    4.4889   423.0    7.346      37.235
2015    4       20    20  24    4.4905   423.1    7.347      37.244
2015    4       20    20  30    4.4921   423.1    7.347      37.253
2015    4       20    20  36    4.4938   423.1    7.348      37.263
2015    4       20    20  42    4.4955   423.1    7.348      37.272
2015    4       20    20  48    4.4972   423.2    7.349      37.281
2015    4       20    20  54    4.4989   423.2    7.349      37.290
2015    4       20    21   0    4.5005   423.2    7.350      37.299
2015    4       20    21   6    4.5023   423.2    7.351      37.309
2015    4       20    21  11    4.5040   423.3    7.352      37.318
2015    4       20    21  17    4.5057   423.3    7.353      37.328
2015    4       20    21  23    4.5075   423.3    7.354      37.338
2015    4       20    21  29    4.5093   423.3    7.355      37.348
2015    4       20    21  35    4.5111   423.3    7.356      37.359
2015    4       20    21  41    4.5129   423.4    7.357      37.370
2015    4       20    21  47    4.5148   423.4    7.359      37.381
2015    4       20    21  53    4.5167   423.4    7.361      37.392
2015    4       20    21  59    4.5185   423.4    7.362      37.404
2015    4       20    22   5    4.5204   423.5    7.364      37.417
2015    4       20    22  11    4.5224   423.5    7.366      37.430
2015    4       20    22  17    4.5243   423.5    7.368      37.444
2015    4       20    22  23    4.5263   423.5    7.371      37.458
2015    4       20    22  29    4.5282   423.6    7.373      37.472
2015    4       20    22  35    4.5302   423.6    7.375      37.487
2015    4       20    22  41    4.5322   423.6    7.378      37.503
2015    4       20    22  47    4.5342   423.7    7.380      37.520
2015    4       20    22  53    4.5362   423.7    7.382      37.537
2015    4       20    22  59    4.5382   423.7    7.385      37.554
2015    4       20    23   4    4.5402   423.8    7.387      37.572
2015    4       20    23  10    4.5422   423.8    7.389      37.590
2015    4       20    23  16    4.5442   423.8    7.391      37.608
2015    4       20    23  22    4.5462   423.9    7.393      37.626
2015    4       20    23  28    4.5481   423.9    7.395      37.643
2015    4       20    23  34    4.5501   423.9    7.397      37.660
2015    4       20    23  40    4.5520   424.0    7.399      37.677
2015    4       20    23  46    4.5540   424.0    7.401      37.693
2015    4       20    23  52    4.5559   424.0    7.403      37.709
2015    4       20    23  58    4.5578   424.1    7.404      37.725
2015    4       21     0   4    4.5595   424.1    7.406      37.739
2015    4       21     0  10    4.5611   424.1    7.407      37.753
2015    4       21     0  16    4.5626   424.2    7.408      37.766
2015    4       21     0  22    4.5642   424.2    7.409      37.779
2015    4       21     0  28    4.5658   424.2    7.410      37.792
2015    4       21     0  34    4.5674   424.3    7.411      37.805
2015    4       21     0  40    4.5690   424.3    7.412      37.818
2015    4       21     0  46    4.5706   424.4    7.413      37.831
2015    4       21     0  52    4.5722   424.4    7.414      37.844
2015    4       21     0  57    4.5738   424.4    7.415      37.857
2015    4       21     1   3    4.5754   424.5    7.417      37.869
2015    4       21     1   9    4.5770   424.5    7.418      37.882
2015    4       21     1  15    4.5786   424.5    7.419      37.895
2015    4       21     1  21    4.5802   424.6    7.420      37.908
2015    4       21     1  27    4.5819   424.6    7.422      37.922
2015    4       21     1  33    4.5835   424.6    7.423      37.935
2015    4       21     1  39    4.5851   424.7    7.424      37.949
2015    4       21     1  45    4.5867   424.7    7.425      37.962
2015    4       21     1  51    4.5883   424.8    7.426      37.976
2015    4       21     1  57    4.5899   424.8    7.427      37.990
2015    4       21     2   3    4.5915   424.9    7.428      38.004
2015    4       21     2   9    4.5931   424.9    7.429      38.018
2015    4       21     2  15    4.5946   425.0    7.430      38.032
2015    4       21     2  21    4.5962   425.0    7.431      38.045
2015    4       21     2  27    4.5977   425.1    7.431      38.059
2015    4       21     2  33    4.5992   425.1    7.432      38.072
2015    4       21     2  39    4.6006   425.1    7.432      38.085
2015    4       21     2  45    4.6021   425.2    7.433      38.098
2015    4       21     2  50    4.6036   425.2    7.433      38.110
2015    4       21     2  56    4.6050   425.3    7.433      38.122
2015    4       21     3   2    4.6064   425.3    7.433      38.134
2015    4       21     3   8    4.6078   425.4    7.433      38.145
2015    4       21     3  14    4.6092   425.4    7.433      38.157
2015    4       21     3  20    4.6105   425.5    7.433      38.168
2015    4       21     3  26    4.6119   425.5    7.432      38.178
2015    4       21     3  32    4.6132   425.6    7.432      38.189
2015    4       21     3  38    4.6146   425.6    7.432      38.199
2015    4       21     3  44    4.6159   425.7    7.432      38.209
2015    4       21     3  50    4.6173   425.7    7.431      38.218
2015    4       21     3  56    4.6186   425.8    7.431      38.227
2015    4       21     4   2    4.6199   425.8    7.430      38.236
2015    4       21     4   8    4.6212   425.8    7.430      38.245
2015    4       21     4  14    4.6225   425.9    7.429      38.253
2015    4       21     4  20    4.6238   425.9    7.429      38.262
2015    4       21     4  26    4.6250   426.0    7.428      38.270
2015    4       21     4  32    4.6263   426.0    7.428      38.277
2015    4       21     4  38    4.6276   426.1    7.427      38.285
2015    4       21     4  43    4.6288   426.1    7.427      38.292
2015    4       21     4  49    4.6301   426.2    7.426      38.300
2015    4       21     4  55    4.6314   426.2    7.426      38.307
2015    4       21     5   1    4.6326   426.2    7.425      38.314
2015    4       21     5   7    4.6339   426.3    7.425      38.321
2015    4       21     5  13    4.6352   426.3    7.425      38.328
2015    4       21     5  19    4.6365   426.4    7.424      38.335
2015    4       21     5  25    4.6377   426.4    7.424      38.342
2015    4       21     5  31    4.6390   426.4    7.424      38.349
2015    4       21     5  37    4.6403   426.5    7.424      38.357
2015    4       21     5  43    4.6416   426.5    7.424      38.364
2015    4       21     5  49    4.6429   426.6    7.425      38.372
2015    4       21     5  55    4.6442   426.6    7.425      38.380
2015    4       21     6   1    4.6456   426.6    7.426      38.388
2015    4       21     6   7    4.6469   426.7    7.426      38.397
2015    4       21     6  13    4.6483   426.7    7.427      38.405
2015    4       21     6  19    4.6497   426.8    7.428      38.415
2015    4       21     6  25    4.6511   426.8    7.429      38.425
2015    4       21     6  31    4.6525   426.8    7.431      38.435
2015    4       21     6  36    4.6539   426.9    7.432      38.445
2015    4       21     6  42    4.6554   426.9    7.434      38.456
2015    4       21     6  48    4.6569   427.0    7.436      38.468
2015    4       21     6  54    4.6583   427.0    7.438      38.482
2015    4       21     7   0    4.6598   427.1    7.439      38.497
2015    4       21     7   6    4.6613   427.1    7.441      38.512
2015    4       21     7  12    4.6628   427.1    7.443      38.529
2015    4       21     7  18    4.6644   427.2    7.445      38.546
2015    4       21     7  24    4.6659   427.2    7.447      38.565
2015    4       21     7  30    4.6674   427.3    7.449      38.583
2015    4       21     7  36    4.6689   427.3    7.450      38.602
2015    4       21     7  42    4.6703   427.4    7.452      38.619
2015    4       21     7  48    4.6718   427.4    7.453      38.637
2015    4       21     7  54    4.6733   427.5    7.454      38.654
2015    4       21     8   0    4.6747   427.5    7.455      38.671
2015    4       21     8   6    4.6761   427.6    7.456      38.688
2015    4       21     8  12    4.6776   427.6    7.457      38.705
2015    4       21     8  18    4.6790   427.7    7.458      38.721
2015    4       21     8  23    4.6804   427.8    7.459      38.738
2015    4       21     8  29    4.6818   427.8    7.460      38.754
2015    4       21     8  35    4.6832   427.9    7.460      38.770
2015    4       21     8  41    4.6845   427.9    7.461      38.785
2015    4       21     8  47    4.6859   428.0    7.461      38.800
2015    4       21     8  53    4.6873   428.0    7.461      38.815
2015    4       21     8  59    4.6886   428.1    7.461      38.830
2015    4       21     9   5    4.6900   428.1    7.462      38.844
2015    4       21     9  11    4.6913   428.2    7.462      38.858
2015    4       21     9  17    4.6927   428.2    7.462      38.872
2015    4       21     9  23    4.6940   428.3    7.462      38.885
2015    4       21     9  29    4.6953   428.3    7.461      38.899
2015    4       21     9  35    4.6966   428.4    7.461      38.912
2015    4       21     9  41    4.6979   428.4    7.461      38.924
2015    4       21     9  47    4.6993   428.5    7.461      38.937
2015    4       21     9  53    4.7006   428.5    7.461      38.949
2015    4       21     9  59    4.7019   428.6    7.460      38.961
2015    4       21    10   5    4.7032   428.7    7.460      38.974
2015    4       21    10  11    4.7045   428.7    7.460      38.986
2015    4       21    10  16    4.7058   428.8    7.459      38.998
2015    4       21    10  22    4.7071   428.8    7.459      39.010
2015    4       21    10  28    4.7084   428.9    7.458      39.022
2015    4       21    10  34    4.7096   428.9    7.457      39.033
2015    4       21    10  40    4.7109   429.0    7.457      39.044
2015    4       21    10  46    4.7122   429.0    7.456      39.055
2015    4       21    10  52    4.7134   429.1    7.455      39.066
2015    4       21    10  58    4.7146   429.2    7.454      39.077
2015    4       21    11   4    4.7158   429.2    7.454      39.087
2015    4       21    11  10    4.7170   429.3    7.453      39.097
2015    4       21    11  16    4.7182   429.3    7.452      39.106
2015    4       21    11  22    4.7193   429.4    7.451      39.115
2015    4       21    11  28    4.7205   429.4    7.450      39.124
2015    4       21    11  34    4.7216   429.5    7.448      39.133
2015    4       21    11  40    4.7227   429.5    7.447      39.141
2015    4       21    11  46    4.7238   429.6    7.446      39.149
2015    4       21    11  52    4.7249   429.6    7.445      39.157
2015    4       21    11  58    4.7260   429.7    7.444      39.164
2015    4       21    12   4    4.7271   429.7    7.442      39.171
2015    4       21    12   9    4.7281   429.8    7.441      39.178
2015    4       21    12  15    4.7292   429.8    7.440      39.184
2015    4       21    12  21    4.7302   429.9    7.439      39.191
2015    4       21    12  27    4.7313   429.9    7.438      39.197
2015    4       21    12  33    4.7323   430.0    7.437      39.203
2015    4       21    12  39    4.7333   430.0    7.435      39.209
2015    4       21    12  45    4.7344   430.1    7.434      39.215
2015    4       21    12  51    4.7354   430.1    7.433      39.220
2015    4       21    12  57    4.7364   430.2    7.433      39.226
2015    4       21    13   3    4.7374   430.2    7.432      39.232
2015    4       21    13   9    4.7385   430.3    7.431      39.237
2015    4       21    13  15    4.7395   430.3    7.431      39.243
2015    4       21    13  21    4.7406   430.4    7.430      39.249
2015    4       21    13  27    4.7416   430.4    7.430      39.255
2015    4       21    13  33    4.7427   430.4    7.429      39.261
2015    4       21    13  39    4.7438   430.5    7.429      39.268
2015    4       21    13  45    4.7449   430.5    7.430      39.274
2015    4       21    13  51    4.7460   430.6    7.430      39.281
2015    4       21    13  57    4.7471   430.6    7.430      39.289
2015    4       21    14   2    4.7482   430.7    7.431      39.297
2015    4       21    14   8    4.7494   430.7    7.431      39.306
2015    4       21    14  14    4.7506   430.7    7.432      39.316
2015    4       21    14  20    4.7517   430.8    7.433      39.325
2015    4       21    14  26    4.7529   430.8    7.434      39.336
2015    4       21    14  32    4.7541   430.9    7.435      39.347
2015    4       21    14  38    4.7553   430.9    7.436      39.358
2015    4       21    14  44    4.7565   431.0    7.437      39.370
2015    4       21    14  50    4.7578   431.0    7.439      39.383
2015    4       21    14  56    4.7590   431.1    7.440      39.395
2015    4       21    15   2    4.7602   431.1    7.441      39.409
2015    4       21    15   8    4.7615   431.2    7.443      39.423
2015    4       21    15  14    4.7627   431.2    7.444      39.438
2015    4       21    15  20    4.7640   431.3    7.445      39.453
2015    4       21    15  26    4.7652   431.4    7.447      39.468
2015    4       21    15  32    4.7664   431.4    7.448      39.483
2015    4       21    15  38    4.7676   431.5    7.449      39.497
2015    4       21    15  44    4.7688   431.5    7.450      39.512
2015    4       21    15  50    4.7701   431.6    7.451      39.527
2015    4       21    15  55    4.7713   431.6    7.452      39.541
2015    4       21    16   1    4.7725   431.7    7.453      39.556
2015    4       21    16   7    4.7737   431.8    7.454      39.571
2015    4       21    16  13    4.7749   431.8    7.455      39.586
2015    4       21    16  19    4.7761   431.9    7.456      39.601
2015    4       21    16  25    4.7773   431.9    7.457      39.617
2015    4       21    16  31    4.7785   432.0    7.457      39.632
2015    4       21    16  37    4.7797   432.1    7.458      39.647
2015    4       21    16  43    4.7809   432.1    7.459      39.662
2015    4       21    16  49    4.7820   432.2    7.459      39.676
2015    4       21    16  55    4.7832   432.2    7.460      39.691
2015    4       21    17   1    4.7843   432.3    7.460      39.705
2015    4       21    17   7    4.7855   432.4    7.461      39.719
2015    4       21    17  13    4.7866   432.4    7.461      39.732
2015    4       21    17  19    4.7878   432.5    7.461      39.746
2015    4       21    17  25    4.7889   432.5    7.462      39.759
2015    4       21    17  31    4.7901   432.6    7.462      39.773
2015    4       21    17  37    4.7912   432.7    7.463      39.786
2015    4       21    17  43    4.7924   432.7    7.463      39.800
2015    4       21    17  48    4.7935   432.8    7.464      39.813
2015    4       21    17  54    4.7946   432.8    7.464      39.827
2015    4       21    18   0    4.7957   432.9    7.464      39.840
2015    4       21    18   6    4.7969   433.0    7.465      39.854
2015    4       21    18  12    4.7980   433.0    7.465      39.868
2015    4       21    18  18    4.7990   433.1    7.465      39.881
2015    4       21    18  24    4.8001   433.1    7.466      39.895
2015    4       21    18  30    4.8012   433.2    7.466      39.908
2015    4       21    18  36    4.8022   433.3    7.466      39.921
2015    4       21    18  42    4.8032   433.3    7.466      39.935
2015    4       21    18  48    4.8042   433.4    7.467      39.949
2015    4       21    18  54    4.8053   433.5    7.467      39.964
2015    4       21    19   0    4.8062   433.5    7.467      39.978
2015    4       21    19   6    4.8072   433.6    7.467      39.992
2015    4       21    19  12    4.8082   433.7    7.467      40.006
2015    4       21    19  18    4.8091   433.7    7.467      40.020
2015    4       21    19  24    4.8100   433.8    7.467      40.034
2015    4       21    19  30    4.8109   433.8    7.466      40.048
2015    4       21    19  36    4.8118   433.9    7.466      40.062
2015    4       21    19  41    4.8126   434.0    7.466      40.076
2015    4       21    19  47    4.8134   434.0    7.465      40.090
2015    4       21    19  53    4.8142   434.1    7.464      40.104
2015    4       21    19  59    4.8149   434.2    7.464      40.117
2015    4       21    20   5    4.8157   434.2    7.463      40.130
2015    4       21    20  11    4.8164   434.3    7.462      40.142
2015    4       21    20  17    4.8171   434.4    7.460      40.153
2015    4       21    20  23    4.8177   434.4    7.459      40.164
2015    4       21    20  29    4.8183   434.5    7.458      40.175
2015    4       21    20  35    4.8190   434.6    7.456      40.185
2015    4       21    20  41    4.8196   434.6    7.454      40.194
2015    4       21    20  47    4.8202   434.7    7.453      40.203
2015    4       21    20  53    4.8207   434.7    7.451      40.211
2015    4       21    20  59    4.8213   434.8    7.449      40.219
2015    4       21    21   5    4.8219   434.9    7.447      40.226
2015    4       21    21  11    4.8224   434.9    7.446      40.233
2015    4       21    21  17    4.8230   435.0    7.444      40.240
2015    4       21    21  23    4.8236   435.0    7.442      40.246
2015    4       21    21  29    4.8241   435.1    7.440      40.253
2015    4       21    21  34    4.8247   435.1    7.438      40.258
2015    4       21    21  40    4.8252   435.2    7.436      40.264
2015    4       21    21  46    4.8258   435.3    7.435      40.270
2015    4       21    21  52    4.8264   435.3    7.433      40.275
2015    4       21    21  58    4.8270   435.4    7.431      40.281
2015    4       21    22   4    4.8276   435.4    7.429      40.286
2015    4       21    22  10    4.8282   435.5    7.428      40.291
2015    4       21    22  16    4.8288   435.5    7.426      40.296
2015    4       21    22  22    4.8295   435.6    7.425      40.301
2015    4       21    22  28    4.8302   435.6    7.424      40.307
2015    4       21    22  34    4.8308   435.7    7.423      40.312
2015    4       21    22  40    4.8316   435.7    7.422      40.318
2015    4       21    22  46    4.8323   435.8    7.421      40.324
2015    4       21    22  52    4.8331   435.8    7.420      40.330
2015    4       21    22  58    4.8338   435.9    7.419      40.335
2015    4       21    23   4    4.8346   435.9    7.419      40.342
2015    4       21    23  10    4.8355   436.0    7.418      40.349
2015    4       21    23  16    4.8363   436.0    7.418      40.357
2015    4       21    23  22    4.8372   436.1    7.417      40.365
2015    4       21    23  27    4.8380   436.2    7.417      40.374
2015    4       21    23  33    4.8389   436.2    7.417      40.383
2015    4       21    23  39    4.8398   436.3    7.416      40.392
2015    4       21    23  45    4.8407   436.3    7.416      40.402
2015    4       21    23  51    4.8415   436.4    7.415      40.412
2015    4       21    23  57    4.8424   436.5    7.415      40.421
2015    4       22     0   3    4.8434   436.5    7.414      40.431
