year    month   day   hour  minute  B_enl V_enl   n_enl       T_enl
[year] [month] [day] [hour][minute] [nT]  [km/s]  [cm-3]      [kK]
2015    4       19     0   3    3.3929   476.1    3.997      33.892
2015    4       19     0   9    3.3957   475.9    4.006      33.883
2015    4       19     0  15    3.3985   475.6    4.016      33.874
2015    4       19     0  21    3.4014   475.4    4.025      33.865
2015    4       19     0  27    3.4042   475.1    4.035      33.857
2015    4       19     0  32    3.4071   474.8    4.044      33.849
2015    4       19     0  38    3.4100   474.6    4.054      33.841
2015    4       19     0  44    3.4129   474.3    4.064      33.834
2015    4       19     0  50    3.4159   474.1    4.074      33.827
2015    4       19     0  56    3.4189   473.8    4.083      33.821
2015    4       19     1   2    3.4218   473.6    4.093      33.814
2015    4       19     1   8    3.4248   473.3    4.103      33.808
2015    4       19     1  13    3.4278   473.1    4.113      33.803
2015    4       19     1  19    3.4309   472.9    4.123      33.797
2015    4       19     1  25    3.4339   472.6    4.133      33.792
2015    4       19     1  31    3.4370   472.4    4.143      33.788
2015    4       19     1  37    3.4400   472.1    4.153      33.784
2015    4       19     1  43    3.4432   471.9    4.164      33.780
2015    4       19     1  49    3.4463   471.7    4.174      33.776
2015    4       19     1  54    3.4494   471.4    4.184      33.773
2015    4       19     2   0    3.4526   471.2    4.195      33.770
2015    4       19     2   6    3.4557   471.0    4.205      33.768
2015    4       19     2  12    3.4589   470.8    4.216      33.766
2015    4       19     2  18    3.4622   470.5    4.226      33.764
2015    4       19     2  24    3.4654   470.3    4.237      33.763
2015    4       19     2  29    3.4686   470.1    4.248      33.762
2015    4       19     2  35    3.4719   469.9    4.259      33.761
2015    4       19     2  41    3.4752   469.7    4.270      33.761
2015    4       19     2  47    3.4785   469.5    4.281      33.762
2015    4       19     2  53    3.4819   469.2    4.292      33.762
2015    4       19     2  59    3.4852   469.0    4.304      33.764
2015    4       19     3   5    3.4886   468.8    4.315      33.765
2015    4       19     3  10    3.4920   468.6    4.326      33.767
2015    4       19     3  16    3.4954   468.4    4.338      33.770
2015    4       19     3  22    3.4988   468.2    4.350      33.772
2015    4       19     3  28    3.5023   468.0    4.361      33.775
2015    4       19     3  34    3.5057   467.8    4.373      33.779
2015    4       19     3  40    3.5091   467.6    4.385      33.782
2015    4       19     3  45    3.5126   467.5    4.397      33.786
2015    4       19     3  51    3.5160   467.3    4.408      33.790
2015    4       19     3  57    3.5195   467.1    4.420      33.794
2015    4       19     4   3    3.5230   466.9    4.432      33.799
2015    4       19     4   9    3.5264   466.7    4.444      33.803
2015    4       19     4  15    3.5299   466.5    4.456      33.808
2015    4       19     4  21    3.5333   466.4    4.468      33.813
2015    4       19     4  26    3.5368   466.2    4.480      33.818
2015    4       19     4  32    3.5402   466.0    4.492      33.823
2015    4       19     4  38    3.5437   465.8    4.504      33.828
2015    4       19     4  44    3.5471   465.7    4.516      33.833
2015    4       19     4  50    3.5506   465.5    4.528      33.838
2015    4       19     4  56    3.5541   465.3    4.540      33.843
2015    4       19     5   1    3.5575   465.2    4.552      33.849
2015    4       19     5   7    3.5610   465.0    4.564      33.854
2015    4       19     5  13    3.5644   464.8    4.576      33.859
2015    4       19     5  19    3.5679   464.7    4.588      33.865
2015    4       19     5  25    3.5714   464.5    4.600      33.871
2015    4       19     5  31    3.5749   464.3    4.612      33.877
2015    4       19     5  37    3.5784   464.2    4.624      33.884
2015    4       19     5  42    3.5819   464.0    4.636      33.890
2015    4       19     5  48    3.5855   463.9    4.647      33.898
2015    4       19     5  54    3.5890   463.7    4.659      33.905
2015    4       19     6   0    3.5926   463.6    4.671      33.914
2015    4       19     6   6    3.5962   463.4    4.683      33.923
2015    4       19     6  12    3.5997   463.3    4.695      33.932
2015    4       19     6  17    3.6033   463.1    4.706      33.943
2015    4       19     6  23    3.6069   463.0    4.718      33.955
2015    4       19     6  29    3.6106   462.8    4.729      33.967
2015    4       19     6  35    3.6142   462.7    4.740      33.980
2015    4       19     6  41    3.6178   462.6    4.752      33.995
2015    4       19     6  47    3.6214   462.4    4.763      34.009
2015    4       19     6  53    3.6251   462.3    4.774      34.024
2015    4       19     6  58    3.6287   462.2    4.785      34.040
2015    4       19     7   4    3.6323   462.0    4.795      34.055
2015    4       19     7  10    3.6359   461.9    4.806      34.071
2015    4       19     7  16    3.6396   461.8    4.817      34.086
2015    4       19     7  22    3.6432   461.7    4.827      34.102
2015    4       19     7  28    3.6468   461.5    4.838      34.117
2015    4       19     7  34    3.6505   461.4    4.848      34.132
2015    4       19     7  39    3.6541   461.3    4.858      34.148
2015    4       19     7  45    3.6577   461.2    4.868      34.163
2015    4       19     7  51    3.6613   461.1    4.879      34.178
2015    4       19     7  57    3.6650   460.9    4.889      34.194
2015    4       19     8   3    3.6686   460.8    4.899      34.209
2015    4       19     8   9    3.6722   460.7    4.908      34.225
2015    4       19     8  14    3.6759   460.6    4.918      34.241
2015    4       19     8  20    3.6795   460.5    4.928      34.257
2015    4       19     8  26    3.6831   460.4    4.938      34.273
2015    4       19     8  32    3.6867   460.3    4.947      34.289
2015    4       19     8  38    3.6903   460.2    4.957      34.305
2015    4       19     8  44    3.6939   460.1    4.966      34.321
2015    4       19     8  50    3.6975   460.0    4.976      34.336
2015    4       19     8  55    3.7011   459.9    4.985      34.352
2015    4       19     9   1    3.7047   459.7    4.994      34.367
2015    4       19     9   7    3.7083   459.6    5.004      34.383
2015    4       19     9  13    3.7119   459.5    5.013      34.398
2015    4       19     9  19    3.7154   459.4    5.022      34.413
2015    4       19     9  25    3.7190   459.3    5.031      34.427
2015    4       19     9  30    3.7226   459.3    5.040      34.442
2015    4       19     9  36    3.7261   459.2    5.049      34.457
2015    4       19     9  42    3.7296   459.1    5.058      34.471
2015    4       19     9  48    3.7332   459.0    5.067      34.485
2015    4       19     9  54    3.7367   458.9    5.076      34.499
2015    4       19    10   0    3.7402   458.8    5.085      34.513
2015    4       19    10   6    3.7437   458.7    5.094      34.527
2015    4       19    10  11    3.7472   458.6    5.103      34.540
2015    4       19    10  17    3.7507   458.5    5.111      34.553
2015    4       19    10  23    3.7541   458.4    5.120      34.567
2015    4       19    10  29    3.7576   458.3    5.129      34.580
2015    4       19    10  35    3.7610   458.2    5.137      34.592
2015    4       19    10  41    3.7644   458.2    5.146      34.605
2015    4       19    10  46    3.7678   458.1    5.155      34.617
2015    4       19    10  52    3.7712   458.0    5.163      34.629
2015    4       19    10  58    3.7746   457.9    5.172      34.641
2015    4       19    11   4    3.7779   457.8    5.180      34.653
2015    4       19    11  10    3.7813   457.7    5.189      34.664
2015    4       19    11  16    3.7846   457.7    5.197      34.676
2015    4       19    11  22    3.7879   457.6    5.206      34.687
2015    4       19    11  27    3.7912   457.5    5.214      34.698
2015    4       19    11  33    3.7944   457.4    5.222      34.709
2015    4       19    11  39    3.7977   457.3    5.231      34.719
2015    4       19    11  45    3.8009   457.3    5.239      34.730
2015    4       19    11  51    3.8042   457.2    5.247      34.740
2015    4       19    11  57    3.8074   457.1    5.256      34.750
2015    4       19    12   2    3.8106   457.0    5.264      34.760
2015    4       19    12   8    3.8138   456.9    5.272      34.770
2015    4       19    12  14    3.8170   456.9    5.280      34.780
2015    4       19    12  20    3.8202   456.8    5.289      34.789
2015    4       19    12  26    3.8234   456.7    5.297      34.799
2015    4       19    12  32    3.8266   456.6    5.305      34.809
2015    4       19    12  38    3.8298   456.5    5.314      34.819
2015    4       19    12  43    3.8329   456.5    5.322      34.830
2015    4       19    12  49    3.8361   456.4    5.331      34.840
2015    4       19    12  55    3.8393   456.3    5.339      34.851
2015    4       19    13   1    3.8425   456.2    5.348      34.862
2015    4       19    13   7    3.8457   456.2    5.356      34.874
2015    4       19    13  13    3.8489   456.1    5.365      34.886
2015    4       19    13  19    3.8521   456.0    5.373      34.900
2015    4       19    13  24    3.8554   456.0    5.382      34.913
2015    4       19    13  30    3.8586   455.9    5.390      34.928
2015    4       19    13  36    3.8619   455.8    5.399      34.944
2015    4       19    13  42    3.8651   455.8    5.408      34.961
2015    4       19    13  48    3.8684   455.7    5.416      34.979
2015    4       19    13  54    3.8716   455.6    5.424      34.998
2015    4       19    13  59    3.8749   455.6    5.433      35.017
2015    4       19    14   5    3.8782   455.5    5.441      35.037
2015    4       19    14  11    3.8814   455.4    5.450      35.058
2015    4       19    14  17    3.8847   455.4    5.458      35.079
2015    4       19    14  23    3.8880   455.3    5.467      35.100
2015    4       19    14  29    3.8912   455.3    5.475      35.122
2015    4       19    14  35    3.8945   455.2    5.483      35.144
2015    4       19    14  40    3.8977   455.2    5.491      35.166
2015    4       19    14  46    3.9009   455.1    5.500      35.188
2015    4       19    14  52    3.9042   455.1    5.508      35.211
2015    4       19    14  58    3.9074   455.0    5.516      35.235
2015    4       19    15   4    3.9105   455.0    5.523      35.258
2015    4       19    15  10    3.9137   454.9    5.531      35.282
2015    4       19    15  15    3.9168   454.9    5.538      35.305
2015    4       19    15  21    3.9199   454.9    5.546      35.327
2015    4       19    15  27    3.9230   454.8    5.553      35.349
2015    4       19    15  33    3.9261   454.8    5.560      35.371
2015    4       19    15  39    3.9291   454.7    5.567      35.393
2015    4       19    15  45    3.9322   454.7    5.574      35.414
2015    4       19    15  51    3.9352   454.7    5.581      35.435
2015    4       19    15  56    3.9381   454.6    5.588      35.456
2015    4       19    16   2    3.9411   454.6    5.594      35.476
2015    4       19    16   8    3.9440   454.5    5.600      35.495
2015    4       19    16  14    3.9470   454.5    5.607      35.515
2015    4       19    16  20    3.9499   454.5    5.613      35.534
2015    4       19    16  26    3.9527   454.4    5.619      35.552
2015    4       19    16  31    3.9556   454.4    5.625      35.571
2015    4       19    16  37    3.9585   454.4    5.631      35.588
2015    4       19    16  43    3.9613   454.3    5.637      35.606
2015    4       19    16  49    3.9641   454.3    5.643      35.623
2015    4       19    16  55    3.9669   454.3    5.648      35.641
2015    4       19    17   1    3.9697   454.2    5.654      35.657
2015    4       19    17   7    3.9724   454.2    5.659      35.674
2015    4       19    17  12    3.9751   454.2    5.665      35.690
2015    4       19    17  18    3.9778   454.1    5.670      35.706
2015    4       19    17  24    3.9805   454.1    5.675      35.721
2015    4       19    17  30    3.9831   454.1    5.679      35.736
2015    4       19    17  36    3.9858   454.0    5.684      35.750
2015    4       19    17  42    3.9884   454.0    5.689      35.764
2015    4       19    17  47    3.9910   454.0    5.693      35.777
2015    4       19    17  53    3.9935   454.0    5.698      35.789
2015    4       19    17  59    3.9961   453.9    5.702      35.802
2015    4       19    18   5    3.9986   453.9    5.706      35.813
2015    4       19    18  11    4.0011   453.9    5.710      35.825
2015    4       19    18  17    4.0036   453.8    5.714      35.836
2015    4       19    18  23    4.0060   453.8    5.718      35.846
2015    4       19    18  28    4.0085   453.8    5.722      35.857
2015    4       19    18  34    4.0109   453.8    5.726      35.866
2015    4       19    18  40    4.0133   453.7    5.729      35.876
2015    4       19    18  46    4.0157   453.7    5.733      35.885
2015    4       19    18  52    4.0181   453.7    5.736      35.894
2015    4       19    18  58    4.0205   453.6    5.740      35.902
2015    4       19    19   4    4.0228   453.6    5.743      35.910
2015    4       19    19   9    4.0251   453.6    5.746      35.919
2015    4       19    19  15    4.0274   453.6    5.750      35.926
2015    4       19    19  21    4.0298   453.5    5.753      35.934
2015    4       19    19  27    4.0320   453.5    5.756      35.941
2015    4       19    19  33    4.0343   453.5    5.759      35.948
2015    4       19    19  39    4.0366   453.5    5.762      35.955
2015    4       19    19  44    4.0389   453.4    5.765      35.962
2015    4       19    19  50    4.0411   453.4    5.768      35.969
2015    4       19    19  56    4.0434   453.4    5.772      35.975
2015    4       19    20   2    4.0456   453.3    5.775      35.982
2015    4       19    20   8    4.0479   453.3    5.778      35.989
2015    4       19    20  14    4.0501   453.3    5.781      35.995
2015    4       19    20  20    4.0523   453.3    5.784      36.002
2015    4       19    20  25    4.0545   453.2    5.787      36.009
2015    4       19    20  31    4.0568   453.2    5.790      36.016
2015    4       19    20  37    4.0590   453.2    5.794      36.023
2015    4       19    20  43    4.0612   453.1    5.797      36.031
2015    4       19    20  49    4.0634   453.1    5.800      36.038
2015    4       19    20  55    4.0657   453.1    5.804      36.046
2015    4       19    21   0    4.0679   453.1    5.807      36.054
2015    4       19    21   6    4.0702   453.0    5.811      36.063
2015    4       19    21  12    4.0725   453.0    5.815      36.073
2015    4       19    21  18    4.0747   453.0    5.819      36.083
2015    4       19    21  24    4.0770   453.0    5.823      36.093
2015    4       19    21  30    4.0793   452.9    5.827      36.105
2015    4       19    21  36    4.0816   452.9    5.831      36.116
2015    4       19    21  41    4.0840   452.9    5.835      36.129
2015    4       19    21  47    4.0863   452.9    5.840      36.142
2015    4       19    21  53    4.0886   452.8    5.844      36.156
2015    4       19    21  59    4.0909   452.8    5.849      36.171
2015    4       19    22   5    4.0932   452.8    5.853      36.187
2015    4       19    22  11    4.0954   452.8    5.858      36.204
2015    4       19    22  16    4.0977   452.8    5.862      36.221
2015    4       19    22  22    4.0999   452.7    5.867      36.238
2015    4       19    22  28    4.1022   452.7    5.871      36.255
2015    4       19    22  34    4.1044   452.7    5.876      36.273
2015    4       19    22  40    4.1066   452.7    5.880      36.291
2015    4       19    22  45    4.1087   452.7    5.885      36.309
2015    4       19    22  51    4.1108   452.7    5.889      36.326
2015    4       19    22  57    4.1129   452.7    5.893      36.344
2015    4       19    23   3    4.1150   452.7    5.897      36.363
2015    4       19    23   9    4.1170   452.6    5.901      36.380
2015    4       19    23  14    4.1190   452.6    5.905      36.398
2015    4       19    23  20    4.1210   452.6    5.909      36.415
2015    4       19    23  26    4.1230   452.6    5.912      36.431
2015    4       19    23  32    4.1249   452.6    5.916      36.447
2015    4       19    23  38    4.1268   452.6    5.920      36.462
2015    4       19    23  44    4.1287   452.6    5.923      36.477
2015    4       19    23  49    4.1306   452.6    5.926      36.492
2015    4       19    23  55    4.1325   452.6    5.930      36.507
2015    4       20     0   1    4.1343   452.6    5.933      36.521
2015    4       20     0   7    4.1361   452.6    5.936      36.535
2015    4       20     0  13    4.1379   452.6    5.939      36.549
2015    4       20     0  18    4.1397   452.6    5.942      36.562
2015    4       20     0  24    4.1415   452.6    5.945      36.576
2015    4       20     0  30    4.1432   452.6    5.947      36.588
2015    4       20     0  36    4.1449   452.6    5.950      36.600
2015    4       20     0  42    4.1466   452.6    5.953      36.612
2015    4       20     0  48    4.1483   452.6    5.955      36.624
2015    4       20     0  53    4.1500   452.6    5.957      36.635
2015    4       20     0  59    4.1516   452.6    5.959      36.646
2015    4       20     1   5    4.1532   452.6    5.961      36.657
2015    4       20     1  11    4.1548   452.6    5.963      36.667
2015    4       20     1  17    4.1564   452.6    5.965      36.677
2015    4       20     1  23    4.1580   452.6    5.967      36.686
2015    4       20     1  29    4.1595   452.5    5.968      36.695
2015    4       20     1  34    4.1610   452.5    5.970      36.704
2015    4       20     1  40    4.1625   452.5    5.971      36.711
2015    4       20     1  46    4.1640   452.5    5.972      36.719
2015    4       20     1  52    4.1654   452.5    5.973      36.725
2015    4       20     1  58    4.1669   452.5    5.974      36.732
2015    4       20     2   4    4.1683   452.5    5.975      36.738
2015    4       20     2   9    4.1697   452.5    5.975      36.743
2015    4       20     2  15    4.1711   452.5    5.976      36.748
2015    4       20     2  21    4.1724   452.5    5.977      36.753
2015    4       20     2  27    4.1738   452.5    5.977      36.757
2015    4       20     2  33    4.1751   452.5    5.977      36.761
2015    4       20     2  39    4.1764   452.5    5.978      36.764
2015    4       20     2  45    4.1777   452.5    5.978      36.767
2015    4       20     2  50    4.1790   452.5    5.978      36.770
2015    4       20     2  56    4.1803   452.5    5.978      36.773
2015    4       20     3   2    4.1815   452.5    5.978      36.775
2015    4       20     3   8    4.1828   452.5    5.978      36.777
2015    4       20     3  14    4.1840   452.5    5.978      36.779
2015    4       20     3  20    4.1852   452.5    5.978      36.780
2015    4       20     3  25    4.1864   452.5    5.978      36.781
2015    4       20     3  31    4.1876   452.5    5.978      36.782
2015    4       20     3  37    4.1888   452.5    5.978      36.783
2015    4       20     3  43    4.1900   452.5    5.978      36.784
2015    4       20     3  49    4.1911   452.5    5.977      36.785
2015    4       20     3  55    4.1923   452.5    5.977      36.785
2015    4       20     4   1    4.1934   452.5    5.977      36.786
2015    4       20     4   6    4.1946   452.5    5.977      36.786
2015    4       20     4  12    4.1957   452.5    5.977      36.787
2015    4       20     4  18    4.1968   452.5    5.977      36.788
2015    4       20     4  24    4.1979   452.5    5.978      36.789
2015    4       20     4  30    4.1991   452.5    5.978      36.790
2015    4       20     4  36    4.2002   452.5    5.978      36.791
2015    4       20     4  41    4.2013   452.5    5.979      36.792
2015    4       20     4  47    4.2024   452.5    5.979      36.794
2015    4       20     4  53    4.2035   452.5    5.980      36.796
2015    4       20     4  59    4.2046   452.4    5.981      36.799
2015    4       20     5   5    4.2058   452.4    5.982      36.802
2015    4       20     5  11    4.2069   452.4    5.984      36.806
2015    4       20     5  17    4.2080   452.4    5.985      36.810
2015    4       20     5  22    4.2092   452.4    5.986      36.815
2015    4       20     5  28    4.2103   452.4    5.988      36.821
2015    4       20     5  34    4.2114   452.4    5.990      36.827
2015    4       20     5  40    4.2125   452.4    5.992      36.834
2015    4       20     5  46    4.2136   452.4    5.994      36.843
2015    4       20     5  52    4.2147   452.4    5.996      36.852
2015    4       20     5  57    4.2158   452.4    5.998      36.861
2015    4       20     6   3    4.2169   452.4    6.001      36.872
2015    4       20     6   9    4.2179   452.4    6.003      36.883
2015    4       20     6  15    4.2189   452.4    6.005      36.894
2015    4       20     6  21    4.2199   452.4    6.007      36.905
2015    4       20     6  27    4.2209   452.4    6.009      36.917
2015    4       20     6  33    4.2219   452.4    6.011      36.928
2015    4       20     6  38    4.2228   452.4    6.013      36.939
2015    4       20     6  44    4.2237   452.4    6.014      36.951
2015    4       20     6  50    4.2246   452.4    6.016      36.962
2015    4       20     6  56    4.2254   452.4    6.017      36.973
2015    4       20     7   2    4.2263   452.4    6.019      36.983
2015    4       20     7   8    4.2271   452.4    6.020      36.993
2015    4       20     7  13    4.2279   452.4    6.021      37.002
2015    4       20     7  19    4.2287   452.4    6.022      37.011
2015    4       20     7  25    4.2295   452.4    6.023      37.019
2015    4       20     7  31    4.2303   452.4    6.024      37.028
2015    4       20     7  37    4.2311   452.4    6.025      37.035
2015    4       20     7  43    4.2318   452.4    6.026      37.043
2015    4       20     7  49    4.2326   452.4    6.027      37.050
2015    4       20     7  54    4.2333   452.4    6.028      37.057
2015    4       20     8   0    4.2341   452.4    6.028      37.065
2015    4       20     8   6    4.2348   452.4    6.029      37.071
2015    4       20     8  12    4.2355   452.4    6.030      37.078
2015    4       20     8  18    4.2362   452.5    6.030      37.085
2015    4       20     8  24    4.2369   452.5    6.031      37.092
2015    4       20     8  29    4.2376   452.5    6.031      37.098
2015    4       20     8  35    4.2382   452.5    6.031      37.104
2015    4       20     8  41    4.2389   452.5    6.031      37.110
2015    4       20     8  47    4.2395   452.5    6.031      37.115
2015    4       20     8  53    4.2401   452.5    6.031      37.120
2015    4       20     8  59    4.2406   452.5    6.030      37.124
2015    4       20     9   5    4.2412   452.5    6.029      37.128
2015    4       20     9  10    4.2417   452.5    6.029      37.131
2015    4       20     9  16    4.2422   452.5    6.028      37.134
2015    4       20     9  22    4.2427   452.5    6.027      37.136
2015    4       20     9  28    4.2432   452.5    6.026      37.138
2015    4       20     9  34    4.2436   452.5    6.024      37.139
2015    4       20     9  40    4.2440   452.5    6.023      37.140
2015    4       20     9  45    4.2445   452.5    6.022      37.141
2015    4       20     9  51    4.2449   452.5    6.020      37.140
2015    4       20     9  57    4.2452   452.5    6.018      37.140
2015    4       20    10   3    4.2456   452.6    6.017      37.139
2015    4       20    10   9    4.2459   452.6    6.015      37.138
2015    4       20    10  15    4.2462   452.6    6.013      37.136
2015    4       20    10  21    4.2466   452.6    6.011      37.134
2015    4       20    10  26    4.2468   452.6    6.009      37.132
2015    4       20    10  32    4.2471   452.6    6.007      37.129
2015    4       20    10  38    4.2473   452.6    6.005      37.126
2015    4       20    10  44    4.2476   452.6    6.003      37.123
2015    4       20    10  50    4.2478   452.6    6.000      37.119
2015    4       20    10  56    4.2480   452.6    5.998      37.115
2015    4       20    11   1    4.2482   452.6    5.996      37.111
2015    4       20    11   7    4.2484   452.6    5.993      37.107
2015    4       20    11  13    4.2485   452.6    5.991      37.102
2015    4       20    11  19    4.2487   452.6    5.989      37.097
2015    4       20    11  25    4.2488   452.6    5.986      37.092
2015    4       20    11  31    4.2489   452.6    5.984      37.087
2015    4       20    11  37    4.2490   452.6    5.982      37.082
2015    4       20    11  42    4.2491   452.6    5.979      37.076
2015    4       20    11  48    4.2492   452.6    5.977      37.071
2015    4       20    11  54    4.2493   452.6    5.975      37.065
2015    4       20    12   0    4.2493   452.6    5.973      37.060
2015    4       20    12   6    4.2494   452.6    5.971      37.054
2015    4       20    12  12    4.2494   452.6    5.969      37.048
2015    4       20    12  17    4.2495   452.6    5.967      37.042
2015    4       20    12  23    4.2495   452.6    5.965      37.037
2015    4       20    12  29    4.2495   452.6    5.963      37.032
2015    4       20    12  35    4.2495   452.6    5.962      37.026
2015    4       20    12  41    4.2496   452.6    5.960      37.021
2015    4       20    12  47    4.2496   452.5    5.959      37.016
2015    4       20    12  53    4.2496   452.5    5.958      37.012
2015    4       20    12  58    4.2496   452.5    5.957      37.008
2015    4       20    13   4    4.2497   452.5    5.956      37.004
2015    4       20    13  10    4.2497   452.5    5.955      37.001
2015    4       20    13  16    4.2497   452.5    5.954      36.998
2015    4       20    13  22    4.2498   452.5    5.954      36.996
2015    4       20    13  28    4.2498   452.5    5.953      36.994
2015    4       20    13  33    4.2499   452.5    5.953      36.993
2015    4       20    13  39    4.2499   452.5    5.953      36.993
2015    4       20    13  45    4.2499   452.5    5.953      36.993
2015    4       20    13  51    4.2500   452.5    5.953      36.993
2015    4       20    13  57    4.2500   452.4    5.953      36.994
2015    4       20    14   3    4.2500   452.4    5.953      36.996
2015    4       20    14   9    4.2500   452.4    5.952      36.998
2015    4       20    14  14    4.2500   452.4    5.952      36.999
2015    4       20    14  20    4.2500   452.4    5.952      37.000
2015    4       20    14  26    4.2500   452.4    5.952      37.001
2015    4       20    14  32    4.2500   452.4    5.951      37.002
2015    4       20    14  38    4.2499   452.4    5.951      37.002
2015    4       20    14  44    4.2499   452.4    5.950      37.003
2015    4       20    14  49    4.2498   452.4    5.950      37.003
2015    4       20    14  55    4.2497   452.4    5.949      37.003
2015    4       20    15   1    4.2497   452.4    5.948      37.002
2015    4       20    15   7    4.2496   452.3    5.948      37.002
2015    4       20    15  13    4.2495   452.3    5.947      37.001
2015    4       20    15  19    4.2494   452.3    5.946      37.000
2015    4       20    15  25    4.2493   452.3    5.945      36.998
2015    4       20    15  30    4.2492   452.3    5.944      36.997
2015    4       20    15  36    4.2491   452.3    5.943      36.995
2015    4       20    15  42    4.2490   452.3    5.942      36.994
2015    4       20    15  48    4.2488   452.3    5.941      36.992
2015    4       20    15  54    4.2487   452.3    5.940      36.990
2015    4       20    16   0    4.2486   452.2    5.939      36.989
2015    4       20    16   5    4.2484   452.2    5.937      36.986
2015    4       20    16  11    4.2482   452.2    5.936      36.984
2015    4       20    16  17    4.2480   452.2    5.934      36.981
2015    4       20    16  23    4.2478   452.2    5.932      36.978
2015    4       20    16  29    4.2476   452.2    5.930      36.974
2015    4       20    16  35    4.2473   452.2    5.928      36.969
2015    4       20    16  41    4.2471   452.1    5.926      36.965
2015    4       20    16  46    4.2468   452.1    5.923      36.959
2015    4       20    16  52    4.2465   452.1    5.921      36.954
2015    4       20    16  58    4.2462   452.1    5.918      36.948
2015    4       20    17   4    4.2459   452.1    5.916      36.941
2015    4       20    17  10    4.2455   452.1    5.913      36.934
2015    4       20    17  16    4.2452   452.0    5.910      36.927
2015    4       20    17  21    4.2448   452.0    5.907      36.919
2015    4       20    17  27    4.2444   452.0    5.904      36.911
2015    4       20    17  33    4.2440   452.0    5.901      36.903
2015    4       20    17  39    4.2436   452.0    5.898      36.894
2015    4       20    17  45    4.2431   452.0    5.895      36.885
2015    4       20    17  51    4.2427   451.9    5.892      36.876
2015    4       20    17  57    4.2422   451.9    5.888      36.867
2015    4       20    18   2    4.2418   451.9    5.885      36.857
2015    4       20    18   8    4.2413   451.9    5.881      36.847
2015    4       20    18  14    4.2408   451.9    5.878      36.836
2015    4       20    18  20    4.2403   451.8    5.874      36.825
2015    4       20    18  26    4.2398   451.8    5.871      36.815
2015    4       20    18  32    4.2392   451.8    5.867      36.803
2015    4       20    18  37    4.2387   451.8    5.864      36.792
2015    4       20    18  43    4.2382   451.7    5.860      36.780
2015    4       20    18  49    4.2376   451.7    5.856      36.768
2015    4       20    18  55    4.2370   451.7    5.853      36.756
2015    4       20    19   1    4.2365   451.7    5.849      36.744
2015    4       20    19   7    4.2359   451.6    5.845      36.731
2015    4       20    19  13    4.2353   451.6    5.842      36.718
2015    4       20    19  18    4.2347   451.6    5.838      36.705
2015    4       20    19  24    4.2341   451.5    5.835      36.692
2015    4       20    19  30    4.2336   451.5    5.831      36.679
2015    4       20    19  36    4.2330   451.5    5.828      36.666
2015    4       20    19  42    4.2324   451.4    5.824      36.652
2015    4       20    19  48    4.2318   451.4    5.821      36.638
2015    4       20    19  53    4.2312   451.4    5.817      36.625
2015    4       20    19  59    4.2306   451.3    5.814      36.611
2015    4       20    20   5    4.2301   451.3    5.811      36.597
2015    4       20    20  11    4.2295   451.3    5.808      36.583
2015    4       20    20  17    4.2289   451.2    5.805      36.570
2015    4       20    20  23    4.2284   451.2    5.802      36.556
2015    4       20    20  29    4.2278   451.2    5.799      36.542
2015    4       20    20  34    4.2273   451.1    5.797      36.529
2015    4       20    20  40    4.2267   451.1    5.794      36.515
2015    4       20    20  46    4.2262   451.0    5.792      36.502
2015    4       20    20  52    4.2257   451.0    5.789      36.489
2015    4       20    20  58    4.2251   451.0    5.787      36.476
2015    4       20    21   4    4.2246   450.9    5.785      36.463
2015    4       20    21   9    4.2241   450.9    5.783      36.450
2015    4       20    21  15    4.2236   450.8    5.781      36.437
2015    4       20    21  21    4.2230   450.8    5.779      36.424
2015    4       20    21  27    4.2225   450.8    5.777      36.411
2015    4       20    21  33    4.2219   450.7    5.775      36.399
2015    4       20    21  39    4.2214   450.7    5.774      36.386
2015    4       20    21  45    4.2208   450.6    5.772      36.374
2015    4       20    21  50    4.2203   450.6    5.770      36.361
2015    4       20    21  56    4.2197   450.6    5.768      36.348
2015    4       20    22   2    4.2191   450.5    5.767      36.336
2015    4       20    22   8    4.2185   450.5    5.765      36.323
2015    4       20    22  14    4.2179   450.4    5.763      36.309
2015    4       20    22  20    4.2173   450.4    5.761      36.296
2015    4       20    22  25    4.2167   450.3    5.759      36.282
2015    4       20    22  31    4.2161   450.3    5.757      36.268
2015    4       20    22  37    4.2155   450.2    5.756      36.254
2015    4       20    22  43    4.2148   450.2    5.754      36.240
2015    4       20    22  49    4.2142   450.1    5.752      36.226
2015    4       20    22  55    4.2136   450.1    5.750      36.212
2015    4       20    23   1    4.2130   450.0    5.748      36.197
2015    4       20    23   6    4.2123   450.0    5.746      36.183
2015    4       20    23  12    4.2117   449.9    5.744      36.169
2015    4       20    23  18    4.2111   449.9    5.742      36.154
2015    4       20    23  24    4.2104   449.8    5.740      36.140
2015    4       20    23  30    4.2098   449.8    5.738      36.125
2015    4       20    23  36    4.2092   449.7    5.736      36.111
2015    4       20    23  41    4.2085   449.6    5.734      36.096
2015    4       20    23  47    4.2079   449.6    5.732      36.081
2015    4       20    23  53    4.2073   449.5    5.730      36.067
2015    4       20    23  59    4.2067   449.5    5.728      36.052
2015    4       21     0   5    4.2058   449.4    5.726      36.036
2015    4       21     0  11    4.2049   449.4    5.723      36.020
2015    4       21     0  17    4.2040   449.3    5.720      36.003
2015    4       21     0  22    4.2031   449.2    5.718      35.987
2015    4       21     0  28    4.2021   449.2    5.715      35.971
2015    4       21     0  34    4.2012   449.1    5.713      35.954
2015    4       21     0  40    4.2003   449.1    5.710      35.938
2015    4       21     0  46    4.1994   449.0    5.707      35.921
2015    4       21     0  52    4.1985   448.9    5.705      35.904
2015    4       21     0  57    4.1975   448.9    5.702      35.887
2015    4       21     1   3    4.1966   448.8    5.699      35.870
2015    4       21     1   9    4.1957   448.8    5.697      35.853
2015    4       21     1  15    4.1947   448.7    5.694      35.836
2015    4       21     1  21    4.1938   448.6    5.691      35.819
2015    4       21     1  27    4.1929   448.6    5.689      35.802
2015    4       21     1  33    4.1919   448.5    5.686      35.785
2015    4       21     1  38    4.1910   448.4    5.683      35.767
2015    4       21     1  44    4.1901   448.4    5.681      35.750
2015    4       21     1  50    4.1892   448.3    5.678      35.732
2015    4       21     1  56    4.1882   448.2    5.675      35.714
2015    4       21     2   2    4.1873   448.2    5.673      35.697
2015    4       21     2   8    4.1864   448.1    5.671      35.679
2015    4       21     2  13    4.1855   448.0    5.668      35.661
2015    4       21     2  19    4.1846   448.0    5.666      35.644
2015    4       21     2  25    4.1837   447.9    5.663      35.626
2015    4       21     2  31    4.1828   447.8    5.661      35.608
2015    4       21     2  37    4.1820   447.8    5.659      35.590
2015    4       21     2  43    4.1811   447.7    5.657      35.573
2015    4       21     2  49    4.1803   447.6    5.655      35.555
2015    4       21     2  54    4.1794   447.5    5.653      35.538
2015    4       21     3   0    4.1786   447.5    5.651      35.520
2015    4       21     3   6    4.1778   447.4    5.649      35.503
2015    4       21     3  12    4.1769   447.3    5.647      35.486
2015    4       21     3  18    4.1761   447.3    5.645      35.468
2015    4       21     3  24    4.1753   447.2    5.643      35.452
2015    4       21     3  29    4.1745   447.1    5.642      35.435
2015    4       21     3  35    4.1737   447.1    5.640      35.418
2015    4       21     3  41    4.1729   447.0    5.638      35.401
2015    4       21     3  47    4.1721   446.9    5.637      35.385
2015    4       21     3  53    4.1713   446.9    5.635      35.368
2015    4       21     3  59    4.1704   446.8    5.634      35.352
2015    4       21     4   5    4.1696   446.7    5.632      35.335
2015    4       21     4  10    4.1688   446.6    5.631      35.318
2015    4       21     4  16    4.1680   446.6    5.630      35.301
2015    4       21     4  22    4.1671   446.5    5.628      35.285
2015    4       21     4  28    4.1663   446.4    5.627      35.268
2015    4       21     4  34    4.1654   446.4    5.626      35.251
2015    4       21     4  40    4.1646   446.3    5.624      35.233
2015    4       21     4  45    4.1637   446.2    5.623      35.216
2015    4       21     4  51    4.1628   446.2    5.622      35.199
2015    4       21     4  57    4.1619   446.1    5.620      35.181
2015    4       21     5   3    4.1610   446.0    5.619      35.163
2015    4       21     5   9    4.1601   445.9    5.618      35.145
2015    4       21     5  15    4.1592   445.9    5.616      35.127
2015    4       21     5  21    4.1582   445.8    5.615      35.108
2015    4       21     5  26    4.1573   445.7    5.613      35.090
2015    4       21     5  32    4.1564   445.6    5.612      35.071
2015    4       21     5  38    4.1555   445.6    5.611      35.052
2015    4       21     5  44    4.1545   445.5    5.609      35.033
2015    4       21     5  50    4.1536   445.4    5.608      35.014
2015    4       21     5  56    4.1527   445.3    5.606      34.994
2015    4       21     6   1    4.1517   445.2    5.605      34.975
2015    4       21     6   7    4.1508   445.2    5.603      34.955
2015    4       21     6  13    4.1499   445.1    5.602      34.935
2015    4       21     6  19    4.1489   445.0    5.600      34.916
2015    4       21     6  25    4.1480   444.9    5.598      34.896
2015    4       21     6  31    4.1471   444.8    5.597      34.876
2015    4       21     6  37    4.1462   444.7    5.595      34.856
2015    4       21     6  42    4.1453   444.7    5.594      34.836
2015    4       21     6  48    4.1444   444.6    5.592      34.816
2015    4       21     6  54    4.1435   444.5    5.590      34.796
2015    4       21     7   0    4.1426   444.4    5.589      34.776
2015    4       21     7   6    4.1417   444.3    5.587      34.755
2015    4       21     7  12    4.1409   444.2    5.586      34.735
2015    4       21     7  17    4.1400   444.2    5.584      34.715
2015    4       21     7  23    4.1392   444.1    5.582      34.695
2015    4       21     7  29    4.1383   444.0    5.581      34.675
2015    4       21     7  35    4.1375   443.9    5.579      34.655
2015    4       21     7  41    4.1367   443.8    5.578      34.635
2015    4       21     7  47    4.1359   443.7    5.576      34.615
2015    4       21     7  53    4.1351   443.6    5.575      34.595
2015    4       21     7  58    4.1342   443.6    5.573      34.575
2015    4       21     8   4    4.1335   443.5    5.572      34.555
2015    4       21     8  10    4.1327   443.4    5.570      34.535
2015    4       21     8  16    4.1319   443.3    5.569      34.515
2015    4       21     8  22    4.1311   443.2    5.567      34.495
2015    4       21     8  28    4.1303   443.1    5.566      34.475
2015    4       21     8  33    4.1296   443.0    5.564      34.455
2015    4       21     8  39    4.1288   442.9    5.563      34.435
2015    4       21     8  45    4.1280   442.9    5.562      34.415
2015    4       21     8  51    4.1273   442.8    5.560      34.395
2015    4       21     8  57    4.1265   442.7    5.559      34.375
2015    4       21     9   3    4.1258   442.6    5.558      34.355
2015    4       21     9   9    4.1250   442.5    5.556      34.335
2015    4       21     9  14    4.1243   442.4    5.555      34.315
2015    4       21     9  20    4.1236   442.3    5.554      34.295
2015    4       21     9  26    4.1229   442.2    5.553      34.275
2015    4       21     9  32    4.1221   442.1    5.552      34.255
2015    4       21     9  38    4.1214   442.0    5.550      34.235
2015    4       21     9  44    4.1207   442.0    5.549      34.215
2015    4       21     9  49    4.1200   441.9    5.548      34.195
2015    4       21     9  55    4.1193   441.8    5.547      34.176
2015    4       21    10   1    4.1186   441.7    5.546      34.156
2015    4       21    10   7    4.1179   441.6    5.546      34.137
2015    4       21    10  13    4.1173   441.5    5.545      34.118
2015    4       21    10  19    4.1166   441.4    5.544      34.098
2015    4       21    10  25    4.1159   441.3    5.543      34.079
2015    4       21    10  30    4.1152   441.2    5.542      34.060
2015    4       21    10  36    4.1145   441.1    5.542      34.041
2015    4       21    10  42    4.1138   441.0    5.541      34.023
2015    4       21    10  48    4.1131   441.0    5.540      34.004
2015    4       21    10  54    4.1124   440.9    5.540      33.985
2015    4       21    11   0    4.1117   440.8    5.539      33.967
2015    4       21    11   5    4.1110   440.7    5.538      33.948
2015    4       21    11  11    4.1103   440.6    5.538      33.930
2015    4       21    11  17    4.1096   440.5    5.537      33.911
2015    4       21    11  23    4.1089   440.4    5.537      33.893
2015    4       21    11  29    4.1081   440.3    5.537      33.874
2015    4       21    11  35    4.1074   440.2    5.536      33.856
2015    4       21    11  41    4.1067   440.1    5.536      33.837
2015    4       21    11  46    4.1059   440.0    5.535      33.819
2015    4       21    11  52    4.1052   439.9    5.535      33.801
2015    4       21    11  58    4.1045   439.9    5.535      33.783
2015    4       21    12   4    4.1037   439.8    5.535      33.764
2015    4       21    12  10    4.1030   439.7    5.534      33.746
2015    4       21    12  16    4.1023   439.6    5.534      33.728
2015    4       21    12  21    4.1016   439.5    5.534      33.710
2015    4       21    12  27    4.1009   439.4    5.534      33.692
2015    4       21    12  33    4.1002   439.3    5.534      33.674
2015    4       21    12  39    4.0995   439.2    5.534      33.656
2015    4       21    12  45    4.0987   439.1    5.534      33.638
2015    4       21    12  51    4.0981   439.0    5.534      33.620
2015    4       21    12  57    4.0974   438.9    5.534      33.602
2015    4       21    13   2    4.0967   438.8    5.534      33.585
2015    4       21    13   8    4.0960   438.7    5.534      33.567
2015    4       21    13  14    4.0954   438.6    5.534      33.549
2015    4       21    13  20    4.0947   438.5    5.534      33.532
2015    4       21    13  26    4.0941   438.4    5.534      33.514
2015    4       21    13  32    4.0934   438.3    5.534      33.497
2015    4       21    13  37    4.0928   438.2    5.534      33.479
2015    4       21    13  43    4.0922   438.1    5.535      33.462
2015    4       21    13  49    4.0915   438.0    5.535      33.444
2015    4       21    13  55    4.0909   437.9    5.535      33.427
2015    4       21    14   1    4.0903   437.9    5.535      33.409
2015    4       21    14   7    4.0897   437.8    5.535      33.392
2015    4       21    14  13    4.0891   437.7    5.535      33.374
2015    4       21    14  18    4.0885   437.6    5.536      33.357
2015    4       21    14  24    4.0879   437.5    5.536      33.339
2015    4       21    14  30    4.0873   437.4    5.536      33.321
2015    4       21    14  36    4.0868   437.3    5.536      33.304
2015    4       21    14  42    4.0862   437.2    5.536      33.286
2015    4       21    14  48    4.0856   437.1    5.536      33.268
2015    4       21    14  53    4.0851   437.0    5.536      33.250
2015    4       21    14  59    4.0845   436.9    5.536      33.232
2015    4       21    15   5    4.0840   436.8    5.536      33.214
2015    4       21    15  11    4.0834   436.7    5.536      33.196
2015    4       21    15  17    4.0829   436.6    5.535      33.178
2015    4       21    15  23    4.0824   436.5    5.535      33.160
2015    4       21    15  29    4.0819   436.4    5.535      33.142
2015    4       21    15  34    4.0813   436.3    5.535      33.124
2015    4       21    15  40    4.0808   436.2    5.534      33.106
2015    4       21    15  46    4.0803   436.1    5.534      33.088
2015    4       21    15  52    4.0798   436.0    5.533      33.070
2015    4       21    15  58    4.0793   435.9    5.533      33.052
2015    4       21    16   4    4.0788   435.8    5.532      33.033
2015    4       21    16   9    4.0783   435.7    5.532      33.015
2015    4       21    16  15    4.0778   435.6    5.531      32.996
2015    4       21    16  21    4.0773   435.5    5.530      32.977
2015    4       21    16  27    4.0767   435.4    5.530      32.959
2015    4       21    16  33    4.0762   435.3    5.529      32.940
2015    4       21    16  39    4.0757   435.2    5.528      32.920
2015    4       21    16  45    4.0751   435.1    5.527      32.901
2015    4       21    16  50    4.0746   435.0    5.526      32.882
2015    4       21    16  56    4.0740   434.9    5.526      32.862
2015    4       21    17   2    4.0735   434.8    5.525      32.843
2015    4       21    17   8    4.0729   434.7    5.524      32.823
2015    4       21    17  14    4.0724   434.6    5.523      32.803
2015    4       21    17  20    4.0718   434.5    5.522      32.783
2015    4       21    17  25    4.0712   434.4    5.521      32.763
2015    4       21    17  31    4.0706   434.3    5.520      32.743
2015    4       21    17  37    4.0700   434.1    5.519      32.722
2015    4       21    17  43    4.0694   434.0    5.518      32.702
2015    4       21    17  49    4.0688   433.9    5.517      32.681
2015    4       21    17  55    4.0682   433.8    5.516      32.661
2015    4       21    18   1    4.0676   433.7    5.515      32.640
2015    4       21    18   6    4.0670   433.6    5.513      32.619
2015    4       21    18  12    4.0663   433.5    5.512      32.598
2015    4       21    18  18    4.0657   433.4    5.511      32.577
2015    4       21    18  24    4.0651   433.3    5.510      32.556
2015    4       21    18  30    4.0644   433.2    5.509      32.535
2015    4       21    18  36    4.0638   433.1    5.508      32.514
2015    4       21    18  41    4.0632   433.0    5.507      32.493
2015    4       21    18  47    4.0625   432.9    5.506      32.472
2015    4       21    18  53    4.0619   432.7    5.505      32.451
2015    4       21    18  59    4.0612   432.6    5.504      32.430
2015    4       21    19   5    4.0606   432.5    5.503      32.409
2015    4       21    19  11    4.0600   432.4    5.502      32.388
2015    4       21    19  17    4.0593   432.3    5.501      32.367
2015    4       21    19  22    4.0587   432.2    5.501      32.346
2015    4       21    19  28    4.0581   432.1    5.500      32.325
2015    4       21    19  34    4.0574   432.0    5.499      32.304
2015    4       21    19  40    4.0568   431.9    5.498      32.283
2015    4       21    19  46    4.0562   431.7    5.498      32.263
2015    4       21    19  52    4.0556   431.6    5.497      32.242
2015    4       21    19  57    4.0550   431.5    5.496      32.221
2015    4       21    20   3    4.0544   431.4    5.496      32.201
2015    4       21    20   9    4.0538   431.3    5.495      32.181
2015    4       21    20  15    4.0532   431.2    5.495      32.161
2015    4       21    20  21    4.0526   431.1    5.495      32.140
2015    4       21    20  27    4.0520   430.9    5.494      32.120
2015    4       21    20  33    4.0514   430.8    5.494      32.100
2015    4       21    20  38    4.0509   430.7    5.494      32.080
2015    4       21    20  44    4.0503   430.6    5.494      32.060
2015    4       21    20  50    4.0497   430.5    5.494      32.041
2015    4       21    20  56    4.0492   430.4    5.494      32.021
2015    4       21    21   2    4.0487   430.3    5.494      32.001
2015    4       21    21   8    4.0481   430.1    5.494      31.981
2015    4       21    21  13    4.0476   430.0    5.494      31.962
2015    4       21    21  19    4.0471   429.9    5.494      31.942
2015    4       21    21  25    4.0465   429.8    5.495      31.922
2015    4       21    21  31    4.0461   429.7    5.495      31.903
2015    4       21    21  37    4.0456   429.5    5.496      31.883
2015    4       21    21  43    4.0451   429.4    5.496      31.864
2015    4       21    21  49    4.0446   429.3    5.496      31.845
2015    4       21    21  54    4.0442   429.2    5.497      31.826
2015    4       21    22   0    4.0437   429.1    5.498      31.808
2015    4       21    22   6    4.0433   428.9    5.498      31.790
2015    4       21    22  12    4.0429   428.8    5.499      31.772
2015    4       21    22  18    4.0426   428.7    5.499      31.755
2015    4       21    22  24    4.0422   428.6    5.500      31.738
2015    4       21    22  29    4.0419   428.5    5.501      31.720
2015    4       21    22  35    4.0416   428.3    5.502      31.703
2015    4       21    22  41    4.0413   428.2    5.503      31.686
2015    4       21    22  47    4.0411   428.1    5.503      31.669
2015    4       21    22  53    4.0408   428.0    5.504      31.653
2015    4       21    22  59    4.0406   427.9    5.505      31.636
2015    4       21    23   5    4.0403   427.7    5.506      31.620
2015    4       21    23  10    4.0401   427.6    5.507      31.604
2015    4       21    23  16    4.0399   427.5    5.509      31.588
2015    4       21    23  22    4.0397   427.4    5.510      31.572
2015    4       21    23  28    4.0396   427.3    5.511      31.556
2015    4       21    23  34    4.0394   427.1    5.512      31.541
2015    4       21    23  40    4.0392   427.0    5.514      31.525
2015    4       21    23  45    4.0391   426.9    5.515      31.510
2015    4       21    23  51    4.0389   426.8    5.516      31.495
2015    4       21    23  57    4.0388   426.7    5.518      31.480
2015    4       22     0   3    4.0388   426.5    5.520      31.465
2015    4       22     0   9    4.0390   426.4    5.522      31.451
2015    4       22     0  15    4.0392   426.3    5.524      31.437
2015    4       22     0  21    4.0393   426.2    5.526      31.424
2015    4       22     0  26    4.0395   426.0    5.528      31.410
2015    4       22     0  32    4.0396   425.9    5.530      31.396
2015    4       22     0  38    4.0397   425.8    5.533      31.383
2015    4       22     0  44    4.0399   425.7    5.535      31.369
2015    4       22     0  50    4.0400   425.5    5.537      31.355
2015    4       22     0  56    4.0401   425.4    5.539      31.342
2015    4       22     1   1    4.0401   425.3    5.542      31.328
2015    4       22     1   7    4.0402   425.2    5.544      31.315
2015    4       22     1  13    4.0403   425.0    5.546      31.301
2015    4       22     1  19    4.0404   424.9    5.548      31.288
2015    4       22     1  25    4.0404   424.8    5.551      31.274
2015    4       22     1  31    4.0404   424.7    5.553      31.261
2015    4       22     1  37    4.0405   424.5    5.555      31.247
2015    4       22     1  42    4.0405   424.4    5.557      31.233
2015    4       22     1  48    4.0405   424.3    5.559      31.219
2015    4       22     1  54    4.0405   424.1    5.561      31.206
2015    4       22     2   0    4.0405   424.0    5.563      31.192
2015    4       22     2   6    4.0405   423.9    5.565      31.177
2015    4       22     2  12    4.0405   423.7    5.567      31.163
2015    4       22     2  17    4.0405   423.6    5.569      31.149
2015    4       22     2  23    4.0405   423.5    5.571      31.135
2015    4       22     2  29    4.0405   423.3    5.572      31.120
2015    4       22     2  35    4.0405   423.2    5.574      31.106
2015    4       22     2  41    4.0405   423.1    5.576      31.091
2015    4       22     2  47    4.0405   422.9    5.577      31.077
2015    4       22     2  53    4.0405   422.8    5.579      31.062
2015    4       22     2  58    4.0405   422.7    5.580      31.047
2015    4       22     3   4    4.0405   422.5    5.582      31.033
2015    4       22     3  10    4.0405   422.4    5.583      31.018
2015    4       22     3  16    4.0406   422.2    5.585      31.003
2015    4       22     3  22    4.0406   422.1    5.586      30.988
2015    4       22     3  28    4.0407   422.0    5.588      30.973
2015    4       22     3  33    4.0407   421.8    5.589      30.958
2015    4       22     3  39    4.0407   421.7    5.590      30.943
2015    4       22     3  45    4.0408   421.5    5.592      30.927
2015    4       22     3  51    4.0409   421.4    5.593      30.912
2015    4       22     3  57    4.0409   421.3    5.594      30.896
2015    4       22     4   3    4.0410   421.1    5.595      30.879
2015    4       22     4   9    4.0411   421.0    5.597      30.863
2015    4       22     4  14    4.0412   420.8    5.598      30.846
2015    4       22     4  20    4.0413   420.7    5.599      30.830
2015    4       22     4  26    4.0414   420.5    5.600      30.813
2015    4       22     4  32    4.0416   420.4    5.602      30.796
2015    4       22     4  38    4.0417   420.3    5.603      30.779
2015    4       22     4  44    4.0419   420.1    5.604      30.762
2015    4       22     4  50    4.0420   420.0    5.606      30.744
2015    4       22     4  55    4.0422   419.8    5.607      30.727
2015    4       22     5   1    4.0424   419.7    5.608      30.709
2015    4       22     5   7    4.0427   419.5    5.610      30.692
2015    4       22     5  13    4.0429   419.4    5.611      30.674
2015    4       22     5  19    4.0431   419.2    5.613      30.657
2015    4       22     5  25    4.0434   419.1    5.615      30.639
2015    4       22     5  30    4.0437   418.9    5.616      30.622
2015    4       22     5  36    4.0440   418.8    5.618      30.605
2015    4       22     5  42    4.0443   418.6    5.620      30.588
2015    4       22     5  48    4.0446   418.5    5.622      30.571
2015    4       22     5  54    4.0450   418.4    5.624      30.554
2015    4       22     6   0    4.0454   418.2    5.626      30.537
2015    4       22     6   6    4.0458   418.1    5.628      30.520
2015    4       22     6  11    4.0462   417.9    5.631      30.504
2015    4       22     6  17    4.0466   417.8    5.633      30.488
2015    4       22     6  23    4.0470   417.6    5.635      30.472
2015    4       22     6  29    4.0475   417.5    5.638      30.456
2015    4       22     6  35    4.0479   417.3    5.641      30.440
2015    4       22     6  41    4.0484   417.2    5.643      30.424
2015    4       22     6  46    4.0489   417.0    5.646      30.409
2015    4       22     6  52    4.0494   416.9    5.649      30.393
2015    4       22     6  58    4.0499   416.7    5.652      30.378
2015    4       22     7   4    4.0504   416.6    5.655      30.363
2015    4       22     7  10    4.0509   416.4    5.658      30.348
2015    4       22     7  16    4.0515   416.3    5.662      30.333
2015    4       22     7  22    4.0520   416.1    5.665      30.318
2015    4       22     7  27    4.0526   416.0    5.668      30.303
2015    4       22     7  33    4.0531   415.8    5.672      30.289
2015    4       22     7  39    4.0537   415.7    5.676      30.275
2015    4       22     7  45    4.0543   415.5    5.680      30.261
2015    4       22     7  51    4.0549   415.4    5.683      30.247
2015    4       22     7  57    4.0555   415.2    5.687      30.233
2015    4       22     8   2    4.0561   415.1    5.692      30.220
2015    4       22     8   8    4.0567   414.9    5.696      30.206
2015    4       22     8  14    4.0573   414.8    5.700      30.193
2015    4       22     8  20    4.0580   414.6    5.705      30.180
2015    4       22     8  26    4.0586   414.5    5.709      30.168
2015    4       22     8  32    4.0593   414.3    5.714      30.156
2015    4       22     8  38    4.0600   414.2    5.719      30.144
2015    4       22     8  43    4.0607   414.0    5.723      30.132
2015    4       22     8  49    4.0614   413.9    5.728      30.121
2015    4       22     8  55    4.0622   413.7    5.734      30.110
2015    4       22     9   1    4.0630   413.6    5.739      30.099
2015    4       22     9   7    4.0638   413.4    5.744      30.089
2015    4       22     9  13    4.0646   413.3    5.750      30.079
2015    4       22     9  18    4.0655   413.1    5.755      30.069
2015    4       22     9  24    4.0663   413.0    5.761      30.060
2015    4       22     9  30    4.0672   412.8    5.767      30.051
2015    4       22     9  36    4.0682   412.6    5.773      30.043
2015    4       22     9  42    4.0691   412.5    5.779      30.035
2015    4       22     9  48    4.0702   412.3    5.785      30.027
2015    4       22     9  54    4.0712   412.2    5.791      30.020
2015    4       22     9  59    4.0722   412.0    5.797      30.013
2015    4       22    10   5    4.0733   411.9    5.804      30.007
2015    4       22    10  11    4.0744   411.8    5.810      30.001
2015    4       22    10  17    4.0756   411.6    5.817      29.995
2015    4       22    10  23    4.0767   411.5    5.823      29.990
2015    4       22    10  29    4.0779   411.3    5.830      29.985
2015    4       22    10  34    4.0791   411.2    5.837      29.980
2015    4       22    10  40    4.0802   411.0    5.844      29.975
2015    4       22    10  46    4.0814   410.9    5.850      29.970
2015    4       22    10  52    4.0826   410.7    5.857      29.965
2015    4       22    10  58    4.0838   410.6    5.864      29.961
2015    4       22    11   4    4.0850   410.4    5.870      29.957
2015    4       22    11  10    4.0863   410.3    5.877      29.952
2015    4       22    11  15    4.0875   410.1    5.884      29.948
2015    4       22    11  21    4.0888   410.0    5.890      29.944
2015    4       22    11  27    4.0900   409.9    5.897      29.941
2015    4       22    11  33    4.0912   409.7    5.903      29.937
2015    4       22    11  39    4.0925   409.6    5.909      29.933
2015    4       22    11  45    4.0938   409.4    5.916      29.929
2015    4       22    11  50    4.0950   409.3    5.922      29.926
2015    4       22    11  56    4.0963   409.1    5.928      29.922
2015    4       22    12   2    4.0976   409.0    5.934      29.918
2015    4       22    12   8    4.0989   408.8    5.940      29.915
2015    4       22    12  14    4.1002   408.7    5.946      29.911
2015    4       22    12  20    4.1014   408.6    5.951      29.907
2015    4       22    12  26    4.1027   408.4    5.957      29.902
2015    4       22    12  31    4.1040   408.3    5.963      29.898
2015    4       22    12  37    4.1053   408.1    5.968      29.894
2015    4       22    12  43    4.1067   408.0    5.974      29.890
2015    4       22    12  49    4.1080   407.8    5.979      29.885
2015    4       22    12  55    4.1093   407.7    5.985      29.880
2015    4       22    13   1    4.1106   407.6    5.990      29.875
2015    4       22    13   6    4.1120   407.4    5.995      29.870
2015    4       22    13  12    4.1133   407.3    6.001      29.865
2015    4       22    13  18    4.1146   407.1    6.006      29.860
2015    4       22    13  24    4.1160   407.0    6.011      29.854
2015    4       22    13  30    4.1173   406.9    6.016      29.848
2015    4       22    13  36    4.1187   406.7    6.021      29.842
2015    4       22    13  42    4.1200   406.6    6.026      29.836
2015    4       22    13  47    4.1214   406.4    6.031      29.829
2015    4       22    13  53    4.1227   406.3    6.036      29.823
2015    4       22    13  59    4.1241   406.1    6.041      29.816
2015    4       22    14   5    4.1255   406.0    6.046      29.809
2015    4       22    14  11    4.1268   405.9    6.051      29.801
2015    4       22    14  17    4.1282   405.7    6.056      29.794
2015    4       22    14  22    4.1296   405.6    6.061      29.787
2015    4       22    14  28    4.1310   405.4    6.066      29.779
2015    4       22    14  34    4.1324   405.3    6.070      29.771
2015    4       22    14  40    4.1338   405.2    6.075      29.763
2015    4       22    14  46    4.1352   405.0    6.080      29.755
2015    4       22    14  52    4.1367   404.9    6.085      29.747
2015    4       22    14  58    4.1381   404.7    6.090      29.739
2015    4       22    15   3    4.1396   404.6    6.095      29.732
2015    4       22    15   9    4.1411   404.5    6.101      29.724
2015    4       22    15  15    4.1426   404.3    6.106      29.716
2015    4       22    15  21    4.1441   404.2    6.111      29.708
2015    4       22    15  27    4.1457   404.0    6.117      29.701
2015    4       22    15  33    4.1473   403.9    6.122      29.694
2015    4       22    15  38    4.1489   403.8    6.128      29.687
2015    4       22    15  44    4.1505   403.6    6.133      29.680
2015    4       22    15  50    4.1521   403.5    6.139      29.673
2015    4       22    15  56    4.1538   403.3    6.145      29.667
2015    4       22    16   2    4.1555   403.2    6.151      29.661
2015    4       22    16   8    4.1573   403.1    6.157      29.656
2015    4       22    16  14    4.1590   402.9    6.164      29.651
2015    4       22    16  19    4.1608   402.8    6.170      29.646
2015    4       22    16  25    4.1627   402.7    6.177      29.642
2015    4       22    16  31    4.1646   402.5    6.184      29.638
2015    4       22    16  37    4.1665   402.4    6.191      29.635
2015    4       22    16  43    4.1684   402.3    6.198      29.632
2015    4       22    16  49    4.1704   402.1    6.205      29.630
2015    4       22    16  54    4.1723   402.0    6.213      29.628
2015    4       22    17   0    4.1744   401.9    6.221      29.627
2015    4       22    17   6    4.1764   401.8    6.229      29.626
2015    4       22    17  12    4.1785   401.6    6.237      29.625
2015    4       22    17  18    4.1806   401.5    6.245      29.625
2015    4       22    17  24    4.1827   401.4    6.253      29.626
2015    4       22    17  30    4.1849   401.3    6.262      29.627
2015    4       22    17  35    4.1871   401.2    6.270      29.628
2015    4       22    17  41    4.1892   401.0    6.279      29.630
2015    4       22    17  47    4.1914   400.9    6.288      29.632
2015    4       22    17  53    4.1936   400.8    6.297      29.634
2015    4       22    17  59    4.1958   400.7    6.306      29.637
2015    4       22    18   5    4.1980   400.6    6.315      29.640
2015    4       22    18  11    4.2002   400.5    6.324      29.643
2015    4       22    18  16    4.2024   400.4    6.333      29.647
2015    4       22    18  22    4.2046   400.2    6.343      29.651
2015    4       22    18  28    4.2068   400.1    6.352      29.655
2015    4       22    18  34    4.2090   400.0    6.361      29.660
2015    4       22    18  40    4.2112   399.9    6.370      29.666
2015    4       22    18  46    4.2134   399.8    6.379      29.671
2015    4       22    18  51    4.2157   399.7    6.388      29.677
2015    4       22    18  57    4.2179   399.6    6.398      29.684
2015    4       22    19   3    4.2201   399.5    6.407      29.691
2015    4       22    19   9    4.2224   399.3    6.416      29.698
2015    4       22    19  15    4.2246   399.2    6.424      29.705
2015    4       22    19  21    4.2268   399.1    6.433      29.713
2015    4       22    19  27    4.2290   399.0    6.442      29.721
2015    4       22    19  32    4.2313   398.9    6.451      29.729
2015    4       22    19  38    4.2335   398.8    6.460      29.737
2015    4       22    19  44    4.2357   398.7    6.468      29.745
2015    4       22    19  50    4.2379   398.6    6.477      29.754
2015    4       22    19  56    4.2402   398.5    6.485      29.762
2015    4       22    20   2    4.2424   398.4    6.493      29.770
2015    4       22    20   7    4.2446   398.3    6.502      29.778
2015    4       22    20  13    4.2468   398.2    6.510      29.786
2015    4       22    20  19    4.2490   398.1    6.518      29.794
2015    4       22    20  25    4.2512   398.0    6.526      29.801
2015    4       22    20  31    4.2534   397.9    6.534      29.809
2015    4       22    20  37    4.2557   397.8    6.542      29.816
2015    4       22    20  43    4.2579   397.6    6.550      29.823
2015    4       22    20  48    4.2601   397.5    6.558      29.831
2015    4       22    20  54    4.2623   397.4    6.565      29.837
2015    4       22    21   0    4.2645   397.3    6.573      29.844
2015    4       22    21   6    4.2667   397.2    6.580      29.851
2015    4       22    21  12    4.2689   397.1    6.588      29.857
2015    4       22    21  18    4.2711   397.0    6.595      29.864
2015    4       22    21  23    4.2733   396.9    6.603      29.870
2015    4       22    21  29    4.2756   396.8    6.610      29.876
2015    4       22    21  35    4.2778   396.7    6.617      29.882
2015    4       22    21  41    4.2800   396.6    6.624      29.888
2015    4       22    21  47    4.2822   396.5    6.631      29.894
2015    4       22    21  53    4.2845   396.4    6.638      29.900
2015    4       22    21  59    4.2867   396.3    6.645      29.905
2015    4       22    22   4    4.2889   396.3    6.652      29.911
2015    4       22    22  10    4.2912   396.2    6.659      29.917
2015    4       22    22  16    4.2934   396.1    6.666      29.922
2015    4       22    22  22    4.2957   396.0    6.672      29.928
2015    4       22    22  28    4.2979   395.9    6.679      29.933
2015    4       22    22  34    4.3002   395.8    6.686      29.939
2015    4       22    22  39    4.3024   395.7    6.692      29.944
2015    4       22    22  45    4.3047   395.6    6.699      29.950
2015    4       22    22  51    4.3069   395.5    6.705      29.955
2015    4       22    22  57    4.3092   395.4    6.712      29.960
2015    4       22    23   3    4.3115   395.3    6.718      29.965
2015    4       22    23   9    4.3137   395.2    6.724      29.971
2015    4       22    23  15    4.3160   395.1    6.731      29.976
2015    4       22    23  20    4.3183   395.0    6.737      29.981
2015    4       22    23  26    4.3206   395.0    6.743      29.986
2015    4       22    23  32    4.3228   394.9    6.750      29.991
2015    4       22    23  38    4.3251   394.8    6.756      29.997
2015    4       22    23  44    4.3274   394.7    6.762      30.002
2015    4       22    23  50    4.3297   394.6    6.769      30.007
2015    4       22    23  55    4.3320   394.5    6.775      30.013
2015    4       23     0   1    4.3343   394.4    6.781      30.018
2015    4       23     0   7    4.3366   394.3    6.788      30.023
2015    4       23     0  13    4.3389   394.3    6.794      30.029
2015    4       23     0  19    4.3412   394.2    6.800      30.035
2015    4       23     0  25    4.3436   394.1    6.807      30.040
2015    4       23     0  31    4.3459   394.0    6.813      30.046
2015    4       23     0  36    4.3482   393.9    6.819      30.052
2015    4       23     0  42    4.3506   393.8    6.826      30.058
2015    4       23     0  48    4.3529   393.8    6.832      30.064
2015    4       23     0  54    4.3552   393.7    6.839      30.070
2015    4       23     1   0    4.3576   393.6    6.845      30.076
2015    4       23     1   6    4.3600   393.5    6.852      30.083
2015    4       23     1  11    4.3623   393.4    6.859      30.089
2015    4       23     1  17    4.3647   393.4    6.865      30.096
2015    4       23     1  23    4.3671   393.3    6.872      30.103
2015    4       23     1  29    4.3694   393.2    6.879      30.110
2015    4       23     1  35    4.3718   393.1    6.886      30.117
2015    4       23     1  41    4.3742   393.0    6.893      30.124
2015    4       23     1  47    4.3766   393.0    6.900      30.131
2015    4       23     1  52    4.3790   392.9    6.907      30.139
2015    4       23     1  58    4.3815   392.8    6.914      30.147
2015    4       23     2   4    4.3839   392.7    6.921      30.155
2015    4       23     2  10    4.3863   392.7    6.928      30.163
2015    4       23     2  16    4.3887   392.6    6.935      30.171
2015    4       23     2  22    4.3911   392.5    6.942      30.180
2015    4       23     2  27    4.3935   392.5    6.950      30.189
2015    4       23     2  33    4.3959   392.4    6.957      30.198
2015    4       23     2  39    4.3983   392.3    6.964      30.208
2015    4       23     2  45    4.4008   392.2    6.971      30.217
2015    4       23     2  51    4.4031   392.2    6.979      30.227
2015    4       23     2  57    4.4055   392.1    6.986      30.237
2015    4       23     3   3    4.4079   392.0    6.993      30.247
2015    4       23     3   8    4.4103   392.0    7.000      30.258
2015    4       23     3  14    4.4126   391.9    7.007      30.268
2015    4       23     3  20    4.4150   391.8    7.015      30.279
2015    4       23     3  26    4.4173   391.8    7.022      30.289
2015    4       23     3  32    4.4197   391.7    7.029      30.299
2015    4       23     3  38    4.4220   391.6    7.036      30.310
2015    4       23     3  43    4.4243   391.6    7.043      30.320
2015    4       23     3  49    4.4266   391.5    7.050      30.331
2015    4       23     3  55    4.4289   391.4    7.057      30.342
2015    4       23     4   1    4.4311   391.4    7.064      30.352
2015    4       23     4   7    4.4334   391.3    7.071      30.362
2015    4       23     4  13    4.4356   391.2    7.078      30.373
2015    4       23     4  19    4.4379   391.2    7.085      30.383
2015    4       23     4  24    4.4401   391.1    7.092      30.393
2015    4       23     4  30    4.4423   391.1    7.099      30.404
2015    4       23     4  36    4.4446   391.0    7.106      30.414
2015    4       23     4  42    4.4468   390.9    7.112      30.425
2015    4       23     4  48    4.4490   390.9    7.119      30.435
2015    4       23     4  54    4.4512   390.8    7.125      30.446
2015    4       23     4  59    4.4534   390.7    7.132      30.456
2015    4       23     5   5    4.4555   390.7    7.138      30.467
2015    4       23     5  11    4.4577   390.6    7.144      30.478
2015    4       23     5  17    4.4599   390.6    7.151      30.488
2015    4       23     5  23    4.4621   390.5    7.157      30.499
2015    4       23     5  29    4.4642   390.4    7.163      30.510
2015    4       23     5  35    4.4664   390.4    7.169      30.520
2015    4       23     5  40    4.4686   390.3    7.175      30.531
2015    4       23     5  46    4.4707   390.2    7.181      30.541
2015    4       23     5  52    4.4729   390.2    7.187      30.551
2015    4       23     5  58    4.4750   390.1    7.192      30.561
2015    4       23     6   4    4.4771   390.1    7.198      30.572
2015    4       23     6  10    4.4793   390.0    7.204      30.582
2015    4       23     6  15    4.4814   389.9    7.209      30.591
2015    4       23     6  21    4.4835   389.9    7.215      30.601
2015    4       23     6  27    4.4857   389.8    7.220      30.611
2015    4       23     6  33    4.4878   389.8    7.226      30.620
2015    4       23     6  39    4.4899   389.7    7.231      30.630
2015    4       23     6  45    4.4920   389.6    7.236      30.639
2015    4       23     6  51    4.4941   389.6    7.241      30.648
2015    4       23     6  56    4.4962   389.5    7.247      30.657
2015    4       23     7   2    4.4983   389.5    7.252      30.665
2015    4       23     7   8    4.5004   389.4    7.257      30.674
2015    4       23     7  14    4.5025   389.3    7.262      30.682
2015    4       23     7  20    4.5045   389.3    7.267      30.690
2015    4       23     7  26    4.5066   389.2    7.272      30.698
2015    4       23     7  32    4.5087   389.2    7.277      30.706
2015    4       23     7  37    4.5108   389.1    7.282      30.714
2015    4       23     7  43    4.5128   389.1    7.287      30.722
2015    4       23     7  49    4.5149   389.0    7.291      30.729
2015    4       23     7  55    4.5170   389.0    7.296      30.737
2015    4       23     8   1    4.5190   388.9    7.301      30.744
2015    4       23     8   7    4.5211   388.8    7.306      30.751
2015    4       23     8  12    4.5232   388.8    7.310      30.758
2015    4       23     8  18    4.5252   388.7    7.315      30.765
2015    4       23     8  24    4.5273   388.7    7.320      30.772
2015    4       23     8  30    4.5293   388.6    7.324      30.779
2015    4       23     8  36    4.5314   388.6    7.329      30.786
2015    4       23     8  42    4.5334   388.5    7.334      30.793
2015    4       23     8  48    4.5355   388.5    7.338      30.800
2015    4       23     8  53    4.5375   388.4    7.343      30.807
2015    4       23     8  59    4.5396   388.4    7.348      30.814
2015    4       23     9   5    4.5416   388.3    7.352      30.821
2015    4       23     9  11    4.5437   388.3    7.357      30.828
2015    4       23     9  17    4.5458   388.2    7.362      30.834
2015    4       23     9  23    4.5478   388.2    7.366      30.841
2015    4       23     9  28    4.5499   388.1    7.371      30.849
2015    4       23     9  34    4.5520   388.1    7.376      30.856
2015    4       23     9  40    4.5540   388.0    7.380      30.863
2015    4       23     9  46    4.5561   388.0    7.385      30.870
2015    4       23     9  52    4.5582   387.9    7.390      30.878
2015    4       23     9  58    4.5602   387.9    7.395      30.885
2015    4       23    10   4    4.5623   387.8    7.400      30.893
2015    4       23    10   9    4.5644   387.8    7.404      30.900
2015    4       23    10  15    4.5665   387.7    7.409      30.908
2015    4       23    10  21    4.5686   387.7    7.414      30.916
2015    4       23    10  27    4.5707   387.6    7.419      30.924
2015    4       23    10  33    4.5728   387.6    7.424      30.932
2015    4       23    10  39    4.5748   387.5    7.429      30.941
2015    4       23    10  44    4.5769   387.5    7.434      30.949
2015    4       23    10  50    4.5790   387.5    7.439      30.958
2015    4       23    10  56    4.5811   387.4    7.444      30.966
2015    4       23    11   2    4.5831   387.4    7.449      30.975
2015    4       23    11   8    4.5852   387.3    7.454      30.984
2015    4       23    11  14    4.5873   387.3    7.459      30.992
2015    4       23    11  20    4.5893   387.2    7.464      31.002
2015    4       23    11  25    4.5914   387.2    7.469      31.011
2015    4       23    11  31    4.5935   387.2    7.474      31.020
2015    4       23    11  37    4.5955   387.1    7.479      31.029
2015    4       23    11  43    4.5976   387.1    7.485      31.038
2015    4       23    11  49    4.5996   387.0    7.490      31.048
2015    4       23    11  55    4.6017   387.0    7.495      31.057
2015    4       23    12   0    4.6038   387.0    7.500      31.067
2015    4       23    12   6    4.6058   386.9    7.505      31.076
2015    4       23    12  12    4.6079   386.9    7.510      31.086
2015    4       23    12  18    4.6100   386.8    7.515      31.096
2015    4       23    12  24    4.6120   386.8    7.520      31.106
2015    4       23    12  30    4.6141   386.8    7.525      31.115
2015    4       23    12  36    4.6162   386.7    7.530      31.125
2015    4       23    12  41    4.6182   386.7    7.534      31.135
2015    4       23    12  47    4.6203   386.6    7.539      31.145
2015    4       23    12  53    4.6224   386.6    7.544      31.155
2015    4       23    12  59    4.6245   386.6    7.549      31.165
2015    4       23    13   5    4.6265   386.5    7.554      31.174
2015    4       23    13  11    4.6286   386.5    7.559      31.184
2015    4       23    13  16    4.6307   386.4    7.563      31.194
2015    4       23    13  22    4.6328   386.4    7.568      31.204
2015    4       23    13  28    4.6349   386.4    7.573      31.214
2015    4       23    13  34    4.6370   386.3    7.578      31.223
2015    4       23    13  40    4.6391   386.3    7.582      31.233
2015    4       23    13  46    4.6412   386.3    7.587      31.242
2015    4       23    13  52    4.6433   386.2    7.592      31.252
2015    4       23    13  57    4.6454   386.2    7.596      31.261
2015    4       23    14   3    4.6475   386.2    7.601      31.270
2015    4       23    14   9    4.6495   386.1    7.605      31.279
2015    4       23    14  15    4.6516   386.1    7.610      31.288
2015    4       23    14  21    4.6537   386.0    7.614      31.297
2015    4       23    14  27    4.6558   386.0    7.619      31.306
2015    4       23    14  32    4.6579   386.0    7.623      31.315
2015    4       23    14  38    4.6599   385.9    7.627      31.324
2015    4       23    14  44    4.6620   385.9    7.631      31.332
2015    4       23    14  50    4.6640   385.9    7.636      31.341
2015    4       23    14  56    4.6661   385.8    7.640      31.349
2015    4       23    15   2    4.6682   385.8    7.644      31.358
2015    4       23    15   8    4.6702   385.8    7.648      31.366
2015    4       23    15  13    4.6723   385.7    7.652      31.374
2015    4       23    15  19    4.6743   385.7    7.656      31.382
2015    4       23    15  25    4.6763   385.7    7.660      31.390
2015    4       23    15  31    4.6784   385.6    7.664      31.398
2015    4       23    15  37    4.6804   385.6    7.668      31.405
2015    4       23    15  43    4.6824   385.6    7.672      31.413
2015    4       23    15  48    4.6844   385.5    7.676      31.420
2015    4       23    15  54    4.6864   385.5    7.680      31.428
2015    4       23    16   0    4.6885   385.5    7.684      31.435
2015    4       23    16   6    4.6905   385.4    7.688      31.443
2015    4       23    16  12    4.6925   385.4    7.692      31.450
2015    4       23    16  18    4.6945   385.4    7.696      31.457
2015    4       23    16  24    4.6965   385.3    7.700      31.464
2015    4       23    16  29    4.6985   385.3    7.704      31.471
2015    4       23    16  35    4.7005   385.3    7.708      31.479
2015    4       23    16  41    4.7024   385.2    7.711      31.486
2015    4       23    16  47    4.7044   385.2    7.715      31.493
2015    4       23    16  53    4.7064   385.2    7.719      31.500
2015    4       23    16  59    4.7084   385.1    7.723      31.507
2015    4       23    17   5    4.7104   385.1    7.727      31.515
2015    4       23    17  10    4.7124   385.1    7.731      31.522
2015    4       23    17  16    4.7143   385.1    7.735      31.529
2015    4       23    17  22    4.7163   385.0    7.739      31.537
2015    4       23    17  28    4.7183   385.0    7.743      31.544
2015    4       23    17  34    4.7202   385.0    7.747      31.552
2015    4       23    17  40    4.7222   384.9    7.751      31.559
2015    4       23    17  45    4.7241   384.9    7.755      31.567
2015    4       23    17  51    4.7261   384.9    7.759      31.575
2015    4       23    17  57    4.7280   384.9    7.764      31.582
2015    4       23    18   3    4.7300   384.8    7.768      31.590
2015    4       23    18   9    4.7319   384.8    7.772      31.599
2015    4       23    18  15    4.7339   384.8    7.776      31.607
2015    4       23    18  21    4.7358   384.8    7.781      31.615
2015    4       23    18  26    4.7377   384.7    7.785      31.624
2015    4       23    18  32    4.7397   384.7    7.790      31.632
2015    4       23    18  38    4.7416   384.7    7.794      31.641
2015    4       23    18  44    4.7435   384.7    7.799      31.650
2015    4       23    18  50    4.7454   384.6    7.804      31.659
2015    4       23    18  56    4.7473   384.6    7.808      31.668
2015    4       23    19   1    4.7493   384.6    7.813      31.678
2015    4       23    19   7    4.7512   384.6    7.818      31.687
2015    4       23    19  13    4.7531   384.5    7.823      31.697
2015    4       23    19  19    4.7550   384.5    7.828      31.707
2015    4       23    19  25    4.7569   384.5    7.833      31.716
2015    4       23    19  31    4.7588   384.5    7.838      31.727
2015    4       23    19  37    4.7607   384.5    7.843      31.737
2015    4       23    19  42    4.7626   384.4    7.848      31.747
2015    4       23    19  48    4.7644   384.4    7.853      31.758
2015    4       23    19  54    4.7663   384.4    7.858      31.768
2015    4       23    20   0    4.7681   384.4    7.864      31.779
2015    4       23    20   6    4.7700   384.4    7.869      31.791
2015    4       23    20  12    4.7718   384.4    7.874      31.802
2015    4       23    20  17    4.7736   384.3    7.879      31.814
2015    4       23    20  23    4.7754   384.3    7.885      31.826
2015    4       23    20  29    4.7772   384.3    7.890      31.838
2015    4       23    20  35    4.7790   384.3    7.895      31.851
2015    4       23    20  41    4.7808   384.3    7.900      31.863
2015    4       23    20  47    4.7825   384.3    7.906      31.876
2015    4       23    20  53    4.7843   384.2    7.911      31.889
2015    4       23    20  58    4.7860   384.2    7.916      31.902
2015    4       23    21   4    4.7878   384.2    7.921      31.915
2015    4       23    21  10    4.7895   384.2    7.926      31.927
2015    4       23    21  16    4.7913   384.2    7.931      31.940
2015    4       23    21  22    4.7930   384.2    7.936      31.953
2015    4       23    21  28    4.7948   384.2    7.941      31.966
2015    4       23    21  33    4.7965   384.2    7.946      31.979
2015    4       23    21  39    4.7983   384.1    7.951      31.992
2015    4       23    21  45    4.8001   384.1    7.956      32.005
2015    4       23    21  51    4.8018   384.1    7.961      32.018
2015    4       23    21  57    4.8036   384.1    7.966      32.031
2015    4       23    22   3    4.8053   384.1    7.971      32.044
2015    4       23    22   9    4.8071   384.1    7.976      32.057
2015    4       23    22  14    4.8088   384.1    7.980      32.070
2015    4       23    22  20    4.8105   384.1    7.985      32.083
2015    4       23    22  26    4.8122   384.1    7.989      32.096
2015    4       23    22  32    4.8139   384.1    7.993      32.109
2015    4       23    22  38    4.8156   384.1    7.998      32.121
2015    4       23    22  44    4.8172   384.1    8.002      32.133
2015    4       23    22  49    4.8189   384.1    8.006      32.145
2015    4       23    22  55    4.8205   384.1    8.010      32.156
2015    4       23    23   1    4.8222   384.1    8.014      32.167
2015    4       23    23   7    4.8238   384.0    8.017      32.178
2015    4       23    23  13    4.8254   384.0    8.021      32.189
2015    4       23    23  19    4.8270   384.0    8.025      32.199
2015    4       23    23  25    4.8286   384.0    8.028      32.210
2015    4       23    23  30    4.8302   384.0    8.032      32.220
2015    4       23    23  36    4.8318   384.0    8.035      32.229
2015    4       23    23  42    4.8333   384.0    8.038      32.239
2015    4       23    23  48    4.8349   384.0    8.042      32.248
2015    4       23    23  54    4.8365   384.0    8.045      32.257
2015    4       24     0   0    4.8380   384.0    8.048      32.266
2015    4       24     0   5    4.8395   384.0    8.051      32.275
2015    4       24     0  11    4.8410   384.0    8.054      32.283
2015    4       24     0  17    4.8426   384.0    8.057      32.291
2015    4       24     0  23    4.8441   384.0    8.060      32.299
2015    4       24     0  29    4.8456   384.0    8.062      32.307
2015    4       24     0  35    4.8471   384.0    8.065      32.315
2015    4       24     0  41    4.8486   384.0    8.068      32.323
2015    4       24     0  46    4.8500   384.0    8.071      32.330
2015    4       24     0  52    4.8515   384.0    8.073      32.338
2015    4       24     0  58    4.8530   384.0    8.076      32.345
2015    4       24     1   4    4.8544   384.0    8.078      32.352
2015    4       24     1  10    4.8559   384.0    8.081      32.359
2015    4       24     1  16    4.8574   384.0    8.083      32.366
2015    4       24     1  21    4.8588   384.0    8.086      32.373
2015    4       24     1  27    4.8602   383.9    8.088      32.380
2015    4       24     1  33    4.8617   383.9    8.091      32.386
2015    4       24     1  39    4.8631   383.9    8.093      32.393
2015    4       24     1  45    4.8645   383.9    8.096      32.399
2015    4       24     1  51    4.8660   383.9    8.098      32.406
2015    4       24     1  57    4.8674   383.9    8.100      32.412
2015    4       24     2   2    4.8688   383.9    8.102      32.419
2015    4       24     2   8    4.8702   383.9    8.105      32.425
2015    4       24     2  14    4.8716   383.9    8.107      32.432
2015    4       24     2  20    4.8730   383.9    8.109      32.438
2015    4       24     2  26    4.8745   383.9    8.112      32.444
2015    4       24     2  32    4.8759   383.9    8.114      32.451
2015    4       24     2  37    4.8773   383.9    8.116      32.458
2015    4       24     2  43    4.8787   383.9    8.119      32.464
2015    4       24     2  49    4.8801   383.9    8.121      32.471
2015    4       24     2  55    4.8815   383.9    8.123      32.477
2015    4       24     3   1    4.8829   383.9    8.125      32.484
2015    4       24     3   7    4.8843   383.9    8.128      32.491
2015    4       24     3  13    4.8857   383.9    8.130      32.498
2015    4       24     3  18    4.8871   383.9    8.133      32.505
2015    4       24     3  24    4.8885   383.9    8.135      32.512
2015    4       24     3  30    4.8900   383.9    8.138      32.519
2015    4       24     3  36    4.8914   383.9    8.140      32.526
2015    4       24     3  42    4.8928   383.9    8.143      32.534
2015    4       24     3  48    4.8943   383.9    8.146      32.542
2015    4       24     3  53    4.8957   383.9    8.149      32.550
2015    4       24     3  59    4.8971   383.9    8.151      32.557
2015    4       24     4   5    4.8986   383.9    8.154      32.566
2015    4       24     4  11    4.9001   383.9    8.157      32.574
2015    4       24     4  17    4.9015   383.9    8.161      32.583
2015    4       24     4  23    4.9030   383.9    8.164      32.591
2015    4       24     4  29    4.9045   383.9    8.167      32.600
2015    4       24     4  34    4.9059   383.9    8.171      32.609
2015    4       24     4  40    4.9074   383.9    8.174      32.619
2015    4       24     4  46    4.9089   383.9    8.178      32.628
2015    4       24     4  52    4.9104   383.9    8.182      32.638
2015    4       24     4  58    4.9120   383.9    8.185      32.648
2015    4       24     5   4    4.9135   383.9    8.190      32.659
2015    4       24     5  10    4.9151   383.9    8.194      32.669
2015    4       24     5  15    4.9167   383.9    8.198      32.680
2015    4       24     5  21    4.9183   383.9    8.202      32.691
2015    4       24     5  27    4.9199   383.9    8.207      32.703
2015    4       24     5  33    4.9215   384.0    8.212      32.714
2015    4       24     5  39    4.9230   384.0    8.217      32.726
2015    4       24     5  45    4.9246   384.0    8.222      32.739
2015    4       24     5  50    4.9262   384.0    8.227      32.752
2015    4       24     5  56    4.9277   384.0    8.232      32.765
2015    4       24     6   2    4.9292   384.0    8.237      32.778
2015    4       24     6   8    4.9307   384.0    8.242      32.792
2015    4       24     6  14    4.9322   384.0    8.247      32.806
2015    4       24     6  20    4.9337   384.1    8.252      32.821
2015    4       24     6  26    4.9351   384.1    8.257      32.835
2015    4       24     6  31    4.9365   384.1    8.262      32.850
2015    4       24     6  37    4.9378   384.1    8.266      32.864
2015    4       24     6  43    4.9391   384.1    8.271      32.878
2015    4       24     6  49    4.9404   384.1    8.276      32.892
2015    4       24     6  55    4.9416   384.2    8.281      32.906
2015    4       24     7   1    4.9428   384.2    8.285      32.920
2015    4       24     7   6    4.9440   384.2    8.290      32.934
2015    4       24     7  12    4.9451   384.2    8.294      32.948
2015    4       24     7  18    4.9462   384.2    8.299      32.962
2015    4       24     7  24    4.9472   384.3    8.303      32.975
2015    4       24     7  30    4.9482   384.3    8.307      32.989
2015    4       24     7  36    4.9492   384.3    8.311      33.002
2015    4       24     7  42    4.9502   384.3    8.314      33.016
2015    4       24     7  47    4.9511   384.4    8.318      33.028
2015    4       24     7  53    4.9520   384.4    8.322      33.041
2015    4       24     7  59    4.9528   384.4    8.325      33.053
2015    4       24     8   5    4.9537   384.4    8.328      33.065
2015    4       24     8  11    4.9545   384.4    8.331      33.076
2015    4       24     8  17    4.9553   384.4    8.334      33.087
2015    4       24     8  22    4.9560   384.5    8.337      33.098
2015    4       24     8  28    4.9568   384.5    8.340      33.109
2015    4       24     8  34    4.9575   384.5    8.343      33.120
2015    4       24     8  40    4.9582   384.5    8.345      33.130
2015    4       24     8  46    4.9589   384.5    8.348      33.139
2015    4       24     8  52    4.9596   384.6    8.350      33.149
2015    4       24     8  58    4.9603   384.6    8.353      33.158
2015    4       24     9   3    4.9609   384.6    8.355      33.168
2015    4       24     9   9    4.9615   384.6    8.357      33.176
2015    4       24     9  15    4.9622   384.6    8.360      33.185
2015    4       24     9  21    4.9628   384.6    8.362      33.194
2015    4       24     9  27    4.9634   384.7    8.364      33.202
2015    4       24     9  33    4.9640   384.7    8.366      33.210
2015    4       24     9  38    4.9645   384.7    8.368      33.218
2015    4       24     9  44    4.9651   384.7    8.370      33.225
2015    4       24     9  50    4.9657   384.7    8.372      33.233
2015    4       24     9  56    4.9662   384.7    8.374      33.240
2015    4       24    10   2    4.9667   384.8    8.376      33.247
2015    4       24    10   8    4.9672   384.8    8.377      33.254
2015    4       24    10  14    4.9677   384.8    8.379      33.261
2015    4       24    10  19    4.9683   384.8    8.381      33.267
2015    4       24    10  25    4.9687   384.8    8.382      33.273
2015    4       24    10  31    4.9692   384.9    8.384      33.279
2015    4       24    10  37    4.9697   384.9    8.386      33.285
2015    4       24    10  43    4.9701   384.9    8.387      33.291
2015    4       24    10  49    4.9706   384.9    8.389      33.296
2015    4       24    10  54    4.9710   384.9    8.390      33.301
2015    4       24    11   0    4.9714   384.9    8.391      33.306
2015    4       24    11   6    4.9718   385.0    8.393      33.311
2015    4       24    11  12    4.9722   385.0    8.394      33.316
2015    4       24    11  18    4.9726   385.0    8.395      33.321
2015    4       24    11  24    4.9729   385.0    8.397      33.325
2015    4       24    11  30    4.9733   385.0    8.398      33.330
2015    4       24    11  35    4.9736   385.1    8.399      33.334
2015    4       24    11  41    4.9740   385.1    8.400      33.338
2015    4       24    11  47    4.9743   385.1    8.402      33.342
2015    4       24    11  53    4.9746   385.1    8.403      33.346
2015    4       24    11  59    4.9749   385.1    8.404      33.350
2015    4       24    12   5    4.9752   385.1    8.405      33.354
2015    4       24    12  10    4.9755   385.2    8.406      33.358
2015    4       24    12  16    4.9758   385.2    8.407      33.361
2015    4       24    12  22    4.9761   385.2    8.409      33.365
2015    4       24    12  28    4.9763   385.2    8.410      33.369
2015    4       24    12  34    4.9766   385.2    8.411      33.372
2015    4       24    12  40    4.9769   385.3    8.412      33.376
2015    4       24    12  46    4.9771   385.3    8.413      33.380
2015    4       24    12  51    4.9774   385.3    8.415      33.383
2015    4       24    12  57    4.9776   385.3    8.416      33.387
2015    4       24    13   3    4.9779   385.3    8.417      33.390
2015    4       24    13   9    4.9781   385.3    8.419      33.394
2015    4       24    13  15    4.9783   385.4    8.420      33.398
2015    4       24    13  21    4.9785   385.4    8.421      33.401
2015    4       24    13  27    4.9787   385.4    8.423      33.405
2015    4       24    13  32    4.9790   385.4    8.424      33.409
2015    4       24    13  38    4.9792   385.4    8.425      33.412
2015    4       24    13  44    4.9794   385.5    8.426      33.416
2015    4       24    13  50    4.9796   385.5    8.428      33.419
2015    4       24    13  56    4.9797   385.5    8.429      33.423
2015    4       24    14   2    4.9799   385.5    8.430      33.426
2015    4       24    14   7    4.9801   385.5    8.431      33.429
2015    4       24    14  13    4.9802   385.6    8.432      33.432
2015    4       24    14  19    4.9804   385.6    8.432      33.434
2015    4       24    14  25    4.9805   385.6    8.433      33.436
2015    4       24    14  31    4.9807   385.6    8.434      33.438
2015    4       24    14  37    4.9808   385.6    8.434      33.440
2015    4       24    14  43    4.9809   385.7    8.435      33.442
2015    4       24    14  48    4.9810   385.7    8.435      33.443
2015    4       24    14  54    4.9811   385.7    8.436      33.444
2015    4       24    15   0    4.9812   385.7    8.436      33.446
2015    4       24    15   6    4.9813   385.7    8.436      33.446
2015    4       24    15  12    4.9814   385.8    8.437      33.447
2015    4       24    15  18    4.9815   385.8    8.437      33.447
2015    4       24    15  23    4.9816   385.8    8.437      33.448
2015    4       24    15  29    4.9817   385.8    8.437      33.448
2015    4       24    15  35    4.9817   385.8    8.437      33.448
2015    4       24    15  41    4.9818   385.8    8.437      33.448
2015    4       24    15  47    4.9819   385.9    8.437      33.447
2015    4       24    15  53    4.9819   385.9    8.437      33.447
2015    4       24    15  59    4.9820   385.9    8.437      33.446
2015    4       24    16   4    4.9821   385.9    8.437      33.446
2015    4       24    16  10    4.9821   385.9    8.437      33.445
2015    4       24    16  16    4.9822   386.0    8.437      33.444
2015    4       24    16  22    4.9823   386.0    8.436      33.443
2015    4       24    16  28    4.9823   386.0    8.436      33.442
2015    4       24    16  34    4.9824   386.0    8.436      33.441
2015    4       24    16  39    4.9825   386.0    8.436      33.439
2015    4       24    16  45    4.9825   386.1    8.435      33.438
2015    4       24    16  51    4.9826   386.1    8.435      33.437
2015    4       24    16  57    4.9827   386.1    8.435      33.435
2015    4       24    17   3    4.9828   386.1    8.434      33.433
2015    4       24    17   9    4.9829   386.1    8.434      33.432
2015    4       24    17  15    4.9830   386.1    8.434      33.430
2015    4       24    17  20    4.9831   386.2    8.433      33.428
2015    4       24    17  26    4.9832   386.2    8.433      33.426
2015    4       24    17  32    4.9833   386.2    8.433      33.424
2015    4       24    17  38    4.9835   386.2    8.432      33.422
2015    4       24    17  44    4.9836   386.3    8.432      33.420
2015    4       24    17  50    4.9836   386.3    8.432      33.418
2015    4       24    17  55    4.9837   386.3    8.431      33.416
2015    4       24    18   1    4.9838   386.3    8.431      33.413
2015    4       24    18   7    4.9838   386.3    8.431      33.411
2015    4       24    18  13    4.9839   386.4    8.430      33.409
2015    4       24    18  19    4.9839   386.4    8.430      33.407
2015    4       24    18  25    4.9839   386.4    8.430      33.404
2015    4       24    18  31    4.9839   386.4    8.430      33.402
2015    4       24    18  36    4.9838   386.4    8.429      33.399
2015    4       24    18  42    4.9837   386.5    8.429      33.397
2015    4       24    18  48    4.9836   386.5    8.429      33.394
2015    4       24    18  54    4.9835   386.5    8.429      33.392
2015    4       24    19   0    4.9834   386.5    8.429      33.389
2015    4       24    19   6    4.9832   386.6    8.428      33.386
2015    4       24    19  11    4.9831   386.6    8.428      33.384
2015    4       24    19  17    4.9829   386.6    8.428      33.381
2015    4       24    19  23    4.9826   386.6    8.428      33.378
2015    4       24    19  29    4.9824   386.6    8.427      33.376
2015    4       24    19  35    4.9821   386.7    8.427      33.373
2015    4       24    19  41    4.9818   386.7    8.427      33.370
2015    4       24    19  47    4.9816   386.7    8.426      33.366
2015    4       24    19  52    4.9812   386.7    8.426      33.363
2015    4       24    19  58    4.9809   386.8    8.426      33.360
2015    4       24    20   4    4.9805   386.8    8.425      33.357
2015    4       24    20  10    4.9802   386.8    8.425      33.353
2015    4       24    20  16    4.9798   386.8    8.425      33.350
2015    4       24    20  22    4.9794   386.8    8.424      33.347
2015    4       24    20  27    4.9789   386.9    8.424      33.343
2015    4       24    20  33    4.9785   386.9    8.423      33.340
2015    4       24    20  39    4.9781   386.9    8.423      33.336
2015    4       24    20  45    4.9776   386.9    8.422      33.333
2015    4       24    20  51    4.9771   386.9    8.422      33.329
2015    4       24    20  57    4.9767   387.0    8.421      33.326
2015    4       24    21   3    4.9762   387.0    8.421      33.322
2015    4       24    21   8    4.9757   387.0    8.420      33.319
2015    4       24    21  14    4.9752   387.0    8.419      33.315
2015    4       24    21  20    4.9746   387.0    8.419      33.312
2015    4       24    21  26    4.9741   387.1    8.418      33.309
2015    4       24    21  32    4.9736   387.1    8.417      33.305
2015    4       24    21  38    4.9730   387.1    8.416      33.302
2015    4       24    21  43    4.9725   387.1    8.416      33.298
2015    4       24    21  49    4.9719   387.1    8.415      33.295
2015    4       24    21  55    4.9714   387.2    8.414      33.291
2015    4       24    22   1    4.9708   387.2    8.413      33.288
2015    4       24    22   7    4.9702   387.2    8.412      33.284
2015    4       24    22  13    4.9696   387.2    8.411      33.280
2015    4       24    22  19    4.9690   387.2    8.410      33.277
2015    4       24    22  24    4.9684   387.2    8.408      33.273
2015    4       24    22  30    4.9678   387.3    8.407      33.269
2015    4       24    22  36    4.9672   387.3    8.406      33.265
2015    4       24    22  42    4.9665   387.3    8.405      33.261
2015    4       24    22  48    4.9659   387.3    8.403      33.257
2015    4       24    22  54    4.9653   387.3    8.402      33.253
2015    4       24    22  59    4.9646   387.4    8.401      33.249
2015    4       24    23   5    4.9640   387.4    8.399      33.244
2015    4       24    23  11    4.9633   387.4    8.398      33.240
2015    4       24    23  17    4.9627   387.4    8.396      33.236
2015    4       24    23  23    4.9620   387.4    8.395      33.231
2015    4       24    23  29    4.9614   387.4    8.393      33.226
2015    4       24    23  35    4.9607   387.5    8.391      33.222
2015    4       24    23  40    4.9600   387.5    8.390      33.217
2015    4       24    23  46    4.9594   387.5    8.388      33.212
2015    4       24    23  52    4.9587   387.5    8.387      33.207
2015    4       24    23  58    4.9581   387.5    8.385      33.202
2015    4       25     0   4    4.9574   387.5    8.383      33.197
2015    4       25     0  10    4.9567   387.5    8.382      33.192
2015    4       25     0  16    4.9561   387.6    8.380      33.187
2015    4       25     0  21    4.9554   387.6    8.378      33.182
2015    4       25     0  27    4.9547   387.6    8.376      33.176
2015    4       25     0  33    4.9541   387.6    8.375      33.171
2015    4       25     0  39    4.9535   387.6    8.373      33.165
2015    4       25     0  45    4.9528   387.6    8.371      33.159
2015    4       25     0  51    4.9522   387.7    8.370      33.153
2015    4       25     0  56    4.9516   387.7    8.368      33.147
2015    4       25     1   2    4.9509   387.7    8.366      33.141
2015    4       25     1   8    4.9503   387.7    8.365      33.134
2015    4       25     1  14    4.9497   387.7    8.363      33.128
2015    4       25     1  20    4.9490   387.7    8.362      33.121
2015    4       25     1  26    4.9484   387.8    8.360      33.114
2015    4       25     1  32    4.9477   387.8    8.358      33.107
2015    4       25     1  37    4.9470   387.8    8.357      33.100
2015    4       25     1  43    4.9464   387.8    8.355      33.093
2015    4       25     1  49    4.9457   387.8    8.354      33.085
2015    4       25     1  55    4.9450   387.8    8.352      33.078
2015    4       25     2   1    4.9443   387.9    8.350      33.070
2015    4       25     2   7    4.9435   387.9    8.349      33.063
2015    4       25     2  12    4.9428   387.9    8.347      33.055
2015    4       25     2  18    4.9420   387.9    8.345      33.047
2015    4       25     2  24    4.9412   387.9    8.344      33.039
2015    4       25     2  30    4.9403   388.0    8.342      33.030
2015    4       25     2  36    4.9395   388.0    8.340      33.022
2015    4       25     2  42    4.9387   388.0    8.338      33.013
2015    4       25     2  48    4.9378   388.0    8.336      33.004
2015    4       25     2  53    4.9369   388.0    8.334      32.995
2015    4       25     2  59    4.9360   388.0    8.332      32.986
2015    4       25     3   5    4.9351   388.1    8.330      32.977
2015    4       25     3  11    4.9342   388.1    8.328      32.967
2015    4       25     3  17    4.9332   388.1    8.325      32.957
2015    4       25     3  23    4.9323   388.1    8.323      32.947
2015    4       25     3  28    4.9313   388.1    8.321      32.937
2015    4       25     3  34    4.9303   388.1    8.319      32.927
2015    4       25     3  40    4.9294   388.2    8.316      32.916
2015    4       25     3  46    4.9284   388.2    8.314      32.906
2015    4       25     3  52    4.9274   388.2    8.311      32.895
2015    4       25     3  58    4.9264   388.2    8.309      32.884
2015    4       25     4   4    4.9254   388.2    8.306      32.873
2015    4       25     4   9    4.9244   388.2    8.304      32.862
2015    4       25     4  15    4.9234   388.2    8.301      32.851
2015    4       25     4  21    4.9224   388.2    8.299      32.840
2015    4       25     4  27    4.9213   388.3    8.296      32.828
2015    4       25     4  33    4.9203   388.3    8.293      32.817
2015    4       25     4  39    4.9193   388.3    8.291      32.805
2015    4       25     4  44    4.9183   388.3    8.288      32.794
2015    4       25     4  50    4.9172   388.3    8.285      32.782
2015    4       25     4  56    4.9162   388.3    8.282      32.770
2015    4       25     5   2    4.9151   388.3    8.279      32.758
2015    4       25     5   8    4.9141   388.3    8.277      32.746
2015    4       25     5  14    4.9131   388.3    8.274      32.733
2015    4       25     5  20    4.9120   388.3    8.271      32.721
2015    4       25     5  25    4.9109   388.4    8.268      32.708
2015    4       25     5  31    4.9099   388.4    8.265      32.696
2015    4       25     5  37    4.9088   388.4    8.262      32.683
2015    4       25     5  43    4.9077   388.4    8.259      32.670
2015    4       25     5  49    4.9066   388.4    8.255      32.657
2015    4       25     5  55    4.9056   388.4    8.252      32.644
2015    4       25     6   0    4.9045   388.4    8.249      32.631
2015    4       25     6   6    4.9034   388.4    8.246      32.618
2015    4       25     6  12    4.9023   388.4    8.243      32.604
2015    4       25     6  18    4.9011   388.4    8.239      32.591
2015    4       25     6  24    4.9000   388.4    8.236      32.577
2015    4       25     6  30    4.8989   388.4    8.233      32.563
2015    4       25     6  36    4.8977   388.4    8.229      32.549
2015    4       25     6  41    4.8966   388.4    8.226      32.535
2015    4       25     6  47    4.8954   388.4    8.222      32.521
2015    4       25     6  53    4.8942   388.4    8.219      32.507
2015    4       25     6  59    4.8930   388.4    8.215      32.493
2015    4       25     7   5    4.8919   388.4    8.212      32.478
2015    4       25     7  11    4.8907   388.4    8.208      32.464
2015    4       25     7  16    4.8895   388.5    8.205      32.449
2015    4       25     7  22    4.8882   388.5    8.201      32.434
2015    4       25     7  28    4.8870   388.5    8.198      32.419
2015    4       25     7  34    4.8858   388.5    8.194      32.405
2015    4       25     7  40    4.8845   388.5    8.190      32.389
2015    4       25     7  46    4.8833   388.5    8.186      32.374
2015    4       25     7  52    4.8820   388.5    8.183      32.359
2015    4       25     7  57    4.8808   388.5    8.179      32.344
2015    4       25     8   3    4.8795   388.5    8.175      32.328
2015    4       25     8   9    4.8783   388.5    8.171      32.313
2015    4       25     8  15    4.8770   388.5    8.168      32.297
2015    4       25     8  21    4.8757   388.5    8.164      32.282
2015    4       25     8  27    4.8744   388.5    8.160      32.266
2015    4       25     8  32    4.8731   388.5    8.156      32.250
2015    4       25     8  38    4.8719   388.5    8.152      32.234
2015    4       25     8  44    4.8706   388.5    8.148      32.218
2015    4       25     8  50    4.8693   388.5    8.144      32.202
2015    4       25     8  56    4.8680   388.5    8.140      32.185
2015    4       25     9   2    4.8667   388.5    8.136      32.169
2015    4       25     9   8    4.8654   388.5    8.132      32.152
2015    4       25     9  13    4.8640   388.5    8.128      32.135
2015    4       25     9  19    4.8627   388.5    8.124      32.118
2015    4       25     9  25    4.8614   388.5    8.120      32.101
2015    4       25     9  31    4.8601   388.5    8.116      32.084
2015    4       25     9  37    4.8588   388.5    8.112      32.066
2015    4       25     9  43    4.8575   388.5    8.108      32.049
2015    4       25     9  48    4.8562   388.5    8.104      32.031
2015    4       25     9  54    4.8548   388.4    8.100      32.014
2015    4       25    10   0    4.8535   388.4    8.096      31.996
2015    4       25    10   6    4.8522   388.4    8.092      31.978
2015    4       25    10  12    4.8509   388.4    8.088      31.960
2015    4       25    10  18    4.8496   388.4    8.084      31.942
2015    4       25    10  24    4.8483   388.4    8.080      31.923
2015    4       25    10  29    4.8469   388.4    8.076      31.905
2015    4       25    10  35    4.8456   388.4    8.072      31.887
2015    4       25    10  41    4.8443   388.4    8.067      31.869
2015    4       25    10  47    4.8430   388.4    8.063      31.850
2015    4       25    10  53    4.8417   388.4    8.059      31.832
2015    4       25    10  59    4.8404   388.4    8.055      31.813
2015    4       25    11   5    4.8391   388.4    8.051      31.795
2015    4       25    11  10    4.8377   388.4    8.047      31.776
2015    4       25    11  16    4.8365   388.4    8.042      31.758
2015    4       25    11  22    4.8352   388.4    8.038      31.739
2015    4       25    11  28    4.8339   388.4    8.034      31.721
2015    4       25    11  34    4.8326   388.3    8.030      31.702
2015    4       25    11  40    4.8313   388.3    8.026      31.684
2015    4       25    11  45    4.8300   388.3    8.022      31.665
2015    4       25    11  51    4.8288   388.3    8.018      31.647
2015    4       25    11  57    4.8275   388.3    8.014      31.629
2015    4       25    12   3    4.8262   388.3    8.010      31.610
2015    4       25    12   9    4.8250   388.3    8.006      31.592
2015    4       25    12  15    4.8237   388.3    8.002      31.574
2015    4       25    12  21    4.8225   388.3    7.998      31.556
2015    4       25    12  26    4.8212   388.3    7.994      31.538
2015    4       25    12  32    4.8200   388.2    7.990      31.520
2015    4       25    12  38    4.8188   388.2    7.987      31.502
2015    4       25    12  44    4.8175   388.2    7.983      31.484
2015    4       25    12  50    4.8163   388.2    7.979      31.466
2015    4       25    12  56    4.8151   388.2    7.975      31.448
2015    4       25    13   1    4.8139   388.2    7.972      31.431
2015    4       25    13   7    4.8127   388.2    7.968      31.413
2015    4       25    13  13    4.8114   388.1    7.965      31.396
2015    4       25    13  19    4.8102   388.1    7.961      31.378
2015    4       25    13  25    4.8090   388.1    7.958      31.361
2015    4       25    13  31    4.8078   388.1    7.954      31.344
2015    4       25    13  37    4.8066   388.1    7.951      31.327
2015    4       25    13  42    4.8054   388.1    7.947      31.310
2015    4       25    13  48    4.8042   388.0    7.944      31.293
2015    4       25    13  54    4.8030   388.0    7.941      31.276
2015    4       25    14   0    4.8018   388.0    7.938      31.259
2015    4       25    14   6    4.8006   388.0    7.934      31.242
2015    4       25    14  12    4.7994   388.0    7.931      31.226
2015    4       25    14  17    4.7982   388.0    7.928      31.209
2015    4       25    14  23    4.7970   387.9    7.925      31.192
2015    4       25    14  29    4.7958   387.9    7.922      31.176
2015    4       25    14  35    4.7946   387.9    7.918      31.159
2015    4       25    14  41    4.7934   387.9    7.915      31.143
2015    4       25    14  47    4.7921   387.9    7.912      31.126
2015    4       25    14  53    4.7909   387.8    7.909      31.110
2015    4       25    14  58    4.7897   387.8    7.906      31.093
2015    4       25    15   4    4.7885   387.8    7.903      31.077
2015    4       25    15  10    4.7873   387.8    7.900      31.061
2015    4       25    15  16    4.7861   387.8    7.897      31.044
2015    4       25    15  22    4.7849   387.7    7.894      31.027
2015    4       25    15  28    4.7837   387.7    7.890      31.011
2015    4       25    15  33    4.7824   387.7    7.887      30.994
2015    4       25    15  39    4.7812   387.7    7.884      30.978
2015    4       25    15  45    4.7800   387.6    7.881      30.961
2015    4       25    15  51    4.7788   387.6    7.878      30.945
2015    4       25    15  57    4.7776   387.6    7.875      30.928
2015    4       25    16   3    4.7764   387.6    7.872      30.912
2015    4       25    16   9    4.7752   387.5    7.869      30.895
2015    4       25    16  14    4.7740   387.5    7.865      30.878
2015    4       25    16  20    4.7729   387.5    7.862      30.862
2015    4       25    16  26    4.7717   387.5    7.859      30.845
2015    4       25    16  32    4.7705   387.4    7.856      30.829
2015    4       25    16  38    4.7694   387.4    7.853      30.812
2015    4       25    16  44    4.7682   387.4    7.850      30.795
2015    4       25    16  49    4.7671   387.4    7.846      30.779
2015    4       25    16  55    4.7659   387.3    7.843      30.762
2015    4       25    17   1    4.7648   387.3    7.840      30.746
2015    4       25    17   7    4.7637   387.3    7.837      30.730
2015    4       25    17  13    4.7626   387.2    7.834      30.713
2015    4       25    17  19    4.7616   387.2    7.830      30.697
2015    4       25    17  25    4.7605   387.2    7.827      30.681
2015    4       25    17  30    4.7595   387.1    7.824      30.665
2015    4       25    17  36    4.7585   387.1    7.821      30.648
2015    4       25    17  42    4.7575   387.1    7.818      30.633
2015    4       25    17  48    4.7565   387.1    7.815      30.617
2015    4       25    17  54    4.7556   387.0    7.812      30.601
2015    4       25    18   0    4.7547   387.0    7.809      30.585
2015    4       25    18   5    4.7538   387.0    7.806      30.570
2015    4       25    18  11    4.7529   386.9    7.803      30.554
2015    4       25    18  17    4.7520   386.9    7.800      30.539
2015    4       25    18  23    4.7511   386.9    7.797      30.524
2015    4       25    18  29    4.7503   386.8    7.794      30.509
2015    4       25    18  35    4.7495   386.8    7.791      30.494
2015    4       25    18  41    4.7487   386.8    7.788      30.479
2015    4       25    18  46    4.7479   386.7    7.785      30.464
2015    4       25    18  52    4.7471   386.7    7.782      30.450
2015    4       25    18  58    4.7463   386.7    7.780      30.435
2015    4       25    19   4    4.7456   386.7    7.777      30.421
2015    4       25    19  10    4.7448   386.6    7.774      30.407
2015    4       25    19  16    4.7441   386.6    7.772      30.393
2015    4       25    19  21    4.7434   386.6    7.769      30.379
2015    4       25    19  27    4.7427   386.5    7.766      30.366
2015    4       25    19  33    4.7420   386.5    7.764      30.352
2015    4       25    19  39    4.7413   386.5    7.761      30.339
2015    4       25    19  45    4.7406   386.4    7.759      30.326
2015    4       25    19  51    4.7400   386.4    7.757      30.313
2015    4       25    19  57    4.7393   386.4    7.754      30.300
2015    4       25    20   2    4.7386   386.3    7.752      30.287
2015    4       25    20   8    4.7380   386.3    7.750      30.275
2015    4       25    20  14    4.7373   386.3    7.748      30.263
2015    4       25    20  20    4.7367   386.2    7.745      30.251
2015    4       25    20  26    4.7360   386.2    7.743      30.239
2015    4       25    20  32    4.7354   386.2    7.741      30.227
2015    4       25    20  37    4.7347   386.1    7.739      30.216
2015    4       25    20  43    4.7340   386.1    7.737      30.205
2015    4       25    20  49    4.7334   386.1    7.736      30.194
2015    4       25    20  55    4.7328   386.0    7.734      30.183
2015    4       25    21   1    4.7321   386.0    7.732      30.172
2015    4       25    21   7    4.7315   386.0    7.730      30.162
2015    4       25    21  13    4.7309   385.9    7.729      30.151
2015    4       25    21  18    4.7302   385.9    7.727      30.141
2015    4       25    21  24    4.7296   385.8    7.726      30.132
2015    4       25    21  30    4.7289   385.8    7.724      30.122
2015    4       25    21  36    4.7283   385.8    7.723      30.112
2015    4       25    21  42    4.7277   385.7    7.722      30.103
2015    4       25    21  48    4.7271   385.7    7.720      30.094
2015    4       25    21  53    4.7264   385.7    7.719      30.085
2015    4       25    21  59    4.7258   385.6    7.718      30.076
2015    4       25    22   5    4.7252   385.6    7.717      30.067
2015    4       25    22  11    4.7246   385.6    7.716      30.059
2015    4       25    22  17    4.7240   385.5    7.715      30.051
2015    4       25    22  23    4.7233   385.5    7.714      30.042
2015    4       25    22  29    4.7227   385.5    7.713      30.034
2015    4       25    22  34    4.7221   385.4    7.712      30.026
2015    4       25    22  40    4.7215   385.4    7.711      30.018
2015    4       25    22  46    4.7209   385.4    7.711      30.011
2015    4       25    22  52    4.7203   385.3    7.710      30.003
2015    4       25    22  58    4.7197   385.3    7.709      29.995
2015    4       25    23   4    4.7192   385.3    7.708      29.988
2015    4       25    23  10    4.7186   385.2    7.708      29.981
2015    4       25    23  15    4.7180   385.2    7.707      29.973
2015    4       25    23  21    4.7175   385.1    7.706      29.966
2015    4       25    23  27    4.7169   385.1    7.706      29.959
2015    4       25    23  33    4.7164   385.1    7.705      29.952
2015    4       25    23  39    4.7158   385.0    7.705      29.945
2015    4       25    23  45    4.7153   385.0    7.704      29.938
2015    4       25    23  50    4.7148   385.0    7.704      29.931
2015    4       25    23  56    4.7143   384.9    7.703      29.924
2015    4       26     0   2    4.7138   384.9    7.703      29.918
2015    4       26     0   8    4.7133   384.8    7.702      29.911
2015    4       26     0  14    4.7129   384.8    7.702      29.904
2015    4       26     0  20    4.7124   384.8    7.701      29.898
2015    4       26     0  26    4.7120   384.7    7.701      29.891
2015    4       26     0  31    4.7116   384.7    7.700      29.885
2015    4       26     0  37    4.7112   384.7    7.700      29.879
2015    4       26     0  43    4.7108   384.6    7.699      29.873
2015    4       26     0  49    4.7105   384.6    7.699      29.867
2015    4       26     0  55    4.7101   384.5    7.698      29.861
2015    4       26     1   1    4.7098   384.5    7.698      29.855
2015    4       26     1   6    4.7095   384.5    7.697      29.849
2015    4       26     1  12    4.7092   384.4    7.697      29.844
2015    4       26     1  18    4.7090   384.4    7.696      29.838
2015    4       26     1  24    4.7088   384.4    7.696      29.833
2015    4       26     1  30    4.7085   384.3    7.695      29.827
2015    4       26     1  36    4.7084   384.3    7.695      29.822
2015    4       26     1  42    4.7082   384.3    7.694      29.817
2015    4       26     1  47    4.7080   384.2    7.694      29.811
2015    4       26     1  53    4.7079   384.2    7.693      29.806
2015    4       26     1  59    4.7078   384.2    7.693      29.801
2015    4       26     2   5    4.7077   384.1    7.692      29.796
2015    4       26     2  11    4.7076   384.1    7.692      29.791
2015    4       26     2  17    4.7075   384.0    7.691      29.786
2015    4       26     2  22    4.7074   384.0    7.691      29.782
2015    4       26     2  28    4.7073   384.0    7.690      29.777
2015    4       26     2  34    4.7073   383.9    7.690      29.772
2015    4       26     2  40    4.7072   383.9    7.689      29.767
2015    4       26     2  46    4.7072   383.9    7.689      29.763
2015    4       26     2  52    4.7071   383.8    7.688      29.758
2015    4       26     2  58    4.7071   383.8    7.688      29.753
2015    4       26     3   3    4.7071   383.8    7.687      29.749
2015    4       26     3   9    4.7070   383.7    7.686      29.744
2015    4       26     3  15    4.7070   383.7    7.686      29.740
2015    4       26     3  21    4.7070   383.7    7.685      29.735
2015    4       26     3  27    4.7069   383.6    7.685      29.731
2015    4       26     3  33    4.7069   383.6    7.684      29.727
2015    4       26     3  38    4.7069   383.6    7.684      29.722
2015    4       26     3  44    4.7068   383.5    7.683      29.718
2015    4       26     3  50    4.7068   383.5    7.683      29.714
2015    4       26     3  56    4.7068   383.5    7.682      29.709
2015    4       26     4   2    4.7068   383.4    7.681      29.705
2015    4       26     4   8    4.7067   383.4    7.681      29.701
2015    4       26     4  14    4.7067   383.4    7.680      29.697
2015    4       26     4  19    4.7067   383.4    7.680      29.693
2015    4       26     4  25    4.7067   383.3    7.679      29.689
2015    4       26     4  31    4.7067   383.3    7.679      29.685
2015    4       26     4  37    4.7067   383.3    7.678      29.681
2015    4       26     4  43    4.7066   383.2    7.678      29.678
2015    4       26     4  49    4.7066   383.2    7.677      29.674
2015    4       26     4  54    4.7066   383.2    7.677      29.670
2015    4       26     5   0    4.7066   383.1    7.677      29.667
2015    4       26     5   6    4.7066   383.1    7.676      29.663
2015    4       26     5  12    4.7067   383.1    7.676      29.660
2015    4       26     5  18    4.7067   383.0    7.676      29.657
2015    4       26     5  24    4.7067   383.0    7.675      29.654
2015    4       26     5  30    4.7067   383.0    7.675      29.651
2015    4       26     5  35    4.7068   382.9    7.675      29.648
2015    4       26     5  41    4.7068   382.9    7.674      29.645
2015    4       26     5  47    4.7069   382.9    7.674      29.643
2015    4       26     5  53    4.7069   382.8    7.674      29.640
2015    4       26     5  59    4.7070   382.8    7.674      29.638
2015    4       26     6   5    4.7071   382.8    7.674      29.636
2015    4       26     6  10    4.7072   382.7    7.674      29.633
2015    4       26     6  16    4.7073   382.7    7.674      29.631
2015    4       26     6  22    4.7074   382.7    7.674      29.629
2015    4       26     6  28    4.7076   382.7    7.674      29.628
2015    4       26     6  34    4.7077   382.6    7.674      29.626
2015    4       26     6  40    4.7078   382.6    7.674      29.625
2015    4       26     6  46    4.7080   382.6    7.674      29.623
2015    4       26     6  51    4.7082   382.5    7.675      29.622
2015    4       26     6  57    4.7084   382.5    7.675      29.621
2015    4       26     7   3    4.7086   382.5    7.675      29.620
2015    4       26     7   9    4.7089   382.4    7.676      29.619
2015    4       26     7  15    4.7091   382.4    7.676      29.618
2015    4       26     7  21    4.7094   382.4    7.677      29.617
2015    4       26     7  26    4.7097   382.4    7.677      29.617
2015    4       26     7  32    4.7100   382.3    7.678      29.616
2015    4       26     7  38    4.7103   382.3    7.678      29.616
2015    4       26     7  44    4.7107   382.3    7.679      29.616
2015    4       26     7  50    4.7110   382.2    7.680      29.616
2015    4       26     7  56    4.7114   382.2    7.680      29.616
2015    4       26     8   2    4.7118   382.2    7.681      29.616
2015    4       26     8   7    4.7122   382.2    7.682      29.617
2015    4       26     8  13    4.7126   382.1    7.682      29.617
2015    4       26     8  19    4.7131   382.1    7.683      29.618
2015    4       26     8  25    4.7135   382.1    7.684      29.618
2015    4       26     8  31    4.7140   382.1    7.685      29.619
2015    4       26     8  37    4.7145   382.0    7.686      29.620
2015    4       26     8  42    4.7150   382.0    7.687      29.621
2015    4       26     8  48    4.7155   382.0    7.687      29.621
2015    4       26     8  54    4.7160   381.9    7.688      29.622
2015    4       26     9   0    4.7166   381.9    7.689      29.623
2015    4       26     9   6    4.7171   381.9    7.690      29.624
2015    4       26     9  12    4.7177   381.9    7.691      29.625
2015    4       26     9  18    4.7183   381.9    7.692      29.626
2015    4       26     9  23    4.7188   381.8    7.693      29.627
2015    4       26     9  29    4.7194   381.8    7.694      29.628
2015    4       26     9  35    4.7200   381.8    7.695      29.630
2015    4       26     9  41    4.7206   381.8    7.696      29.631
2015    4       26     9  47    4.7213   381.7    7.697      29.632
2015    4       26     9  53    4.7219   381.7    7.698      29.633
2015    4       26     9  58    4.7225   381.7    7.699      29.635
2015    4       26    10   4    4.7231   381.7    7.700      29.636
2015    4       26    10  10    4.7237   381.6    7.700      29.637
2015    4       26    10  16    4.7243   381.6    7.701      29.639
2015    4       26    10  22    4.7249   381.6    7.702      29.640
2015    4       26    10  28    4.7256   381.6    7.702      29.642
2015    4       26    10  34    4.7262   381.5    7.703      29.643
2015    4       26    10  39    4.7268   381.5    7.704      29.645
2015    4       26    10  45    4.7274   381.5    7.704      29.646
2015    4       26    10  51    4.7280   381.5    7.705      29.648
2015    4       26    10  57    4.7287   381.5    7.705      29.649
2015    4       26    11   3    4.7293   381.4    7.706      29.650
2015    4       26    11   9    4.7299   381.4    7.706      29.651
2015    4       26    11  15    4.7305   381.4    7.706      29.652
2015    4       26    11  20    4.7311   381.4    7.707      29.653
2015    4       26    11  26    4.7318   381.3    7.707      29.654
2015    4       26    11  32    4.7324   381.3    7.707      29.654
2015    4       26    11  38    4.7330   381.3    7.707      29.655
2015    4       26    11  44    4.7337   381.3    7.708      29.656
2015    4       26    11  50    4.7343   381.3    7.708      29.657
2015    4       26    11  55    4.7349   381.2    7.708      29.657
2015    4       26    12   1    4.7356   381.2    7.708      29.658
2015    4       26    12   7    4.7362   381.2    7.708      29.658
2015    4       26    12  13    4.7369   381.2    7.708      29.658
2015    4       26    12  19    4.7375   381.1    7.708      29.659
2015    4       26    12  25    4.7382   381.1    7.708      29.659
2015    4       26    12  31    4.7388   381.1    7.708      29.659
2015    4       26    12  36    4.7395   381.1    7.708      29.660
2015    4       26    12  42    4.7402   381.1    7.708      29.660
2015    4       26    12  48    4.7409   381.0    7.708      29.660
2015    4       26    12  54    4.7416   381.0    7.709      29.661
2015    4       26    13   0    4.7423   381.0    7.709      29.661
2015    4       26    13   6    4.7430   381.0    7.709      29.661
2015    4       26    13  11    4.7437   381.0    7.709      29.662
2015    4       26    13  17    4.7444   380.9    7.709      29.662
2015    4       26    13  23    4.7451   380.9    7.709      29.663
2015    4       26    13  29    4.7458   380.9    7.709      29.663
2015    4       26    13  35    4.7466   380.9    7.709      29.664
2015    4       26    13  41    4.7474   380.8    7.709      29.664
2015    4       26    13  47    4.7481   380.8    7.709      29.665
2015    4       26    13  52    4.7489   380.8    7.709      29.666
2015    4       26    13  58    4.7497   380.8    7.709      29.667
2015    4       26    14   4    4.7505   380.8    7.709      29.668
2015    4       26    14  10    4.7513   380.7    7.709      29.669
2015    4       26    14  16    4.7521   380.7    7.710      29.670
2015    4       26    14  22    4.7530   380.7    7.710      29.671
2015    4       26    14  27    4.7538   380.7    7.710      29.672
2015    4       26    14  33    4.7547   380.7    7.711      29.674
2015    4       26    14  39    4.7555   380.6    7.711      29.675
2015    4       26    14  45    4.7564   380.6    7.711      29.677
2015    4       26    14  51    4.7573   380.6    7.712      29.679
2015    4       26    14  57    4.7582   380.6    7.712      29.681
2015    4       26    15   3    4.7591   380.6    7.713      29.683
2015    4       26    15   8    4.7600   380.6    7.713      29.685
2015    4       26    15  14    4.7609   380.5    7.714      29.687
2015    4       26    15  20    4.7618   380.5    7.714      29.689
2015    4       26    15  26    4.7627   380.5    7.715      29.692
2015    4       26    15  32    4.7637   380.5    7.716      29.695
2015    4       26    15  38    4.7646   380.5    7.716      29.697
2015    4       26    15  43    4.7656   380.4    7.717      29.700
2015    4       26    15  49    4.7665   380.4    7.718      29.703
2015    4       26    15  55    4.7675   380.4    7.719      29.706
2015    4       26    16   1    4.7685   380.4    7.720      29.709
2015    4       26    16   7    4.7694   380.4    7.721      29.712
2015    4       26    16  13    4.7704   380.4    7.722      29.716
2015    4       26    16  19    4.7714   380.3    7.723      29.719
2015    4       26    16  24    4.7724   380.3    7.724      29.723
2015    4       26    16  30    4.7734   380.3    7.725      29.727
2015    4       26    16  36    4.7744   380.3    7.726      29.730
2015    4       26    16  42    4.7754   380.3    7.727      29.734
2015    4       26    16  48    4.7764   380.3    7.728      29.738
2015    4       26    16  54    4.7774   380.2    7.729      29.742
2015    4       26    16  59    4.7785   380.2    7.731      29.746
2015    4       26    17   5    4.7795   380.2    7.732      29.750
2015    4       26    17  11    4.7805   380.2    7.733      29.754
2015    4       26    17  17    4.7816   380.2    7.734      29.759
2015    4       26    17  23    4.7826   380.1    7.736      29.763
2015    4       26    17  29    4.7836   380.1    7.737      29.768
2015    4       26    17  35    4.7847   380.1    7.738      29.773
2015    4       26    17  40    4.7857   380.1    7.739      29.778
2015    4       26    17  46    4.7867   380.1    7.741      29.783
2015    4       26    17  52    4.7878   380.1    7.742      29.788
2015    4       26    17  58    4.7889   380.0    7.743      29.793
2015    4       26    18   4    4.7899   380.0    7.745      29.798
2015    4       26    18  10    4.7910   380.0    7.746      29.804
2015    4       26    18  15    4.7921   380.0    7.747      29.809
2015    4       26    18  21    4.7931   380.0    7.749      29.814
2015    4       26    18  27    4.7942   380.0    7.750      29.820
2015    4       26    18  33    4.7953   379.9    7.751      29.826
2015    4       26    18  39    4.7965   379.9    7.753      29.831
2015    4       26    18  45    4.7976   379.9    7.754      29.837
2015    4       26    18  51    4.7987   379.9    7.755      29.843
2015    4       26    18  56    4.7998   379.9    7.757      29.849
2015    4       26    19   2    4.8010   379.9    7.758      29.854
2015    4       26    19   8    4.8021   379.8    7.760      29.860
2015    4       26    19  14    4.8033   379.8    7.761      29.866
2015    4       26    19  20    4.8045   379.8    7.763      29.872
2015    4       26    19  26    4.8056   379.8    7.764      29.878
2015    4       26    19  31    4.8068   379.8    7.766      29.884
2015    4       26    19  37    4.8080   379.8    7.767      29.890
2015    4       26    19  43    4.8093   379.7    7.769      29.895
2015    4       26    19  49    4.8105   379.7    7.770      29.901
2015    4       26    19  55    4.8117   379.7    7.772      29.907
2015    4       26    20   1    4.8130   379.7    7.773      29.913
2015    4       26    20   7    4.8143   379.7    7.775      29.919
2015    4       26    20  12    4.8155   379.7    7.776      29.925
2015    4       26    20  18    4.8168   379.6    7.778      29.931
2015    4       26    20  24    4.8181   379.6    7.779      29.937
2015    4       26    20  30    4.8194   379.6    7.781      29.943
2015    4       26    20  36    4.8207   379.6    7.783      29.949
2015    4       26    20  42    4.8221   379.6    7.784      29.955
2015    4       26    20  47    4.8234   379.6    7.786      29.961
2015    4       26    20  53    4.8247   379.6    7.787      29.966
2015    4       26    20  59    4.8261   379.5    7.789      29.972
2015    4       26    21   5    4.8275   379.5    7.790      29.978
2015    4       26    21  11    4.8289   379.5    7.792      29.984
2015    4       26    21  17    4.8302   379.5    7.794      29.990
2015    4       26    21  23    4.8316   379.5    7.795      29.996
2015    4       26    21  28    4.8330   379.5    7.797      30.002
2015    4       26    21  34    4.8344   379.5    7.798      30.008
2015    4       26    21  40    4.8358   379.4    7.800      30.014
2015    4       26    21  46    4.8372   379.4    7.802      30.020
2015    4       26    21  52    4.8386   379.4    7.803      30.026
2015    4       26    21  58    4.8401   379.4    7.805      30.031
2015    4       26    22   3    4.8415   379.4    7.806      30.037
2015    4       26    22   9    4.8429   379.4    7.808      30.043
2015    4       26    22  15    4.8443   379.4    7.810      30.049
2015    4       26    22  21    4.8458   379.3    7.811      30.055
2015    4       26    22  27    4.8472   379.3    7.813      30.061
2015    4       26    22  33    4.8487   379.3    7.814      30.067
2015    4       26    22  39    4.8501   379.3    7.816      30.073
2015    4       26    22  44    4.8515   379.3    7.817      30.079
2015    4       26    22  50    4.8530   379.3    7.819      30.085
2015    4       26    22  56    4.8545   379.3    7.821      30.090
2015    4       26    23   2    4.8559   379.2    7.822      30.096
2015    4       26    23   8    4.8574   379.2    7.824      30.102
2015    4       26    23  14    4.8589   379.2    7.826      30.108
2015    4       26    23  20    4.8603   379.2    7.827      30.114
2015    4       26    23  25    4.8618   379.2    7.829      30.120
2015    4       26    23  31    4.8633   379.2    7.830      30.126
2015    4       26    23  37    4.8648   379.2    7.832      30.133
2015    4       26    23  43    4.8662   379.1    7.834      30.139
2015    4       26    23  49    4.8677   379.1    7.835      30.145
2015    4       26    23  55    4.8693   379.1    7.837      30.151
2015    4       27     0   0    4.8708   379.1    7.839      30.157
2015    4       27     0   6    4.8723   379.1    7.841      30.163
2015    4       27     0  12    4.8738   379.1    7.842      30.169
2015    4       27     0  18    4.8753   379.1    7.844      30.176
2015    4       27     0  24    4.8768   379.1    7.846      30.182
2015    4       27     0  30    4.8784   379.0    7.848      30.188
2015    4       27     0  36    4.8799   379.0    7.850      30.195
2015    4       27     0  41    4.8815   379.0    7.852      30.201
2015    4       27     0  47    4.8830   379.0    7.854      30.208
2015    4       27     0  53    4.8846   379.0    7.856      30.214
2015    4       27     0  59    4.8862   379.0    7.858      30.221
2015    4       27     1   5    4.8878   379.0    7.860      30.228
2015    4       27     1  11    4.8894   378.9    7.862      30.234
2015    4       27     1  16    4.8910   378.9    7.864      30.241
2015    4       27     1  22    4.8927   378.9    7.866      30.248
2015    4       27     1  28    4.8943   378.9    7.868      30.255
2015    4       27     1  34    4.8960   378.9    7.871      30.262
2015    4       27     1  40    4.8976   378.9    7.873      30.269
2015    4       27     1  46    4.8993   378.9    7.875      30.276
2015    4       27     1  52    4.9010   378.9    7.878      30.284
2015    4       27     1  57    4.9027   378.8    7.880      30.291
2015    4       27     2   3    4.9045   378.8    7.883      30.298
2015    4       27     2   9    4.9062   378.8    7.885      30.306
2015    4       27     2  15    4.9080   378.8    7.888      30.313
2015    4       27     2  21    4.9098   378.8    7.891      30.321
2015    4       27     2  27    4.9116   378.8    7.893      30.329
2015    4       27     2  32    4.9134   378.8    7.896      30.336
2015    4       27     2  38    4.9153   378.7    7.899      30.344
2015    4       27     2  44    4.9171   378.7    7.902      30.352
2015    4       27     2  50    4.9190   378.7    7.905      30.360
2015    4       27     2  56    4.9209   378.7    7.908      30.368
2015    4       27     3   2    4.9228   378.7    7.911      30.377
2015    4       27     3   8    4.9248   378.7    7.914      30.385
2015    4       27     3  13    4.9267   378.7    7.917      30.393
2015    4       27     3  19    4.9287   378.7    7.920      30.401
2015    4       27     3  25    4.9306   378.6    7.923      30.410
2015    4       27     3  31    4.9326   378.6    7.927      30.418
2015    4       27     3  37    4.9347   378.6    7.930      30.427
2015    4       27     3  43    4.9367   378.6    7.933      30.436
2015    4       27     3  48    4.9387   378.6    7.937      30.444
2015    4       27     3  54    4.9408   378.6    7.940      30.453
2015    4       27     4   0    4.9429   378.6    7.943      30.461
2015    4       27     4   6    4.9450   378.6    7.947      30.470
2015    4       27     4  12    4.9470   378.6    7.950      30.479
2015    4       27     4  18    4.9492   378.5    7.954      30.488
2015    4       27     4  24    4.9513   378.5    7.957      30.496
2015    4       27     4  29    4.9534   378.5    7.961      30.505
2015    4       27     4  35    4.9555   378.5    7.965      30.514
2015    4       27     4  41    4.9577   378.5    7.968      30.523
2015    4       27     4  47    4.9598   378.5    7.972      30.531
2015    4       27     4  53    4.9620   378.5    7.975      30.540
2015    4       27     4  59    4.9642   378.5    7.979      30.549
2015    4       27     5   4    4.9663   378.5    7.983      30.557
2015    4       27     5  10    4.9685   378.4    7.986      30.566
2015    4       27     5  16    4.9707   378.4    7.990      30.575
2015    4       27     5  22    4.9729   378.4    7.994      30.583
2015    4       27     5  28    4.9751   378.4    7.997      30.592
2015    4       27     5  34    4.9773   378.4    8.001      30.601
2015    4       27     5  40    4.9795   378.4    8.005      30.609
2015    4       27     5  45    4.9817   378.4    8.009      30.618
2015    4       27     5  51    4.9839   378.4    8.012      30.626
2015    4       27     5  57    4.9861   378.4    8.016      30.635
2015    4       27     6   3    4.9884   378.3    8.020      30.643
2015    4       27     6   9    4.9906   378.3    8.024      30.651
2015    4       27     6  15    4.9928   378.3    8.028      30.660
2015    4       27     6  20    4.9951   378.3    8.031      30.668
2015    4       27     6  26    4.9974   378.3    8.035      30.676
2015    4       27     6  32    4.9996   378.3    8.039      30.685
2015    4       27     6  38    5.0019   378.3    8.043      30.693
2015    4       27     6  44    5.0042   378.3    8.047      30.701
2015    4       27     6  50    5.0065   378.3    8.051      30.709
2015    4       27     6  56    5.0088   378.2    8.055      30.717
2015    4       27     7   1    5.0112   378.2    8.059      30.726
2015    4       27     7   7    5.0135   378.2    8.063      30.734
2015    4       27     7  13    5.0159   378.2    8.067      30.742
2015    4       27     7  19    5.0182   378.2    8.071      30.750
2015    4       27     7  25    5.0206   378.2    8.076      30.758
2015    4       27     7  31    5.0230   378.2    8.080      30.766
2015    4       27     7  36    5.0254   378.2    8.084      30.774
2015    4       27     7  42    5.0279   378.2    8.089      30.783
2015    4       27     7  48    5.0303   378.1    8.093      30.791
2015    4       27     7  54    5.0328   378.1    8.098      30.799
2015    4       27     8   0    5.0353   378.1    8.102      30.808
2015    4       27     8   6    5.0378   378.1    8.107      30.816
2015    4       27     8  12    5.0404   378.1    8.112      30.824
2015    4       27     8  17    5.0429   378.1    8.116      30.833
2015    4       27     8  23    5.0455   378.1    8.121      30.841
2015    4       27     8  29    5.0481   378.1    8.126      30.850
2015    4       27     8  35    5.0507   378.1    8.131      30.859
2015    4       27     8  41    5.0534   378.0    8.136      30.868
2015    4       27     8  47    5.0561   378.0    8.142      30.877
2015    4       27     8  52    5.0588   378.0    8.147      30.886
2015    4       27     8  58    5.0615   378.0    8.153      30.896
2015    4       27     9   4    5.0643   378.0    8.158      30.905
2015    4       27     9  10    5.0671   378.0    8.164      30.915
2015    4       27     9  16    5.0699   378.0    8.170      30.925
2015    4       27     9  22    5.0728   378.0    8.175      30.935
2015    4       27     9  28    5.0757   378.0    8.181      30.945
2015    4       27     9  33    5.0786   377.9    8.188      30.955
2015    4       27     9  39    5.0816   377.9    8.194      30.966
2015    4       27     9  45    5.0845   377.9    8.200      30.977
2015    4       27     9  51    5.0875   377.9    8.207      30.988
2015    4       27     9  57    5.0906   377.9    8.213      31.000
2015    4       27    10   3    5.0936   377.9    8.220      31.011
2015    4       27    10   8    5.0967   377.9    8.226      31.023
2015    4       27    10  14    5.0998   377.9    8.233      31.035
2015    4       27    10  20    5.1029   377.9    8.239      31.048
2015    4       27    10  26    5.1060   377.9    8.246      31.060
2015    4       27    10  32    5.1091   377.9    8.253      31.073
2015    4       27    10  38    5.1123   377.9    8.259      31.085
2015    4       27    10  44    5.1154   377.9    8.266      31.098
2015    4       27    10  49    5.1186   377.9    8.273      31.110
2015    4       27    10  55    5.1217   377.9    8.279      31.123
2015    4       27    11   1    5.1249   377.9    8.286      31.135
2015    4       27    11   7    5.1281   377.8    8.293      31.148
2015    4       27    11  13    5.1313   377.8    8.299      31.160
2015    4       27    11  19    5.1345   377.8    8.306      31.172
2015    4       27    11  24    5.1378   377.8    8.313      31.184
2015    4       27    11  30    5.1410   377.8    8.320      31.197
2015    4       27    11  36    5.1443   377.8    8.326      31.209
2015    4       27    11  42    5.1475   377.8    8.333      31.221
2015    4       27    11  48    5.1508   377.8    8.340      31.233
2015    4       27    11  54    5.1541   377.8    8.347      31.245
2015    4       27    12   0    5.1574   377.8    8.354      31.257
2015    4       27    12   5    5.1607   377.8    8.360      31.269
2015    4       27    12  11    5.1640   377.8    8.367      31.281
2015    4       27    12  17    5.1674   377.8    8.374      31.293
2015    4       27    12  23    5.1707   377.8    8.381      31.304
2015    4       27    12  29    5.1741   377.8    8.388      31.316
2015    4       27    12  35    5.1775   377.8    8.395      31.328
2015    4       27    12  41    5.1809   377.8    8.402      31.339
2015    4       27    12  46    5.1843   377.8    8.409      31.351
2015    4       27    12  52    5.1878   377.8    8.416      31.363
2015    4       27    12  58    5.1912   377.8    8.423      31.374
2015    4       27    13   4    5.1947   377.8    8.430      31.386
2015    4       27    13  10    5.1982   377.8    8.437      31.397
2015    4       27    13  16    5.2018   377.8    8.445      31.409
2015    4       27    13  21    5.2053   377.8    8.452      31.420
2015    4       27    13  27    5.2089   377.8    8.459      31.432
2015    4       27    13  33    5.2125   377.8    8.467      31.443
2015    4       27    13  39    5.2162   377.7    8.474      31.455
2015    4       27    13  45    5.2199   377.7    8.482      31.466
2015    4       27    13  51    5.2236   377.7    8.489      31.478
2015    4       27    13  57    5.2274   377.7    8.497      31.490
2015    4       27    14   2    5.2312   377.7    8.505      31.502
2015    4       27    14   8    5.2350   377.7    8.513      31.514
2015    4       27    14  14    5.2389   377.7    8.521      31.526
2015    4       27    14  20    5.2428   377.7    8.530      31.538
2015    4       27    14  26    5.2468   377.7    8.538      31.550
2015    4       27    14  32    5.2508   377.7    8.547      31.563
2015    4       27    14  37    5.2549   377.7    8.555      31.575
2015    4       27    14  43    5.2590   377.7    8.564      31.588
2015    4       27    14  49    5.2631   377.7    8.573      31.601
2015    4       27    14  55    5.2673   377.7    8.583      31.614
2015    4       27    15   1    5.2716   377.7    8.592      31.627
2015    4       27    15   7    5.2759   377.7    8.602      31.641
2015    4       27    15  13    5.2803   377.7    8.611      31.655
2015    4       27    15  18    5.2848   377.7    8.621      31.669
2015    4       27    15  24    5.2893   377.7    8.632      31.683
2015    4       27    15  30    5.2938   377.7    8.642      31.698
2015    4       27    15  36    5.2984   377.7    8.653      31.713
2015    4       27    15  42    5.3030   377.7    8.663      31.729
2015    4       27    15  48    5.3076   377.7    8.674      31.745
2015    4       27    15  53    5.3123   377.8    8.685      31.763
2015    4       27    15  59    5.3170   377.8    8.696      31.782
2015    4       27    16   5    5.3217   377.8    8.707      31.801
2015    4       27    16  11    5.3264   377.8    8.718      31.822
2015    4       27    16  17    5.3311   377.8    8.729      31.844
2015    4       27    16  23    5.3358   377.8    8.740      31.867
2015    4       27    16  29    5.3406   377.9    8.751      31.890
2015    4       27    16  34    5.3454   377.9    8.762      31.913
2015    4       27    16  40    5.3502   377.9    8.773      31.937
2015    4       27    16  46    5.3549   377.9    8.783      31.961
2015    4       27    16  52    5.3597   377.9    8.794      31.984
2015    4       27    16  58    5.3645   378.0    8.804      32.008
2015    4       27    17   4    5.3693   378.0    8.815      32.032
2015    4       27    17   9    5.3741   378.0    8.825      32.056
2015    4       27    17  15    5.3789   378.0    8.836      32.080
2015    4       27    17  21    5.3837   378.1    8.846      32.103
2015    4       27    17  27    5.3885   378.1    8.856      32.127
2015    4       27    17  33    5.3933   378.1    8.866      32.151
2015    4       27    17  39    5.3981   378.1    8.876      32.174
2015    4       27    17  45    5.4029   378.2    8.886      32.198
2015    4       27    17  50    5.4078   378.2    8.896      32.221
2015    4       27    17  56    5.4126   378.2    8.905      32.244
2015    4       27    18   2    5.4174   378.2    8.915      32.267
2015    4       27    18   8    5.4223   378.3    8.925      32.289
2015    4       27    18  14    5.4272   378.3    8.934      32.311
2015    4       27    18  20    5.4320   378.3    8.943      32.333
2015    4       27    18  25    5.4369   378.4    8.953      32.355
2015    4       27    18  31    5.4418   378.4    8.962      32.377
2015    4       27    18  37    5.4467   378.4    8.971      32.398
2015    4       27    18  43    5.4516   378.5    8.981      32.419
2015    4       27    18  49    5.4566   378.5    8.990      32.440
2015    4       27    18  55    5.4615   378.5    8.999      32.461
2015    4       27    19   1    5.4665   378.5    9.008      32.481
2015    4       27    19   6    5.4714   378.6    9.017      32.501
2015    4       27    19  12    5.4765   378.6    9.027      32.522
2015    4       27    19  18    5.4815   378.6    9.036      32.541
2015    4       27    19  24    5.4866   378.7    9.045      32.561
2015    4       27    19  30    5.4916   378.7    9.054      32.581
2015    4       27    19  36    5.4968   378.7    9.063      32.601
2015    4       27    19  41    5.5019   378.8    9.072      32.620
2015    4       27    19  47    5.5071   378.8    9.081      32.639
2015    4       27    19  53    5.5123   378.8    9.091      32.659
2015    4       27    19  59    5.5176   378.8    9.100      32.678
2015    4       27    20   5    5.5229   378.9    9.109      32.697
2015    4       27    20  11    5.5283   378.9    9.119      32.717
2015    4       27    20  17    5.5338   378.9    9.128      32.736
2015    4       27    20  22    5.5393   379.0    9.138      32.755
2015    4       27    20  28    5.5448   379.0    9.148      32.775
2015    4       27    20  34    5.5505   379.0    9.157      32.795
2015    4       27    20  40    5.5562   379.1    9.168      32.814
2015    4       27    20  46    5.5620   379.1    9.178      32.834
2015    4       27    20  52    5.5678   379.2    9.188      32.855
2015    4       27    20  57    5.5738   379.2    9.199      32.875
2015    4       27    21   3    5.5798   379.2    9.210      32.895
2015    4       27    21   9    5.5860   379.3    9.221      32.916
2015    4       27    21  15    5.5922   379.3    9.233      32.938
2015    4       27    21  21    5.5985   379.4    9.245      32.959
2015    4       27    21  27    5.6050   379.4    9.257      32.982
2015    4       27    21  33    5.6116   379.4    9.270      33.004
2015    4       27    21  38    5.6183   379.5    9.283      33.027
2015    4       27    21  44    5.6251   379.5    9.297      33.050
2015    4       27    21  50    5.6320   379.6    9.311      33.073
2015    4       27    21  56    5.6391   379.6    9.325      33.098
2015    4       27    22   2    5.6462   379.7    9.340      33.125
2015    4       27    22   8    5.6534   379.7    9.355      33.153
2015    4       27    22  13    5.6605   379.8    9.370      33.182
2015    4       27    22  19    5.6678   379.9    9.385      33.213
2015    4       27    22  25    5.6751   380.0    9.400      33.246
2015    4       27    22  31    5.6824   380.0    9.415      33.280
2015    4       27    22  37    5.6897   380.1    9.431      33.315
2015    4       27    22  43    5.6970   380.2    9.446      33.350
2015    4       27    22  49    5.7043   380.3    9.460      33.386
2015    4       27    22  54    5.7115   380.3    9.475      33.421
2015    4       27    23   0    5.7187   380.4    9.490      33.458
2015    4       27    23   6    5.7259   380.5    9.504      33.494
2015    4       27    23  12    5.7330   380.6    9.517      33.532
2015    4       27    23  18    5.7401   380.7    9.531      33.570
2015    4       27    23  24    5.7471   380.8    9.544      33.609
2015    4       27    23  29    5.7541   380.9    9.556      33.648
2015    4       27    23  35    5.7610   381.0    9.569      33.688
2015    4       27    23  41    5.7679   381.1    9.581      33.727
2015    4       27    23  47    5.7747   381.1    9.592      33.767
2015    4       27    23  53    5.7815   381.2    9.603      33.807
2015    4       27    23  59    5.7882   381.3    9.614      33.846
2015    4       28     0   5    5.7950   381.4    9.625      33.885
2015    4       28     0  10    5.8016   381.5    9.635      33.924
2015    4       28     0  16    5.8083   381.6    9.645      33.962
2015    4       28     0  22    5.8149   381.7    9.654      34.000
2015    4       28     0  28    5.8215   381.8    9.664      34.038
2015    4       28     0  34    5.8281   381.9    9.673      34.076
2015    4       28     0  40    5.8346   382.0    9.682      34.114
2015    4       28     0  45    5.8411   382.0    9.690      34.151
2015    4       28     0  51    5.8477   382.1    9.699      34.188
2015    4       28     0  57    5.8542   382.2    9.707      34.224
2015    4       28     1   3    5.8607   382.3    9.715      34.261
2015    4       28     1   9    5.8672   382.4    9.723      34.297
2015    4       28     1  15    5.8737   382.5    9.731      34.334
2015    4       28     1  21    5.8803   382.6    9.738      34.370
2015    4       28     1  26    5.8868   382.7    9.746      34.406
2015    4       28     1  32    5.8933   382.8    9.753      34.441
2015    4       28     1  38    5.8998   382.9    9.760      34.477
2015    4       28     1  44    5.9064   383.0    9.767      34.513
2015    4       28     1  50    5.9129   383.1    9.774      34.548
2015    4       28     1  56    5.9195   383.2    9.781      34.583
2015    4       28     2   2    5.9261   383.3    9.788      34.618
2015    4       28     2   7    5.9326   383.4    9.795      34.653
2015    4       28     2  13    5.9392   383.5    9.802      34.688
2015    4       28     2  19    5.9459   383.6    9.809      34.722
2015    4       28     2  25    5.9525   383.7    9.815      34.756
2015    4       28     2  31    5.9591   383.8    9.822      34.790
2015    4       28     2  37    5.9658   383.9    9.828      34.824
2015    4       28     2  42    5.9725   384.0    9.835      34.858
2015    4       28     2  48    5.9792   384.1    9.842      34.892
2015    4       28     2  54    5.9859   384.2    9.848      34.925
2015    4       28     3   0    5.9927   384.3    9.855      34.959
2015    4       28     3   6    5.9996   384.4    9.861      34.993
2015    4       28     3  12    6.0064   384.5    9.868      35.026
2015    4       28     3  18    6.0133   384.6    9.875      35.060
2015    4       28     3  23    6.0203   384.7    9.882      35.093
2015    4       28     3  29    6.0274   384.8    9.889      35.127
2015    4       28     3  35    6.0345   384.9    9.896      35.161
2015    4       28     3  41    6.0417   385.0    9.903      35.195
2015    4       28     3  47    6.0490   385.1    9.910      35.229
2015    4       28     3  53    6.0563   385.2    9.918      35.264
2015    4       28     3  58    6.0637   385.4    9.926      35.299
2015    4       28     4   4    6.0713   385.5    9.934      35.334
2015    4       28     4  10    6.0789   385.6    9.943      35.370
2015    4       28     4  16    6.0866   385.7    9.951      35.406
2015    4       28     4  22    6.0945   385.8    9.961      35.442
2015    4       28     4  28    6.1024   385.9    9.970      35.478
2015    4       28     4  34    6.1104   386.1    9.980      35.516
2015    4       28     4  39    6.1186   386.2    9.991      35.554
2015    4       28     4  45    6.1269   386.3   10.002      35.592
2015    4       28     4  51    6.1353   386.4   10.014      35.631
2015    4       28     4  57    6.1438   386.5   10.026      35.670
2015    4       28     5   3    6.1524   386.7   10.039      35.709
2015    4       28     5   9    6.1611   386.8   10.053      35.751
2015    4       28     5  14    6.1700   386.9   10.067      35.794
2015    4       28     5  20    6.1789   387.1   10.082      35.838
2015    4       28     5  26    6.1878   387.2   10.098      35.884
2015    4       28     5  32    6.1969   387.4   10.114      35.932
2015    4       28     5  38    6.2060   387.5   10.130      35.982
2015    4       28     5  44    6.2151   387.7   10.147      36.035
2015    4       28     5  50    6.2242   387.8   10.165      36.090
2015    4       28     5  55    6.2334   388.0   10.182      36.147
2015    4       28     6   1    6.2425   388.2   10.199      36.207
2015    4       28     6   7    6.2515   388.3   10.216      36.270
2015    4       28     6  13    6.2605   388.5   10.233      36.334
2015    4       28     6  19    6.2694   388.7   10.250      36.401
2015    4       28     6  25    6.2781   388.9   10.265      36.470
2015    4       28     6  30    6.2867   389.1   10.280      36.540
2015    4       28     6  36    6.2952   389.3   10.295      36.611
2015    4       28     6  42    6.3036   389.5   10.309      36.682
2015    4       28     6  48    6.3118   389.7   10.321      36.752
2015    4       28     6  54    6.3200   389.9   10.334      36.822
2015    4       28     7   0    6.3279   390.1   10.345      36.891
2015    4       28     7   6    6.3358   390.3   10.356      36.959
2015    4       28     7  11    6.3435   390.5   10.365      37.027
2015    4       28     7  17    6.3511   390.7   10.374      37.094
2015    4       28     7  23    6.3586   390.9   10.383      37.160
2015    4       28     7  29    6.3661   391.1   10.390      37.225
2015    4       28     7  35    6.3734   391.3   10.397      37.290
2015    4       28     7  41    6.3807   391.5   10.404      37.353
2015    4       28     7  46    6.3880   391.7   10.410      37.416
2015    4       28     7  52    6.3952   391.9   10.415      37.479
2015    4       28     7  58    6.4023   392.1   10.419      37.541
2015    4       28     8   4    6.4094   392.2   10.423      37.602
2015    4       28     8  10    6.4164   392.4   10.427      37.663
2015    4       28     8  16    6.4235   392.6   10.430      37.724
2015    4       28     8  22    6.4305   392.8   10.433      37.783
2015    4       28     8  27    6.4375   393.0   10.435      37.843
2015    4       28     8  33    6.4444   393.2   10.437      37.902
2015    4       28     8  39    6.4514   393.4   10.439      37.961
2015    4       28     8  45    6.4584   393.6   10.440      38.019
2015    4       28     8  51    6.4653   393.8   10.441      38.077
2015    4       28     8  57    6.4723   394.0   10.442      38.135
2015    4       28     9   2    6.4793   394.2   10.442      38.192
2015    4       28     9   8    6.4863   394.4   10.443      38.249
2015    4       28     9  14    6.4933   394.6   10.443      38.306
2015    4       28     9  20    6.5003   394.8   10.442      38.362
2015    4       28     9  26    6.5073   395.0   10.442      38.418
2015    4       28     9  32    6.5143   395.2   10.441      38.474
2015    4       28     9  38    6.5213   395.4   10.441      38.529
2015    4       28     9  43    6.5284   395.6   10.440      38.583
2015    4       28     9  49    6.5355   395.8   10.439      38.638
2015    4       28     9  55    6.5426   396.0   10.438      38.691
2015    4       28    10   1    6.5497   396.2   10.437      38.745
2015    4       28    10   7    6.5568   396.4   10.436      38.798
2015    4       28    10  13    6.5639   396.6   10.435      38.851
2015    4       28    10  18    6.5710   396.7   10.433      38.903
2015    4       28    10  24    6.5782   396.9   10.432      38.955
2015    4       28    10  30    6.5854   397.1   10.430      39.006
2015    4       28    10  36    6.5926   397.3   10.429      39.057
2015    4       28    10  42    6.5998   397.5   10.428      39.108
2015    4       28    10  48    6.6070   397.7   10.426      39.159
2015    4       28    10  54    6.6143   397.9   10.425      39.209
2015    4       28    10  59    6.6216   398.1   10.423      39.259
2015    4       28    11   5    6.6289   398.3   10.422      39.309
2015    4       28    11  11    6.6362   398.5   10.421      39.359
2015    4       28    11  17    6.6435   398.7   10.420      39.409
2015    4       28    11  23    6.6509   398.9   10.419      39.459
2015    4       28    11  29    6.6583   399.1   10.418      39.508
2015    4       28    11  34    6.6657   399.3   10.417      39.558
2015    4       28    11  40    6.6732   399.5   10.417      39.608
2015    4       28    11  46    6.6806   399.7   10.416      39.657
2015    4       28    11  52    6.6881   399.9   10.416      39.707
2015    4       28    11  58    6.6956   400.1   10.417      39.757
2015    4       28    12   4    6.7032   400.3   10.417      39.806
2015    4       28    12  10    6.7107   400.5   10.418      39.856
2015    4       28    12  15    6.7184   400.7   10.420      39.907
2015    4       28    12  21    6.7260   400.9   10.421      39.957
2015    4       28    12  27    6.7336   401.1   10.424      40.008
2015    4       28    12  33    6.7413   401.3   10.427      40.058
2015    4       28    12  39    6.7491   401.4   10.430      40.109
2015    4       28    12  45    6.7569   401.6   10.435      40.161
2015    4       28    12  50    6.7647   401.8   10.440      40.213
2015    4       28    12  56    6.7726   402.0   10.446      40.267
2015    4       28    13   2    6.7806   402.2   10.452      40.321
2015    4       28    13   8    6.7886   402.4   10.460      40.377
2015    4       28    13  14    6.7966   402.6   10.468      40.436
2015    4       28    13  20    6.8046   402.8   10.476      40.497
2015    4       28    13  26    6.8127   403.0   10.485      40.562
2015    4       28    13  31    6.8207   403.2   10.495      40.630
2015    4       28    13  37    6.8287   403.5   10.505      40.701
2015    4       28    13  43    6.8366   403.7   10.515      40.775
2015    4       28    13  49    6.8445   403.9   10.525      40.851
2015    4       28    13  55    6.8524   404.1   10.535      40.929
2015    4       28    14   1    6.8603   404.3   10.546      41.008
2015    4       28    14   6    6.8682   404.6   10.557      41.088
2015    4       28    14  12    6.8760   404.8   10.568      41.170
2015    4       28    14  18    6.8839   405.0   10.579      41.255
2015    4       28    14  24    6.8918   405.2   10.591      41.343
2015    4       28    14  30    6.8997   405.5   10.602      41.433
2015    4       28    14  36    6.9076   405.7   10.614      41.524
2015    4       28    14  42    6.9155   405.9   10.625      41.617
2015    4       28    14  47    6.9235   406.2   10.637      41.712
2015    4       28    14  53    6.9314   406.4   10.648      41.810
2015    4       28    14  59    6.9394   406.7   10.659      41.910
2015    4       28    15   5    6.9475   407.0   10.670      42.013
2015    4       28    15  11    6.9555   407.2   10.681      42.117
2015    4       28    15  17    6.9636   407.5   10.691      42.222
2015    4       28    15  22    6.9717   407.8   10.700      42.328
2015    4       28    15  28    6.9798   408.1   10.709      42.435
2015    4       28    15  34    6.9878   408.4   10.717      42.544
2015    4       28    15  40    6.9959   408.7   10.724      42.653
2015    4       28    15  46    7.0039   409.0   10.731      42.760
2015    4       28    15  52    7.0119   409.3   10.737      42.866
2015    4       28    15  58    7.0198   409.6   10.742      42.970
2015    4       28    16   3    7.0276   409.9   10.747      43.072
2015    4       28    16   9    7.0353   410.2   10.751      43.173
2015    4       28    16  15    7.0431   410.5   10.755      43.274
2015    4       28    16  21    7.0507   410.8   10.757      43.373
2015    4       28    16  27    7.0583   411.1   10.760      43.471
2015    4       28    16  33    7.0659   411.4   10.762      43.567
2015    4       28    16  39    7.0734   411.7   10.763      43.663
2015    4       28    16  44    7.0809   412.0   10.764      43.758
2015    4       28    16  50    7.0884   412.3   10.765      43.852
2015    4       28    16  56    7.0959   412.6   10.765      43.946
2015    4       28    17   2    7.1033   413.0   10.765      44.039
2015    4       28    17   8    7.1108   413.3   10.764      44.133
2015    4       28    17  14    7.1183   413.6   10.763      44.227
2015    4       28    17  19    7.1258   413.9   10.761      44.321
2015    4       28    17  25    7.1333   414.3   10.759      44.414
2015    4       28    17  31    7.1407   414.6   10.756      44.506
2015    4       28    17  37    7.1481   415.0   10.753      44.598
2015    4       28    17  43    7.1554   415.3   10.749      44.690
2015    4       28    17  49    7.1627   415.6   10.744      44.780
2015    4       28    17  55    7.1697   416.0   10.739      44.870
2015    4       28    18   0    7.1768   416.3   10.733      44.958
2015    4       28    18   6    7.1836   416.7   10.727      45.046
2015    4       28    18  12    7.1904   417.0   10.720      45.133
2015    4       28    18  18    7.1970   417.4   10.712      45.219
2015    4       28    18  24    7.2036   417.7   10.704      45.305
2015    4       28    18  30    7.2100   418.1   10.695      45.389
2015    4       28    18  35    7.2163   418.4   10.686      45.473
2015    4       28    18  41    7.2225   418.8   10.677      45.556
2015    4       28    18  47    7.2286   419.1   10.667      45.639
2015    4       28    18  53    7.2346   419.4   10.657      45.721
2015    4       28    18  59    7.2405   419.8   10.646      45.802
2015    4       28    19   5    7.2464   420.1   10.636      45.883
2015    4       28    19  11    7.2522   420.5   10.625      45.964
2015    4       28    19  16    7.2580   420.8   10.615      46.044
2015    4       28    19  22    7.2638   421.1   10.604      46.125
2015    4       28    19  28    7.2695   421.4   10.593      46.205
2015    4       28    19  34    7.2752   421.8   10.583      46.286
2015    4       28    19  40    7.2809   422.1   10.572      46.367
2015    4       28    19  46    7.2866   422.4   10.561      46.448
2015    4       28    19  51    7.2922   422.8   10.550      46.530
2015    4       28    19  57    7.2979   423.1   10.540      46.613
2015    4       28    20   3    7.3035   423.4   10.530      46.696
2015    4       28    20   9    7.3092   423.7   10.519      46.781
2015    4       28    20  15    7.3149   424.1   10.509      46.865
2015    4       28    20  21    7.3205   424.4   10.499      46.951
2015    4       28    20  27    7.3262   424.7   10.490      47.037
2015    4       28    20  32    7.3319   425.0   10.481      47.124
2015    4       28    20  38    7.3376   425.4   10.472      47.210
2015    4       28    20  44    7.3433   425.7   10.463      47.297
2015    4       28    20  50    7.3491   426.0   10.455      47.385
2015    4       28    20  56    7.3548   426.3   10.447      47.473
2015    4       28    21   2    7.3607   426.6   10.440      47.562
2015    4       28    21   7    7.3666   426.9   10.434      47.651
2015    4       28    21  13    7.3726   427.3   10.428      47.739
2015    4       28    21  19    7.3786   427.6   10.422      47.828
2015    4       28    21  25    7.3847   427.9   10.418      47.917
2015    4       28    21  31    7.3909   428.2   10.414      48.009
2015    4       28    21  37    7.3972   428.5   10.410      48.102
2015    4       28    21  43    7.4036   428.8   10.408      48.196
2015    4       28    21  48    7.4101   429.1   10.405      48.291
2015    4       28    21  54    7.4166   429.4   10.403      48.386
2015    4       28    22   0    7.4231   429.8   10.402      48.481
2015    4       28    22   6    7.4297   430.1   10.401      48.579
2015    4       28    22  12    7.4364   430.4   10.400      48.679
2015    4       28    22  18    7.4430   430.7   10.399      48.779
2015    4       28    22  23    7.4497   431.1   10.398      48.880
2015    4       28    22  29    7.4563   431.4   10.396      48.981
2015    4       28    22  35    7.4630   431.8   10.394      49.081
2015    4       28    22  41    7.4695   432.2   10.392      49.182
2015    4       28    22  47    7.4761   432.6   10.389      49.284
2015    4       28    22  53    7.4825   433.0   10.385      49.387
2015    4       28    22  59    7.4888   433.3   10.380      49.487
2015    4       28    23   4    7.4948   433.7   10.375      49.583
2015    4       28    23  10    7.5008   434.1   10.369      49.675
2015    4       28    23  16    7.5065   434.5   10.363      49.765
2015    4       28    23  22    7.5122   434.9   10.356      49.851
2015    4       28    23  28    7.5176   435.3   10.349      49.934
2015    4       28    23  34    7.5231   435.7   10.342      50.013
2015    4       28    23  39    7.5285   436.1   10.334      50.091
2015    4       28    23  45    7.5338   436.5   10.326      50.169
2015    4       28    23  51    7.5389   436.9   10.318      50.247
2015    4       28    23  57    7.5441   437.3   10.309      50.327
2015    4       29     0   3    7.5489   437.7   10.299      50.404
