year    month   day   hour  minute  B_enl V_enl   n_enl       T_enl
[year] [month] [day] [hour][minute] [nT]  [km/s]  [cm-3]      [kK]
2014   11        2     0   0    6.25   432.9    7.3      46.729
2014   11        2     0   6    6.25   432.9    7.3      46.688
2014   11        2     0  11    6.24   432.9    7.3      46.647
2014   11        2     0  17    6.24   433.0    7.3      46.607
2014   11        2     0  22    6.23   433.0    7.3      46.566
2014   11        2     0  28    6.22   433.0    7.3      46.527
2014   11        2     0  34    6.22   433.0    7.3      46.487
2014   11        2     0  39    6.21   433.0    7.3      46.448
2014   11        2     0  45    6.20   433.1    7.3      46.409
2014   11        2     0  51    6.20   433.1    7.3      46.371
2014   11        2     0  56    6.19   433.1    7.3      46.334
2014   11        2     1   2    6.19   433.1    7.3      46.297
2014   11        2     1   8    6.18   433.1    7.2      46.260
2014   11        2     1  13    6.17   433.1    7.2      46.224
2014   11        2     1  19    6.17   433.1    7.2      46.188
2014   11        2     1  24    6.16   433.1    7.2      46.153
2014   11        2     1  30    6.16   433.1    7.2      46.118
2014   11        2     1  36    6.15   433.2    7.2      46.084
2014   11        2     1  41    6.14   433.2    7.2      46.050
2014   11        2     1  47    6.14   433.2    7.2      46.017
2014   11        2     1  53    6.13   433.2    7.2      45.984
2014   11        2     1  58    6.13   433.2    7.2      45.951
2014   11        2     2   4    6.12   433.2    7.2      45.919
2014   11        2     2  10    6.11   433.2    7.2      45.886
2014   11        2     2  15    6.11   433.2    7.2      45.854
2014   11        2     2  21    6.10   433.2    7.2      45.822
2014   11        2     2  26    6.10   433.2    7.2      45.791
2014   11        2     2  32    6.09   433.2    7.2      45.759
2014   11        2     2  38    6.09   433.2    7.2      45.727
2014   11        2     2  43    6.08   433.2    7.2      45.695
2014   11        2     2  49    6.07   433.2    7.2      45.663
2014   11        2     2  55    6.07   433.2    7.2      45.631
2014   11        2     3   0    6.06   433.1    7.2      45.599
2014   11        2     3   6    6.06   433.1    7.2      45.566
2014   11        2     3  12    6.05   433.1    7.2      45.534
2014   11        2     3  17    6.05   433.1    7.2      45.501
2014   11        2     3  23    6.04   433.1    7.2      45.468
2014   11        2     3  29    6.04   433.1    7.2      45.435
2014   11        2     3  34    6.03   433.1    7.1      45.402
2014   11        2     3  40    6.02   433.1    7.1      45.368
2014   11        2     3  45    6.02   433.1    7.1      45.335
2014   11        2     3  51    6.01   433.1    7.1      45.301
2014   11        2     3  57    6.01   433.0    7.1      45.267
2014   11        2     4   2    6.00   433.0    7.1      45.232
2014   11        2     4   8    6.00   433.0    7.1      45.198
2014   11        2     4  14    5.99   433.0    7.1      45.163
2014   11        2     4  19    5.99   433.0    7.1      45.128
2014   11        2     4  25    5.98   433.0    7.1      45.093
2014   11        2     4  31    5.98   432.9    7.1      45.058
2014   11        2     4  36    5.97   432.9    7.1      45.023
2014   11        2     4  42    5.97   432.9    7.1      44.987
2014   11        2     4  48    5.96   432.9    7.1      44.952
2014   11        2     4  53    5.96   432.9    7.1      44.916
2014   11        2     4  59    5.95   432.9    7.1      44.881
2014   11        2     5   5    5.95   432.8    7.1      44.845
2014   11        2     5  10    5.94   432.8    7.1      44.809
2014   11        2     5  16    5.94   432.8    7.1      44.773
2014   11        2     5  21    5.93   432.8    7.1      44.738
2014   11        2     5  27    5.93   432.7    7.1      44.702
2014   11        2     5  33    5.92   432.7    7.1      44.666
2014   11        2     5  38    5.92   432.7    7.0      44.630
2014   11        2     5  44    5.92   432.7    7.0      44.595
2014   11        2     5  50    5.91   432.6    7.0      44.559
2014   11        2     5  55    5.91   432.6    7.0      44.524
2014   11        2     6   1    5.90   432.6    7.0      44.489
2014   11        2     6   7    5.90   432.6    7.0      44.453
2014   11        2     6  12    5.89   432.5    7.0      44.418
2014   11        2     6  18    5.89   432.5    7.0      44.384
2014   11        2     6  24    5.88   432.5    7.0      44.349
2014   11        2     6  29    5.88   432.4    7.0      44.315
2014   11        2     6  35    5.88   432.4    7.0      44.281
2014   11        2     6  40    5.87   432.4    7.0      44.247
2014   11        2     6  46    5.87   432.3    7.0      44.213
2014   11        2     6  52    5.86   432.3    7.0      44.180
2014   11        2     6  57    5.86   432.3    7.0      44.147
2014   11        2     7   3    5.86   432.3    7.0      44.115
2014   11        2     7   9    5.85   432.2    7.0      44.083
2014   11        2     7  14    5.85   432.2    7.0      44.051
2014   11        2     7  20    5.84   432.1    7.0      44.019
2014   11        2     7  26    5.84   432.1    7.0      43.988
2014   11        2     7  31    5.84   432.1    7.0      43.957
2014   11        2     7  37    5.83   432.0    7.0      43.927
2014   11        2     7  42    5.83   432.0    7.0      43.897
2014   11        2     7  48    5.82   432.0    7.0      43.867
2014   11        2     7  54    5.82   431.9    7.0      43.838
2014   11        2     7  59    5.82   431.9    7.0      43.809
2014   11        2     8   5    5.81   431.9    7.0      43.780
2014   11        2     8  11    5.81   431.8    7.0      43.752
2014   11        2     8  16    5.81   431.8    7.0      43.724
2014   11        2     8  22    5.80   431.8    7.0      43.697
2014   11        2     8  28    5.80   431.7    7.0      43.669
2014   11        2     8  33    5.80   431.7    7.0      43.643
2014   11        2     8  39    5.79   431.6    7.0      43.616
2014   11        2     8  44    5.79   431.6    6.9      43.590
2014   11        2     8  50    5.79   431.6    6.9      43.564
2014   11        2     8  56    5.78   431.5    6.9      43.539
2014   11        2     9   1    5.78   431.5    6.9      43.513
2014   11        2     9   7    5.78   431.5    6.9      43.488
2014   11        2     9  13    5.77   431.4    6.9      43.463
2014   11        2     9  18    5.77   431.4    6.9      43.439
2014   11        2     9  24    5.77   431.4    6.9      43.414
2014   11        2     9  30    5.76   431.3    6.9      43.390
2014   11        2     9  35    5.76   431.3    6.9      43.366
2014   11        2     9  41    5.76   431.2    6.9      43.342
2014   11        2     9  46    5.75   431.2    6.9      43.318
2014   11        2     9  52    5.75   431.2    6.9      43.295
2014   11        2     9  58    5.75   431.1    6.9      43.271
2014   11        2    10   3    5.74   431.1    6.9      43.248
2014   11        2    10   9    5.74   431.0    6.9      43.224
2014   11        2    10  15    5.74   431.0    6.9      43.201
2014   11        2    10  20    5.73   431.0    6.9      43.178
2014   11        2    10  26    5.73   430.9    6.9      43.155
2014   11        2    10  31    5.73   430.9    6.9      43.132
2014   11        2    10  37    5.73   430.8    6.9      43.109
2014   11        2    10  43    5.72   430.8    6.9      43.086
2014   11        2    10  48    5.72   430.8    6.9      43.063
2014   11        2    10  54    5.72   430.7    6.9      43.041
2014   11        2    11   0    5.71   430.7    6.9      43.019
2014   11        2    11   5    5.71   430.6    6.9      42.996
2014   11        2    11  11    5.71   430.6    6.9      42.974
2014   11        2    11  17    5.71   430.5    6.9      42.953
2014   11        2    11  22    5.70   430.5    6.9      42.931
2014   11        2    11  28    5.70   430.4    6.9      42.910
2014   11        2    11  34    5.70   430.4    6.9      42.889
2014   11        2    11  39    5.70   430.4    6.9      42.867
2014   11        2    11  45    5.69   430.3    6.9      42.846
2014   11        2    11  50    5.69   430.3    6.9      42.825
2014   11        2    11  56    5.69   430.2    6.9      42.805
2014   11        2    12   2    5.69   430.2    6.9      42.784
2014   11        2    12   7    5.68   430.1    6.9      42.764
2014   11        2    12  13    5.68   430.1    6.9      42.743
2014   11        2    12  19    5.68   430.0    6.9      42.723
2014   11        2    12  24    5.68   430.0    6.9      42.703
2014   11        2    12  30    5.67   429.9    6.9      42.682
2014   11        2    12  36    5.67   429.9    6.9      42.662
2014   11        2    12  41    5.67   429.8    6.9      42.643
2014   11        2    12  47    5.67   429.8    6.9      42.623
2014   11        2    12  53    5.66   429.7    6.9      42.604
2014   11        2    12  58    5.66   429.7    6.9      42.585
2014   11        2    13   4    5.66   429.6    6.9      42.566
2014   11        2    13   9    5.66   429.6    6.9      42.547
2014   11        2    13  15    5.66   429.5    6.9      42.528
2014   11        2    13  21    5.65   429.5    6.9      42.509
2014   11        2    13  26    5.65   429.4    6.9      42.491
2014   11        2    13  32    5.65   429.4    6.9      42.472
2014   11        2    13  38    5.65   429.3    6.9      42.454
2014   11        2    13  43    5.65   429.3    6.9      42.436
2014   11        2    13  49    5.64   429.2    6.9      42.417
2014   11        2    13  55    5.64   429.2    6.9      42.399
2014   11        2    14   0    5.64   429.1    6.9      42.381
2014   11        2    14   6    5.64   429.1    6.9      42.363
2014   11        2    14  12    5.64   429.0    6.9      42.345
2014   11        2    14  17    5.63   429.0    6.9      42.327
2014   11        2    14  23    5.63   428.9    6.9      42.309
2014   11        2    14  28    5.63   428.8    6.9      42.290
2014   11        2    14  34    5.63   428.8    6.9      42.272
2014   11        2    14  40    5.63   428.7    6.9      42.254
2014   11        2    14  45    5.62   428.7    6.9      42.236
2014   11        2    14  51    5.62   428.6    6.9      42.217
2014   11        2    14  57    5.62   428.6    6.9      42.199
2014   11        2    15   2    5.62   428.5    6.9      42.180
2014   11        2    15   8    5.62   428.5    6.9      42.162
2014   11        2    15  14    5.62   428.4    6.9      42.143
2014   11        2    15  19    5.61   428.3    6.9      42.124
2014   11        2    15  25    5.61   428.3    6.9      42.105
2014   11        2    15  31    5.61   428.2    6.9      42.087
2014   11        2    15  36    5.61   428.2    6.9      42.068
2014   11        2    15  42    5.61   428.1    6.9      42.049
2014   11        2    15  47    5.61   428.1    6.9      42.030
2014   11        2    15  53    5.60   428.0    6.9      42.011
2014   11        2    15  59    5.60   428.0    6.9      41.992
2014   11        2    16   4    5.60   427.9    6.9      41.973
2014   11        2    16  10    5.60   427.8    6.9      41.954
2014   11        2    16  16    5.60   427.8    6.9      41.935
2014   11        2    16  21    5.60   427.7    6.9      41.916
2014   11        2    16  27    5.60   427.7    6.9      41.897
2014   11        2    16  33    5.59   427.6    6.9      41.877
2014   11        2    16  38    5.59   427.6    6.9      41.858
2014   11        2    16  44    5.59   427.5    6.9      41.839
2014   11        2    16  49    5.59   427.4    6.9      41.820
2014   11        2    16  55    5.59   427.4    6.9      41.801
2014   11        2    17   1    5.59   427.3    6.9      41.781
2014   11        2    17   6    5.59   427.3    6.9      41.762
2014   11        2    17  12    5.58   427.2    6.9      41.743
2014   11        2    17  18    5.58   427.1    6.9      41.724
2014   11        2    17  23    5.58   427.1    6.9      41.705
2014   11        2    17  29    5.58   427.0    6.9      41.687
2014   11        2    17  35    5.58   426.9    6.9      41.668
2014   11        2    17  40    5.58   426.9    6.9      41.650
2014   11        2    17  46    5.58   426.8    6.9      41.631
2014   11        2    17  51    5.58   426.8    6.9      41.613
2014   11        2    17  57    5.57   426.7    6.9      41.595
2014   11        2    18   3    5.57   426.6    6.9      41.578
2014   11        2    18   8    5.57   426.6    6.9      41.560
2014   11        2    18  14    5.57   426.5    6.9      41.543
2014   11        2    18  20    5.57   426.5    6.9      41.526
2014   11        2    18  25    5.57   426.4    6.9      41.510
2014   11        2    18  31    5.57   426.3    6.9      41.494
2014   11        2    18  37    5.57   426.3    6.9      41.478
2014   11        2    18  42    5.57   426.2    6.9      41.463
2014   11        2    18  48    5.57   426.2    6.9      41.449
2014   11        2    18  53    5.57   426.1    6.9      41.434
2014   11        2    18  59    5.57   426.0    6.9      41.421
2014   11        2    19   5    5.56   426.0    6.9      41.408
2014   11        2    19  10    5.56   425.9    6.9      41.395
2014   11        2    19  16    5.56   425.9    6.9      41.383
2014   11        2    19  22    5.56   425.8    6.9      41.372
2014   11        2    19  27    5.56   425.7    6.9      41.361
2014   11        2    19  33    5.56   425.7    6.9      41.350
2014   11        2    19  39    5.56   425.6    6.9      41.340
2014   11        2    19  44    5.56   425.6    6.9      41.331
2014   11        2    19  50    5.56   425.5    6.9      41.323
2014   11        2    19  56    5.56   425.5    6.9      41.315
2014   11        2    20   1    5.56   425.4    6.9      41.308
2014   11        2    20   7    5.56   425.4    6.9      41.301
2014   11        2    20  12    5.56   425.3    6.9      41.295
2014   11        2    20  18    5.56   425.3    6.9      41.290
2014   11        2    20  24    5.56   425.2    6.9      41.285
2014   11        2    20  29    5.56   425.2    6.9      41.280
2014   11        2    20  35    5.56   425.1    6.9      41.276
2014   11        2    20  41    5.56   425.0    6.9      41.271
2014   11        2    20  46    5.56   425.0    6.9      41.268
2014   11        2    20  52    5.56   424.9    6.9      41.264
2014   11        2    20  58    5.56   424.9    6.9      41.261
2014   11        2    21   3    5.56   424.8    6.9      41.257
2014   11        2    21   9    5.56   424.8    6.9      41.254
2014   11        2    21  15    5.56   424.7    7.0      41.250
2014   11        2    21  20    5.56   424.7    7.0      41.246
2014   11        2    21  26    5.56   424.6    7.0      41.243
2014   11        2    21  31    5.56   424.6    7.0      41.239
2014   11        2    21  37    5.56   424.5    7.0      41.236
2014   11        2    21  43    5.56   424.5    7.0      41.232
2014   11        2    21  48    5.55   424.4    7.0      41.228
2014   11        2    21  54    5.56   424.4    7.0      41.224
2014   11        2    22   0    5.55   424.3    7.0      41.220
2014   11        2    22   5    5.55   424.3    7.0      41.215
2014   11        2    22  11    5.55   424.2    7.0      41.211
2014   11        2    22  17    5.55   424.2    7.0      41.207
2014   11        2    22  22    5.55   424.1    7.0      41.202
2014   11        2    22  28    5.55   424.1    7.0      41.198
2014   11        2    22  33    5.55   424.0    7.0      41.193
2014   11        2    22  39    5.55   424.0    7.0      41.188
2014   11        2    22  45    5.55   423.9    7.0      41.184
2014   11        2    22  50    5.55   423.9    7.0      41.179
2014   11        2    22  56    5.55   423.8    7.0      41.174
2014   11        2    23   2    5.55   423.8    7.0      41.169
2014   11        2    23   7    5.55   423.7    7.0      41.165
2014   11        2    23  13    5.55   423.7    7.0      41.160
2014   11        2    23  19    5.55   423.6    7.0      41.155
2014   11        2    23  24    5.55   423.6    7.0      41.151
2014   11        2    23  30    5.55   423.5    7.0      41.146
2014   11        2    23  35    5.55   423.5    7.0      41.141
2014   11        2    23  41    5.55   423.4    7.0      41.136
2014   11        2    23  47    5.55   423.4    7.0      41.132
2014   11        2    23  52    5.56   423.3    7.0      41.127
2014   11        2    23  58    5.56   423.3    7.0      41.123
2014   11        3     0   4    5.56   423.2    7.0      41.119
2014   11        3     0   9    5.56   423.2    7.0      41.114
2014   11        3     0  15    5.56   423.1    7.0      41.110
2014   11        3     0  21    5.56   423.1    7.0      41.106
2014   11        3     0  26    5.56   423.0    7.0      41.102
2014   11        3     0  32    5.56   423.0    7.0      41.098
2014   11        3     0  38    5.56   422.9    7.0      41.095
2014   11        3     0  43    5.56   422.9    7.0      41.091
2014   11        3     0  49    5.56   422.9    7.0      41.087
2014   11        3     0  54    5.56   422.8    7.0      41.084
2014   11        3     1   0    5.56   422.8    7.0      41.081
2014   11        3     1   6    5.56   422.7    7.0      41.078
2014   11        3     1  11    5.56   422.7    7.0      41.075
2014   11        3     1  17    5.56   422.6    7.0      41.072
2014   11        3     1  23    5.56   422.6    7.0      41.070
2014   11        3     1  28    5.56   422.5    7.0      41.067
2014   11        3     1  34    5.56   422.5    7.0      41.065
2014   11        3     1  40    5.56   422.5    7.0      41.063
2014   11        3     1  45    5.56   422.4    7.0      41.061
2014   11        3     1  51    5.56   422.4    7.0      41.059
2014   11        3     1  56    5.56   422.3    7.1      41.058
2014   11        3     2   2    5.56   422.3    7.1      41.057
2014   11        3     2   8    5.56   422.3    7.1      41.056
2014   11        3     2  13    5.56   422.2    7.1      41.056
2014   11        3     2  19    5.56   422.2    7.1      41.056
2014   11        3     2  25    5.56   422.1    7.1      41.056
2014   11        3     2  30    5.57   422.1    7.1      41.056
2014   11        3     2  36    5.57   422.1    7.1      41.057
2014   11        3     2  42    5.57   422.0    7.1      41.058
2014   11        3     2  47    5.57   422.0    7.1      41.059
2014   11        3     2  53    5.57   422.0    7.1      41.061
2014   11        3     2  59    5.57   421.9    7.1      41.064
2014   11        3     3   4    5.57   421.9    7.1      41.067
2014   11        3     3  10    5.57   421.9    7.1      41.071
2014   11        3     3  15    5.57   421.8    7.1      41.075
2014   11        3     3  21    5.57   421.8    7.1      41.080
2014   11        3     3  27    5.57   421.8    7.1      41.085
2014   11        3     3  32    5.57   421.7    7.1      41.091
2014   11        3     3  38    5.57   421.7    7.1      41.097
2014   11        3     3  44    5.58   421.7    7.1      41.104
2014   11        3     3  49    5.58   421.7    7.1      41.111
2014   11        3     3  55    5.58   421.6    7.1      41.118
2014   11        3     4   1    5.58   421.6    7.1      41.126
2014   11        3     4   6    5.58   421.6    7.1      41.134
2014   11        3     4  12    5.58   421.6    7.1      41.142
2014   11        3     4  18    5.58   421.5    7.1      41.151
2014   11        3     4  23    5.58   421.5    7.1      41.160
2014   11        3     4  29    5.58   421.5    7.1      41.170
2014   11        3     4  34    5.58   421.5    7.2      41.181
2014   11        3     4  40    5.58   421.5    7.2      41.192
2014   11        3     4  46    5.59   421.4    7.2      41.203
2014   11        3     4  51    5.59   421.4    7.2      41.215
2014   11        3     4  57    5.59   421.4    7.2      41.227
2014   11        3     5   3    5.59   421.4    7.2      41.240
2014   11        3     5   8    5.59   421.4    7.2      41.252
2014   11        3     5  14    5.59   421.4    7.2      41.265
2014   11        3     5  20    5.59   421.4    7.2      41.279
2014   11        3     5  25    5.59   421.4    7.2      41.292
2014   11        3     5  31    5.59   421.4    7.2      41.306
2014   11        3     5  36    5.59   421.4    7.2      41.319
2014   11        3     5  42    5.60   421.3    7.2      41.333
2014   11        3     5  48    5.60   421.3    7.2      41.347
2014   11        3     5  53    5.60   421.3    7.2      41.360
2014   11        3     5  59    5.60   421.3    7.2      41.373
2014   11        3     6   5    5.60   421.3    7.2      41.387
2014   11        3     6  10    5.60   421.3    7.2      41.400
2014   11        3     6  16    5.60   421.3    7.2      41.413
2014   11        3     6  22    5.60   421.3    7.2      41.426
2014   11        3     6  27    5.60   421.3    7.2      41.439
2014   11        3     6  33    5.60   421.3    7.2      41.452
2014   11        3     6  39    5.60   421.3    7.2      41.465
2014   11        3     6  44    5.61   421.3    7.2      41.478
2014   11        3     6  50    5.61   421.3    7.3      41.491
2014   11        3     6  55    5.61   421.3    7.3      41.503
2014   11        3     7   1    5.61   421.3    7.3      41.516
2014   11        3     7   7    5.61   421.3    7.3      41.529
2014   11        3     7  12    5.61   421.2    7.3      41.542
2014   11        3     7  18    5.61   421.2    7.3      41.555
2014   11        3     7  24    5.61   421.2    7.3      41.568
2014   11        3     7  29    5.61   421.2    7.3      41.581
2014   11        3     7  35    5.61   421.2    7.3      41.593
2014   11        3     7  41    5.61   421.2    7.3      41.606
2014   11        3     7  46    5.61   421.2    7.3      41.620
2014   11        3     7  52    5.62   421.2    7.3      41.633
2014   11        3     7  57    5.62   421.2    7.3      41.646
2014   11        3     8   3    5.62   421.2    7.3      41.659
2014   11        3     8   9    5.62   421.2    7.3      41.673
2014   11        3     8  14    5.62   421.2    7.3      41.686
2014   11        3     8  20    5.62   421.2    7.3      41.700
2014   11        3     8  26    5.62   421.2    7.3      41.713
2014   11        3     8  31    5.62   421.2    7.3      41.727
2014   11        3     8  37    5.62   421.2    7.3      41.741
2014   11        3     8  43    5.62   421.2    7.3      41.755
2014   11        3     8  48    5.62   421.2    7.3      41.769
2014   11        3     8  54    5.63   421.2    7.3      41.783
2014   11        3     9   0    5.63   421.2    7.3      41.797
2014   11        3     9   5    5.63   421.2    7.3      41.811
2014   11        3     9  11    5.63   421.2    7.3      41.825
2014   11        3     9  16    5.63   421.2    7.3      41.840
2014   11        3     9  22    5.63   421.2    7.3      41.854
2014   11        3     9  28    5.63   421.2    7.3      41.868
2014   11        3     9  33    5.63   421.2    7.4      41.883
2014   11        3     9  39    5.63   421.3    7.4      41.898
2014   11        3     9  45    5.63   421.3    7.4      41.913
2014   11        3     9  50    5.63   421.3    7.4      41.928
2014   11        3     9  56    5.64   421.3    7.4      41.943
2014   11        3    10   2    5.64   421.3    7.4      41.959
2014   11        3    10   7    5.64   421.3    7.4      41.974
2014   11        3    10  13    5.64   421.3    7.4      41.990
2014   11        3    10  19    5.64   421.3    7.4      42.007
2014   11        3    10  24    5.64   421.3    7.4      42.023
2014   11        3    10  30    5.64   421.4    7.4      42.039
2014   11        3    10  35    5.64   421.4    7.4      42.056
2014   11        3    10  41    5.64   421.4    7.4      42.072
2014   11        3    10  47    5.64   421.4    7.4      42.089
2014   11        3    10  52    5.65   421.4    7.4      42.106
2014   11        3    10  58    5.65   421.4    7.4      42.123
2014   11        3    11   4    5.65   421.5    7.4      42.139
2014   11        3    11   9    5.65   421.5    7.4      42.157
2014   11        3    11  15    5.65   421.5    7.4      42.173
2014   11        3    11  21    5.65   421.5    7.4      42.191
2014   11        3    11  26    5.65   421.6    7.4      42.208
2014   11        3    11  32    5.65   421.6    7.4      42.225
2014   11        3    11  38    5.65   421.6    7.4      42.242
2014   11        3    11  43    5.66   421.6    7.4      42.259
2014   11        3    11  49    5.66   421.6    7.4      42.276
2014   11        3    11  54    5.66   421.7    7.4      42.294
2014   11        3    12   0    5.66   421.7    7.4      42.312
2014   11        3    12   6    5.66   421.7    7.4      42.330
2014   11        3    12  11    5.66   421.8    7.5      42.349
2014   11        3    12  17    5.66   421.8    7.5      42.368
2014   11        3    12  23    5.66   421.8    7.5      42.387
2014   11        3    12  28    5.66   421.9    7.5      42.407
2014   11        3    12  34    5.66   421.9    7.5      42.428
2014   11        3    12  40    5.67   421.9    7.5      42.449
2014   11        3    12  45    5.67   422.0    7.5      42.470
2014   11        3    12  51    5.67   422.0    7.5      42.492
2014   11        3    12  57    5.67   422.0    7.5      42.514
2014   11        3    13   2    5.67   422.1    7.5      42.537
2014   11        3    13   8    5.67   422.1    7.5      42.561
2014   11        3    13  13    5.67   422.2    7.5      42.584
2014   11        3    13  19    5.67   422.2    7.5      42.608
2014   11        3    13  25    5.67   422.2    7.5      42.631
2014   11        3    13  30    5.67   422.3    7.5      42.655
2014   11        3    13  36    5.67   422.3    7.5      42.678
2014   11        3    13  42    5.68   422.4    7.5      42.702
2014   11        3    13  47    5.68   422.4    7.5      42.726
2014   11        3    13  53    5.68   422.4    7.5      42.749
2014   11        3    13  59    5.68   422.5    7.5      42.773
2014   11        3    14   4    5.68   422.5    7.5      42.797
2014   11        3    14  10    5.68   422.6    7.5      42.820
2014   11        3    14  15    5.68   422.6    7.5      42.843
2014   11        3    14  21    5.68   422.6    7.5      42.865
2014   11        3    14  27    5.68   422.7    7.5      42.888
2014   11        3    14  32    5.68   422.7    7.5      42.910
2014   11        3    14  38    5.68   422.8    7.5      42.932
2014   11        3    14  44    5.68   422.8    7.5      42.953
2014   11        3    14  49    5.68   422.8    7.5      42.975
2014   11        3    14  55    5.68   422.9    7.5      42.996
2014   11        3    15   1    5.68   422.9    7.5      43.016
2014   11        3    15   6    5.69   423.0    7.5      43.037
2014   11        3    15  12    5.69   423.0    7.6      43.056
2014   11        3    15  18    5.69   423.0    7.6      43.076
2014   11        3    15  23    5.69   423.1    7.6      43.095
2014   11        3    15  29    5.69   423.1    7.6      43.114
2014   11        3    15  34    5.69   423.1    7.6      43.132
2014   11        3    15  40    5.69   423.2    7.6      43.151
2014   11        3    15  46    5.69   423.2    7.6      43.168
2014   11        3    15  51    5.69   423.3    7.6      43.186
2014   11        3    15  57    5.69   423.3    7.6      43.203
2014   11        3    16   3    5.69   423.3    7.6      43.220
2014   11        3    16   8    5.69   423.4    7.6      43.237
2014   11        3    16  14    5.69   423.4    7.6      43.254
2014   11        3    16  20    5.69   423.4    7.6      43.270
2014   11        3    16  25    5.69   423.5    7.6      43.286
2014   11        3    16  31    5.69   423.5    7.6      43.302
2014   11        3    16  37    5.69   423.6    7.6      43.318
2014   11        3    16  42    5.69   423.6    7.6      43.333
2014   11        3    16  48    5.69   423.6    7.6      43.349
2014   11        3    16  53    5.69   423.7    7.6      43.364
2014   11        3    16  59    5.70   423.7    7.6      43.379
2014   11        3    17   5    5.70   423.7    7.6      43.394
2014   11        3    17  10    5.70   423.8    7.6      43.409
2014   11        3    17  16    5.70   423.8    7.6      43.424
2014   11        3    17  22    5.70   423.9    7.6      43.438
2014   11        3    17  27    5.70   423.9    7.6      43.453
2014   11        3    17  33    5.70   423.9    7.6      43.467
2014   11        3    17  39    5.70   424.0    7.6      43.481
2014   11        3    17  44    5.70   424.0    7.6      43.495
2014   11        3    17  50    5.70   424.1    7.6      43.509
2014   11        3    17  56    5.70   424.1    7.6      43.523
2014   11        3    18   1    5.70   424.1    7.6      43.537
2014   11        3    18   7    5.70   424.2    7.6      43.550
2014   11        3    18  12    5.70   424.2    7.6      43.563
2014   11        3    18  18    5.70   424.3    7.6      43.576
2014   11        3    18  24    5.70   424.3    7.6      43.589
2014   11        3    18  29    5.70   424.4    7.6      43.601
2014   11        3    18  35    5.70   424.4    7.6      43.613
2014   11        3    18  41    5.70   424.5    7.6      43.625
2014   11        3    18  46    5.70   424.5    7.6      43.637
2014   11        3    18  52    5.70   424.5    7.6      43.649
2014   11        3    18  58    5.70   424.6    7.6      43.660
2014   11        3    19   3    5.70   424.6    7.6      43.671
2014   11        3    19   9    5.70   424.7    7.6      43.682
2014   11        3    19  15    5.70   424.7    7.6      43.693
2014   11        3    19  20    5.70   424.8    7.6      43.704
2014   11        3    19  26    5.70   424.8    7.6      43.715
2014   11        3    19  31    5.70   424.9    7.6      43.725
2014   11        3    19  37    5.70   424.9    7.6      43.736
2014   11        3    19  43    5.71   424.9    7.6      43.746
2014   11        3    19  48    5.71   425.0    7.6      43.757
2014   11        3    19  54    5.71   425.0    7.6      43.767
2014   11        3    20   0    5.71   425.1    7.6      43.778
2014   11        3    20   5    5.71   425.1    7.6      43.789
2014   11        3    20  11    5.71   425.2    7.6      43.800
2014   11        3    20  17    5.71   425.2    7.6      43.811
2014   11        3    20  22    5.71   425.2    7.6      43.822
2014   11        3    20  28    5.71   425.3    7.6      43.834
2014   11        3    20  34    5.71   425.3    7.6      43.846
2014   11        3    20  39    5.71   425.4    7.6      43.859
2014   11        3    20  45    5.71   425.4    7.6      43.872
2014   11        3    20  50    5.71   425.5    7.6      43.886
2014   11        3    20  56    5.71   425.5    7.6      43.900
2014   11        3    21   2    5.71   425.5    7.6      43.915
2014   11        3    21   7    5.71   425.6    7.6      43.930
2014   11        3    21  13    5.71   425.6    7.6      43.946
2014   11        3    21  19    5.71   425.7    7.6      43.962
2014   11        3    21  24    5.71   425.7    7.6      43.979
2014   11        3    21  30    5.71   425.8    7.6      43.996
2014   11        3    21  36    5.71   425.8    7.6      44.014
2014   11        3    21  41    5.71   425.9    7.6      44.032
2014   11        3    21  47    5.71   425.9    7.6      44.050
2014   11        3    21  53    5.71   426.0    7.6      44.068
2014   11        3    21  58    5.71   426.0    7.6      44.087
2014   11        3    22   4    5.71   426.1    7.6      44.106
2014   11        3    22   9    5.71   426.1    7.6      44.126
2014   11        3    22  15    5.71   426.2    7.6      44.145
2014   11        3    22  21    5.71   426.2    7.6      44.165
2014   11        3    22  26    5.71   426.3    7.6      44.185
2014   11        3    22  32    5.71   426.3    7.6      44.204
2014   11        3    22  38    5.71   426.4    7.6      44.224
2014   11        3    22  43    5.71   426.4    7.6      44.243
2014   11        3    22  49    5.71   426.5    7.6      44.262
2014   11        3    22  55    5.71   426.5    7.6      44.280
2014   11        3    23   0    5.71   426.6    7.6      44.298
2014   11        3    23   6    5.71   426.6    7.6      44.316
2014   11        3    23  11    5.71   426.7    7.6      44.333
2014   11        3    23  17    5.71   426.7    7.6      44.350
2014   11        3    23  23    5.72   426.8    7.6      44.367
2014   11        3    23  28    5.72   426.8    7.6      44.382
2014   11        3    23  34    5.72   426.9    7.6      44.397
2014   11        3    23  40    5.72   426.9    7.6      44.412
2014   11        3    23  45    5.72   427.0    7.6      44.426
2014   11        3    23  51    5.72   427.0    7.6      44.439
2014   11        3    23  57    5.72   427.1    7.6      44.452
2014   11        4     0   2    5.72   427.1    7.6      44.464
2014   11        4     0   8    5.72   427.2    7.6      44.476
2014   11        4     0  14    5.72   427.2    7.6      44.488
2014   11        4     0  19    5.72   427.2    7.6      44.499
2014   11        4     0  25    5.72   427.3    7.6      44.509
2014   11        4     0  31    5.72   427.3    7.6      44.519
2014   11        4     0  36    5.72   427.4    7.6      44.529
2014   11        4     0  42    5.72   427.4    7.6      44.538
2014   11        4     0  47    5.72   427.5    7.6      44.547
2014   11        4     0  53    5.72   427.5    7.6      44.555
2014   11        4     0  59    5.72   427.6    7.6      44.562
2014   11        4     1   4    5.72   427.6    7.6      44.570
2014   11        4     1  10    5.72   427.7    7.6      44.576
2014   11        4     1  16    5.72   427.7    7.6      44.583
2014   11        4     1  21    5.72   427.8    7.6      44.589
2014   11        4     1  27    5.72   427.8    7.6      44.594
2014   11        4     1  33    5.72   427.9    7.6      44.599
2014   11        4     1  38    5.71   427.9    7.6      44.603
2014   11        4     1  44    5.71   428.0    7.6      44.607
2014   11        4     1  50    5.71   428.0    7.6      44.611
2014   11        4     1  55    5.71   428.1    7.6      44.614
2014   11        4     2   1    5.71   428.1    7.6      44.617
2014   11        4     2   6    5.71   428.2    7.6      44.619
2014   11        4     2  12    5.71   428.2    7.6      44.622
2014   11        4     2  18    5.71   428.2    7.6      44.623
2014   11        4     2  23    5.71   428.3    7.6      44.625
2014   11        4     2  29    5.71   428.3    7.6      44.626
2014   11        4     2  35    5.71   428.4    7.6      44.627
2014   11        4     2  40    5.71   428.4    7.6      44.627
2014   11        4     2  46    5.71   428.5    7.6      44.627
2014   11        4     2  52    5.71   428.5    7.6      44.627
2014   11        4     2  57    5.71   428.6    7.6      44.627
2014   11        4     3   3    5.71   428.6    7.6      44.627
2014   11        4     3   9    5.71   428.6    7.6      44.626
2014   11        4     3  14    5.71   428.7    7.6      44.625
2014   11        4     3  20    5.71   428.7    7.6      44.624
2014   11        4     3  25    5.71   428.8    7.6      44.623
2014   11        4     3  31    5.71   428.8    7.6      44.622
2014   11        4     3  37    5.71   428.8    7.6      44.621
2014   11        4     3  42    5.71   428.9    7.6      44.620
2014   11        4     3  48    5.71   428.9    7.6      44.618
2014   11        4     3  54    5.71   429.0    7.6      44.617
2014   11        4     3  59    5.71   429.0    7.6      44.616
2014   11        4     4   5    5.71   429.0    7.6      44.615
2014   11        4     4  11    5.71   429.1    7.6      44.614
2014   11        4     4  16    5.71   429.1    7.6      44.613
2014   11        4     4  22    5.71   429.1    7.6      44.612
2014   11        4     4  28    5.71   429.2    7.6      44.612
2014   11        4     4  33    5.71   429.2    7.6      44.612
2014   11        4     4  39    5.71   429.3    7.6      44.612
2014   11        4     4  44    5.71   429.3    7.6      44.612
2014   11        4     4  50    5.71   429.3    7.6      44.613
2014   11        4     4  56    5.71   429.4    7.6      44.614
2014   11        4     5   1    5.71   429.4    7.6      44.616
2014   11        4     5   7    5.71   429.4    7.6      44.617
2014   11        4     5  13    5.71   429.5    7.6      44.620
2014   11        4     5  18    5.71   429.5    7.6      44.623
2014   11        4     5  24    5.71   429.6    7.6      44.627
2014   11        4     5  30    5.71   429.6    7.6      44.631
2014   11        4     5  35    5.71   429.6    7.6      44.636
2014   11        4     5  41    5.71   429.7    7.6      44.642
2014   11        4     5  47    5.71   429.7    7.6      44.648
2014   11        4     5  52    5.71   429.7    7.6      44.654
2014   11        4     5  58    5.71   429.8    7.6      44.660
2014   11        4     6   3    5.71   429.8    7.6      44.667
2014   11        4     6   9    5.71   429.9    7.6      44.673
2014   11        4     6  15    5.71   429.9    7.6      44.680
2014   11        4     6  20    5.71   429.9    7.6      44.687
2014   11        4     6  26    5.71   430.0    7.6      44.693
2014   11        4     6  32    5.71   430.0    7.6      44.700
2014   11        4     6  37    5.71   430.1    7.6      44.707
2014   11        4     6  43    5.71   430.1    7.6      44.713
2014   11        4     6  49    5.71   430.1    7.6      44.719
2014   11        4     6  54    5.71   430.2    7.6      44.724
2014   11        4     7   0    5.71   430.2    7.6      44.730
2014   11        4     7   6    5.71   430.2    7.6      44.734
2014   11        4     7  11    5.71   430.3    7.6      44.739
2014   11        4     7  17    5.71   430.3    7.6      44.743
2014   11        4     7  22    5.71   430.3    7.6      44.747
2014   11        4     7  28    5.71   430.4    7.6      44.751
2014   11        4     7  34    5.71   430.4    7.5      44.755
2014   11        4     7  39    5.71   430.5    7.5      44.758
2014   11        4     7  45    5.71   430.5    7.5      44.761
2014   11        4     7  51    5.71   430.5    7.5      44.764
2014   11        4     7  56    5.71   430.6    7.5      44.767
2014   11        4     8   2    5.71   430.6    7.5      44.770
2014   11        4     8   8    5.71   430.6    7.5      44.773
2014   11        4     8  13    5.71   430.7    7.5      44.775
2014   11        4     8  19    5.71   430.7    7.5      44.777
2014   11        4     8  25    5.71   430.7    7.5      44.779
2014   11        4     8  30    5.71   430.8    7.5      44.781
2014   11        4     8  36    5.71   430.8    7.5      44.783
2014   11        4     8  42    5.71   430.8    7.5      44.785
2014   11        4     8  47    5.71   430.9    7.5      44.786
2014   11        4     8  53    5.71   430.9    7.5      44.788
2014   11        4     8  58    5.71   430.9    7.5      44.789
2014   11        4     9   4    5.71   431.0    7.5      44.791
2014   11        4     9  10    5.71   431.0    7.5      44.791
2014   11        4     9  15    5.71   431.0    7.5      44.792
2014   11        4     9  21    5.71   431.1    7.5      44.793
2014   11        4     9  27    5.71   431.1    7.5      44.794
2014   11        4     9  32    5.71   431.1    7.5      44.794
2014   11        4     9  38    5.71   431.2    7.5      44.794
2014   11        4     9  44    5.71   431.2    7.5      44.795
2014   11        4     9  49    5.71   431.2    7.5      44.795
2014   11        4     9  55    5.71   431.3    7.5      44.794
2014   11        4    10   1    5.71   431.3    7.5      44.794
2014   11        4    10   6    5.71   431.3    7.5      44.793
2014   11        4    10  12    5.71   431.3    7.5      44.792
2014   11        4    10  17    5.71   431.4    7.5      44.791
2014   11        4    10  23    5.71   431.4    7.5      44.790
2014   11        4    10  29    5.71   431.4    7.5      44.789
2014   11        4    10  34    5.71   431.5    7.5      44.787
2014   11        4    10  40    5.71   431.5    7.5      44.786
2014   11        4    10  46    5.71   431.5    7.5      44.784
2014   11        4    10  51    5.71   431.5    7.5      44.782
2014   11        4    10  57    5.71   431.6    7.5      44.780
2014   11        4    11   3    5.71   431.6    7.5      44.778
2014   11        4    11   8    5.71   431.6    7.5      44.775
2014   11        4    11  14    5.71   431.7    7.5      44.773
2014   11        4    11  20    5.71   431.7    7.5      44.770
2014   11        4    11  25    5.71   431.7    7.5      44.767
2014   11        4    11  31    5.71   431.7    7.5      44.764
2014   11        4    11  36    5.71   431.8    7.5      44.761
2014   11        4    11  42    5.71   431.8    7.5      44.758
2014   11        4    11  48    5.71   431.8    7.5      44.755
2014   11        4    11  53    5.71   431.8    7.5      44.752
2014   11        4    11  59    5.71   431.9    7.5      44.749
2014   11        4    12   5    5.71   431.9    7.5      44.745
2014   11        4    12  10    5.71   431.9    7.5      44.742
2014   11        4    12  16    5.71   431.9    7.5      44.739
2014   11        4    12  22    5.71   431.9    7.5      44.736
2014   11        4    12  27    5.71   432.0    7.5      44.732
2014   11        4    12  33    5.71   432.0    7.5      44.729
2014   11        4    12  38    5.71   432.0    7.5      44.726
2014   11        4    12  44    5.71   432.0    7.5      44.724
2014   11        4    12  50    5.71   432.1    7.5      44.721
2014   11        4    12  55    5.71   432.1    7.5      44.719
2014   11        4    13   1    5.71   432.1    7.5      44.717
2014   11        4    13   7    5.71   432.1    7.5      44.715
2014   11        4    13  12    5.71   432.1    7.5      44.714
2014   11        4    13  18    5.71   432.1    7.5      44.713
2014   11        4    13  24    5.71   432.2    7.5      44.712
2014   11        4    13  29    5.71   432.2    7.5      44.711
2014   11        4    13  35    5.71   432.2    7.5      44.711
2014   11        4    13  41    5.71   432.2    7.5      44.710
2014   11        4    13  46    5.71   432.2    7.5      44.710
2014   11        4    13  52    5.71   432.3    7.5      44.710
2014   11        4    13  57    5.71   432.3    7.5      44.711
2014   11        4    14   3    5.71   432.3    7.5      44.712
2014   11        4    14   9    5.71   432.3    7.5      44.712
2014   11        4    14  14    5.71   432.3    7.5      44.714
2014   11        4    14  20    5.71   432.3    7.5      44.715
2014   11        4    14  26    5.71   432.3    7.5      44.716
2014   11        4    14  31    5.71   432.4    7.5      44.718
2014   11        4    14  37    5.72   432.4    7.5      44.720
2014   11        4    14  43    5.72   432.4    7.5      44.722
2014   11        4    14  48    5.72   432.4    7.5      44.724
2014   11        4    14  54    5.72   432.4    7.5      44.727
2014   11        4    15   0    5.72   432.4    7.5      44.729
2014   11        4    15   5    5.72   432.4    7.5      44.732
2014   11        4    15  11    5.72   432.5    7.5      44.736
2014   11        4    15  17    5.72   432.5    7.5      44.739
2014   11        4    15  22    5.72   432.5    7.5      44.743
2014   11        4    15  28    5.72   432.5    7.5      44.746
2014   11        4    15  33    5.72   432.5    7.5      44.751
2014   11        4    15  39    5.72   432.5    7.5      44.755
2014   11        4    15  45    5.72   432.5    7.5      44.759
2014   11        4    15  50    5.72   432.6    7.5      44.764
2014   11        4    15  56    5.72   432.6    7.5      44.769
2014   11        4    16   2    5.72   432.6    7.5      44.774
2014   11        4    16   7    5.72   432.6    7.5      44.780
2014   11        4    16  13    5.72   432.6    7.5      44.785
2014   11        4    16  19    5.73   432.6    7.5      44.791
2014   11        4    16  24    5.73   432.6    7.5      44.797
2014   11        4    16  30    5.73   432.6    7.5      44.804
2014   11        4    16  36    5.73   432.7    7.5      44.810
2014   11        4    16  41    5.73   432.7    7.5      44.817
2014   11        4    16  47    5.73   432.7    7.5      44.824
2014   11        4    16  53    5.73   432.7    7.5      44.831
2014   11        4    16  58    5.73   432.7    7.5      44.838
2014   11        4    17   4    5.73   432.7    7.5      44.845
2014   11        4    17   9    5.73   432.7    7.5      44.852
2014   11        4    17  15    5.74   432.8    7.5      44.859
2014   11        4    17  21    5.74   432.8    7.5      44.866
2014   11        4    17  26    5.74   432.8    7.5      44.873
2014   11        4    17  32    5.74   432.8    7.5      44.880
2014   11        4    17  38    5.74   432.8    7.5      44.887
2014   11        4    17  43    5.74   432.8    7.5      44.894
2014   11        4    17  49    5.74   432.8    7.5      44.901
2014   11        4    17  55    5.74   432.9    7.5      44.908
2014   11        4    18   0    5.74   432.9    7.5      44.914
2014   11        4    18   6    5.75   432.9    7.5      44.921
2014   11        4    18  12    5.75   432.9    7.5      44.927
2014   11        4    18  17    5.75   432.9    7.5      44.933
2014   11        4    18  23    5.75   432.9    7.5      44.939
2014   11        4    18  28    5.75   432.9    7.5      44.945
2014   11        4    18  34    5.75   433.0    7.5      44.951
2014   11        4    18  40    5.75   433.0    7.5      44.957
2014   11        4    18  45    5.75   433.0    7.5      44.962
2014   11        4    18  51    5.75   433.0    7.5      44.968
2014   11        4    18  57    5.76   433.0    7.5      44.973
2014   11        4    19   2    5.76   433.0    7.5      44.978
2014   11        4    19   8    5.76   433.0    7.5      44.983
2014   11        4    19  14    5.76   433.1    7.5      44.988
2014   11        4    19  19    5.76   433.1    7.5      44.992
2014   11        4    19  25    5.76   433.1    7.5      44.997
2014   11        4    19  30    5.76   433.1    7.5      45.002
2014   11        4    19  36    5.76   433.1    7.5      45.006
2014   11        4    19  42    5.76   433.1    7.5      45.011
2014   11        4    19  47    5.77   433.1    7.6      45.015
2014   11        4    19  53    5.77   433.1    7.6      45.019
2014   11        4    19  59    5.77   433.1    7.6      45.024
2014   11        4    20   4    5.77   433.2    7.6      45.028
2014   11        4    20  10    5.77   433.2    7.6      45.033
2014   11        4    20  16    5.77   433.2    7.6      45.037
2014   11        4    20  21    5.77   433.2    7.6      45.042
2014   11        4    20  27    5.77   433.2    7.6      45.046
2014   11        4    20  33    5.78   433.2    7.6      45.050
2014   11        4    20  38    5.78   433.2    7.6      45.055
2014   11        4    20  44    5.78   433.2    7.6      45.060
2014   11        4    20  49    5.78   433.2    7.6      45.064
2014   11        4    20  55    5.78   433.2    7.6      45.069
2014   11        4    21   1    5.78   433.2    7.6      45.074
2014   11        4    21   6    5.78   433.2    7.6      45.078
2014   11        4    21  12    5.79   433.2    7.6      45.083
2014   11        4    21  18    5.79   433.2    7.6      45.088
2014   11        4    21  23    5.79   433.2    7.6      45.093
2014   11        4    21  29    5.79   433.2    7.6      45.098
2014   11        4    21  35    5.79   433.3    7.6      45.104
2014   11        4    21  40    5.79   433.3    7.6      45.109
2014   11        4    21  46    5.80   433.3    7.6      45.115
2014   11        4    21  52    5.80   433.3    7.6      45.122
2014   11        4    21  57    5.80   433.3    7.6      45.129
2014   11        4    22   3    5.80   433.3    7.6      45.137
2014   11        4    22   9    5.80   433.3    7.6      45.145
2014   11        4    22  14    5.80   433.3    7.6      45.154
2014   11        4    22  20    5.81   433.3    7.6      45.163
2014   11        4    22  25    5.81   433.3    7.6      45.172
2014   11        4    22  31    5.81   433.3    7.6      45.182
2014   11        4    22  37    5.81   433.3    7.6      45.192
2014   11        4    22  42    5.81   433.3    7.6      45.202
2014   11        4    22  48    5.81   433.3    7.6      45.213
2014   11        4    22  54    5.82   433.3    7.6      45.224
2014   11        4    22  59    5.82   433.4    7.6      45.235
2014   11        4    23   5    5.82   433.4    7.6      45.246
2014   11        4    23  11    5.82   433.4    7.6      45.257
2014   11        4    23  16    5.82   433.4    7.6      45.267
2014   11        4    23  22    5.83   433.4    7.6      45.278
2014   11        4    23  28    5.83   433.4    7.6      45.289
2014   11        4    23  33    5.83   433.4    7.6      45.300
2014   11        4    23  39    5.83   433.4    7.6      45.311
2014   11        4    23  44    5.84   433.4    7.6      45.322
2014   11        4    23  50    5.84   433.5    7.6      45.334
2014   11        4    23  56    5.84   433.5    7.6      45.344
2014   11        5     0   1    5.84   433.5    7.6      45.355
2014   11        5     0   7    5.84   433.5    7.6      45.367
2014   11        5     0  13    5.85   433.5    7.6      45.377
2014   11        5     0  18    5.85   433.5    7.6      45.389
2014   11        5     0  24    5.85   433.5    7.6      45.400
2014   11        5     0  30    5.85   433.5    7.6      45.410
2014   11        5     0  35    5.86   433.5    7.6      45.421
2014   11        5     0  41    5.86   433.5    7.6      45.432
2014   11        5     0  47    5.86   433.6    7.7      45.443
2014   11        5     0  52    5.86   433.6    7.7      45.454
2014   11        5     0  58    5.87   433.6    7.7      45.464
2014   11        5     1   3    5.87   433.6    7.7      45.475
2014   11        5     1   9    5.87   433.6    7.7      45.486
2014   11        5     1  15    5.87   433.6    7.7      45.496
2014   11        5     1  20    5.88   433.6    7.7      45.507
2014   11        5     1  26    5.88   433.7    7.7      45.518
2014   11        5     1  32    5.88   433.7    7.7      45.529
2014   11        5     1  37    5.88   433.7    7.7      45.540
2014   11        5     1  43    5.89   433.7    7.7      45.551
2014   11        5     1  49    5.89   433.7    7.7      45.562
2014   11        5     1  54    5.89   433.7    7.7      45.574
2014   11        5     2   0    5.90   433.8    7.7      45.585
2014   11        5     2   6    5.90   433.8    7.7      45.597
2014   11        5     2  11    5.90   433.8    7.7      45.610
2014   11        5     2  17    5.91   433.8    7.7      45.622
2014   11        5     2  22    5.91   433.8    7.7      45.636
2014   11        5     2  28    5.91   433.8    7.7      45.649
2014   11        5     2  34    5.92   433.9    7.7      45.663
2014   11        5     2  39    5.92   433.9    7.7      45.678
2014   11        5     2  45    5.92   433.9    7.7      45.693
2014   11        5     2  51    5.93   433.9    7.7      45.709
2014   11        5     2  56    5.93   434.0    7.7      45.726
2014   11        5     3   2    5.93   434.0    7.7      45.744
2014   11        5     3   8    5.94   434.0    7.7      45.763
2014   11        5     3  13    5.94   434.0    7.7      45.782
2014   11        5     3  19    5.94   434.1    7.7      45.802
2014   11        5     3  24    5.95   434.1    7.7      45.823
2014   11        5     3  30    5.95   434.1    7.7      45.844
2014   11        5     3  36    5.96   434.2    7.7      45.866
2014   11        5     3  41    5.96   434.2    7.7      45.888
2014   11        5     3  47    5.96   434.2    7.8      45.912
2014   11        5     3  53    5.97   434.3    7.8      45.935
2014   11        5     3  58    5.97   434.3    7.8      45.959
2014   11        5     4   4    5.98   434.4    7.8      45.983
2014   11        5     4  10    5.98   434.4    7.8      46.009
2014   11        5     4  15    5.98   434.4    7.8      46.035
2014   11        5     4  21    5.99   434.5    7.8      46.061
2014   11        5     4  27    5.99   434.5    7.8      46.088
2014   11        5     4  32    6.00   434.6    7.8      46.115
2014   11        5     4  38    6.00   434.6    7.8      46.143
2014   11        5     4  44    6.00   434.7    7.8      46.171
2014   11        5     4  49    6.01   434.7    7.8      46.199
2014   11        5     4  55    6.01   434.8    7.8      46.227
2014   11        5     5   0    6.01   434.8    7.8      46.255
2014   11        5     5   6    6.02   434.9    7.8      46.284
2014   11        5     5  12    6.02   434.9    7.8      46.312
2014   11        5     5  17    6.03   435.0    7.8      46.340
2014   11        5     5  23    6.03   435.0    7.8      46.368
2014   11        5     5  29    6.03   435.1    7.8      46.395
2014   11        5     5  34    6.04   435.1    7.8      46.422
2014   11        5     5  40    6.04   435.2    7.8      46.449
2014   11        5     5  46    6.05   435.2    7.8      46.475
2014   11        5     5  51    6.05   435.3    7.8      46.501
2014   11        5     5  57    6.05   435.3    7.9      46.527
2014   11        5     6   3    6.06   435.4    7.9      46.553
2014   11        5     6   8    6.06   435.4    7.9      46.578
2014   11        5     6  14    6.06   435.5    7.9      46.604
2014   11        5     6  20    6.07   435.6    7.9      46.629
2014   11        5     6  25    6.07   435.6    7.9      46.655
2014   11        5     6  31    6.08   435.7    7.9      46.681
2014   11        5     6  36    6.08   435.7    7.9      46.708
2014   11        5     6  42    6.08   435.8    7.9      46.735
2014   11        5     6  48    6.09   435.8    7.9      46.762
2014   11        5     6  53    6.09   435.9    7.9      46.790
2014   11        5     6  59    6.10   436.0    7.9      46.818
2014   11        5     7   5    6.10   436.0    7.9      46.846
2014   11        5     7  10    6.10   436.1    7.9      46.875
2014   11        5     7  16    6.11   436.2    7.9      46.904
2014   11        5     7  22    6.11   436.2    7.9      46.933
2014   11        5     7  27    6.12   436.3    7.9      46.963
2014   11        5     7  33    6.12   436.4    7.9      46.992
2014   11        5     7  39    6.13   436.4    7.9      47.023
2014   11        5     7  44    6.13   436.5    7.9      47.053
2014   11        5     7  50    6.13   436.5    7.9      47.083
2014   11        5     7  55    6.14   436.6    7.9      47.113
2014   11        5     8   1    6.14   436.7    7.9      47.144
2014   11        5     8   7    6.15   436.7    7.9      47.175
2014   11        5     8  12    6.15   436.8    7.9      47.205
2014   11        5     8  18    6.16   436.9    7.9      47.236
2014   11        5     8  24    6.16   437.0    7.9      47.267
2014   11        5     8  29    6.17   437.0    7.9      47.299
2014   11        5     8  35    6.17   437.1    7.9      47.330
2014   11        5     8  41    6.18   437.2    7.9      47.362
2014   11        5     8  46    6.18   437.2    7.9      47.395
2014   11        5     8  52    6.18   437.3    8.0      47.428
2014   11        5     8  57    6.19   437.4    8.0      47.461
2014   11        5     9   3    6.19   437.5    8.0      47.495
2014   11        5     9   9    6.20   437.6    8.0      47.530
2014   11        5     9  14    6.20   437.6    8.0      47.566
2014   11        5     9  20    6.21   437.7    8.0      47.602
2014   11        5     9  26    6.21   437.8    8.0      47.639
2014   11        5     9  31    6.22   437.9    8.0      47.676
2014   11        5     9  37    6.22   438.0    8.0      47.715
2014   11        5     9  43    6.23   438.1    8.0      47.754
2014   11        5     9  48    6.23   438.2    8.0      47.793
2014   11        5     9  54    6.24   438.3    8.0      47.833
2014   11        5    10   0    6.24   438.3    8.0      47.873
2014   11        5    10   5    6.25   438.4    8.0      47.914
2014   11        5    10  11    6.25   438.5    8.0      47.956
2014   11        5    10  16    6.26   438.6    8.0      47.998
2014   11        5    10  22    6.26   438.7    8.0      48.040
2014   11        5    10  28    6.27   438.8    8.0      48.083
2014   11        5    10  33    6.27   438.9    8.0      48.126
2014   11        5    10  39    6.28   439.0    8.0      48.170
2014   11        5    10  45    6.28   439.1    8.0      48.215
2014   11        5    10  50    6.29   439.2    8.1      48.260
2014   11        5    10  56    6.29   439.3    8.1      48.305
2014   11        5    11   2    6.30   439.4    8.1      48.351
2014   11        5    11   7    6.30   439.5    8.1      48.398
2014   11        5    11  13    6.31   439.6    8.1      48.447
2014   11        5    11  19    6.31   439.8    8.1      48.497
2014   11        5    11  24    6.32   439.9    8.1      48.548
2014   11        5    11  30    6.32   440.0    8.1      48.601
2014   11        5    11  35    6.33   440.1    8.1      48.654
2014   11        5    11  41    6.33   440.2    8.1      48.709
2014   11        5    11  47    6.33   440.3    8.1      48.764
2014   11        5    11  52    6.34   440.5    8.1      48.819
2014   11        5    11  58    6.34   440.6    8.1      48.875
2014   11        5    12   4    6.35   440.7    8.1      48.932
2014   11        5    12   9    6.35   440.8    8.2      48.989
2014   11        5    12  15    6.36   441.0    8.2      49.047
2014   11        5    12  21    6.36   441.1    8.2      49.105
2014   11        5    12  26    6.37   441.2    8.2      49.162
2014   11        5    12  32    6.37   441.4    8.2      49.219
2014   11        5    12  38    6.38   441.5    8.2      49.276
2014   11        5    12  43    6.38   441.6    8.2      49.333
2014   11        5    12  49    6.39   441.7    8.2      49.391
2014   11        5    12  54    6.39   441.9    8.2      49.448
2014   11        5    13   0    6.40   442.0    8.2      49.506
2014   11        5    13   6    6.40   442.1    8.2      49.564
2014   11        5    13  11    6.41   442.3    8.2      49.622
2014   11        5    13  17    6.41   442.4    8.2      49.680
2014   11        5    13  23    6.42   442.6    8.2      49.738
2014   11        5    13  28    6.42   442.7    8.2      49.796
2014   11        5    13  34    6.43   442.8    8.2      49.854
2014   11        5    13  40    6.43   443.0    8.2      49.912
2014   11        5    13  45    6.44   443.1    8.3      49.970
2014   11        5    13  51    6.44   443.3    8.3      50.027
2014   11        5    13  57    6.45   443.4    8.3      50.085
2014   11        5    14   2    6.45   443.6    8.3      50.142
2014   11        5    14   8    6.46   443.7    8.3      50.199
2014   11        5    14  14    6.46   443.9    8.3      50.255
2014   11        5    14  19    6.47   444.0    8.3      50.311
2014   11        5    14  25    6.47   444.2    8.3      50.367
2014   11        5    14  30    6.48   444.3    8.3      50.422
2014   11        5    14  36    6.48   444.5    8.3      50.477
2014   11        5    14  42    6.49   444.6    8.3      50.532
2014   11        5    14  47    6.49   444.8    8.3      50.586
2014   11        5    14  53    6.50   444.9    8.3      50.639
2014   11        5    14  59    6.50   445.1    8.3      50.693
2014   11        5    15   4    6.51   445.2    8.3      50.745
2014   11        5    15  10    6.51   445.4    8.3      50.798
2014   11        5    15  16    6.52   445.5    8.3      50.850
2014   11        5    15  21    6.52   445.7    8.3      50.902
2014   11        5    15  27    6.53   445.8    8.3      50.953
2014   11        5    15  33    6.53   446.0    8.3      51.004
2014   11        5    15  38    6.54   446.1    8.3      51.055
2014   11        5    15  44    6.54   446.3    8.4      51.106
2014   11        5    15  49    6.55   446.4    8.4      51.156
2014   11        5    15  55    6.55   446.6    8.4      51.207
2014   11        5    16   1    6.56   446.7    8.4      51.258
2014   11        5    16   6    6.56   446.9    8.4      51.310
2014   11        5    16  12    6.57   447.1    8.4      51.363
2014   11        5    16  18    6.57   447.2    8.4      51.417
2014   11        5    16  23    6.58   447.4    8.4      51.473
2014   11        5    16  29    6.58   447.5    8.4      51.529
2014   11        5    16  35    6.59   447.7    8.4      51.587
2014   11        5    16  40    6.59   447.9    8.4      51.646
2014   11        5    16  46    6.60   448.0    8.4      51.706
2014   11        5    16  51    6.60   448.2    8.4      51.767
2014   11        5    16  57    6.61   448.4    8.4      51.828
2014   11        5    17   3    6.62   448.5    8.4      51.889
2014   11        5    17   8    6.62   448.7    8.4      51.952
2014   11        5    17  14    6.63   448.9    8.4      52.016
2014   11        5    17  20    6.63   449.1    8.4      52.081
2014   11        5    17  25    6.64   449.3    8.4      52.146
2014   11        5    17  31    6.64   449.4    8.4      52.211
2014   11        5    17  37    6.65   449.6    8.4      52.277
2014   11        5    17  42    6.65   449.8    8.5      52.343
2014   11        5    17  48    6.66   450.0    8.5      52.409
2014   11        5    17  54    6.66   450.2    8.5      52.475
2014   11        5    17  59    6.67   450.4    8.5      52.541
2014   11        5    18   5    6.67   450.6    8.5      52.607
2014   11        5    18  10    6.67   450.8    8.5      52.673
2014   11        5    18  16    6.68   451.0    8.5      52.739
2014   11        5    18  22    6.68   451.1    8.5      52.803
2014   11        5    18  27    6.69   451.3    8.5      52.867
2014   11        5    18  33    6.69   451.5    8.5      52.931
2014   11        5    18  39    6.70   451.7    8.5      52.993
2014   11        5    18  44    6.70   451.9    8.5      53.055
2014   11        5    18  50    6.71   452.1    8.5      53.117
2014   11        5    18  56    6.71   452.3    8.5      53.177
2014   11        5    19   1    6.72   452.5    8.5      53.237
2014   11        5    19   7    6.72   452.7    8.5      53.296
2014   11        5    19  13    6.72   452.9    8.5      53.354
2014   11        5    19  18    6.73   453.1    8.5      53.411
2014   11        5    19  24    6.73   453.3    8.5      53.467
2014   11        5    19  29    6.74   453.5    8.5      53.523
2014   11        5    19  35    6.74   453.7    8.5      53.578
2014   11        5    19  41    6.75   453.9    8.5      53.633
2014   11        5    19  46    6.75   454.1    8.5      53.686
2014   11        5    19  52    6.75   454.3    8.5      53.740
2014   11        5    19  58    6.76   454.5    8.5      53.793
2014   11        5    20   3    6.76   454.7    8.5      53.845
2014   11        5    20   9    6.77   454.9    8.5      53.897
2014   11        5    20  15    6.77   455.1    8.5      53.949
2014   11        5    20  20    6.78   455.3    8.5      54.001
2014   11        5    20  26    6.78   455.5    8.5      54.053
2014   11        5    20  32    6.78   455.7    8.5      54.104
2014   11        5    20  37    6.79   455.9    8.5      54.156
2014   11        5    20  43    6.79   456.1    8.5      54.208
2014   11        5    20  49    6.80   456.3    8.5      54.260
2014   11        5    20  54    6.80   456.5    8.5      54.313
2014   11        5    21   0    6.81   456.7    8.4      54.365
2014   11        5    21   5    6.81   456.9    8.4      54.419
2014   11        5    21  11    6.82   457.1    8.4      54.472
2014   11        5    21  17    6.82   457.3    8.4      54.527
2014   11        5    21  22    6.83   457.6    8.4      54.582
2014   11        5    21  28    6.83   457.8    8.4      54.638
2014   11        5    21  34    6.83   458.0    8.4      54.694
2014   11        5    21  39    6.84   458.2    8.4      54.751
2014   11        5    21  45    6.84   458.4    8.4      54.809
2014   11        5    21  51    6.85   458.7    8.4      54.869
2014   11        5    21  56    6.85   458.9    8.4      54.929
2014   11        5    22   2    6.86   459.1    8.4      54.990
2014   11        5    22   8    6.86   459.4    8.4      55.051
2014   11        5    22  13    6.87   459.6    8.4      55.115
2014   11        5    22  19    6.87   459.8    8.4      55.180
2014   11        5    22  24    6.88   460.1    8.4      55.247
2014   11        5    22  30    6.89   460.3    8.4      55.317
2014   11        5    22  36    6.89   460.6    8.4      55.388
2014   11        5    22  41    6.90   460.8    8.4      55.462
2014   11        5    22  47    6.90   461.1    8.4      55.537
2014   11        5    22  53    6.91   461.3    8.4      55.613
2014   11        5    22  58    6.91   461.6    8.4      55.691
2014   11        5    23   4    6.92   461.9    8.4      55.769
2014   11        5    23  10    6.92   462.1    8.5      55.849
2014   11        5    23  15    6.93   462.4    8.5      55.929
2014   11        5    23  21    6.93   462.7    8.5      56.011
2014   11        5    23  26    6.94   462.9    8.5      56.093
2014   11        5    23  32    6.94   463.2    8.5      56.175
2014   11        5    23  38    6.95   463.5    8.5      56.257
2014   11        5    23  43    6.95   463.7    8.5      56.339
2014   11        5    23  49    6.96   464.0    8.5      56.421
2014   11        5    23  55    6.96   464.3    8.5      56.503
2014   11        6     0   0    6.97   464.5    8.5      56.585
2014   11        6     0   6    6.97   464.8    8.5      56.667
2014   11        6     0  12    6.98   465.1    8.5      56.749
2014   11        6     0  17    6.98   465.3    8.5      56.831
2014   11        6     0  23    6.99   465.6    8.5      56.914
2014   11        6     0  29    6.99   465.9    8.5      56.998
2014   11        6     0  34    7.00   466.2    8.5      57.083
2014   11        6     0  40    7.00   466.4    8.5      57.170
2014   11        6     0  45    7.01   466.7    8.5      57.258
2014   11        6     0  51    7.01   467.0    8.5      57.347
2014   11        6     0  57    7.02   467.3    8.5      57.436
2014   11        6     1   2    7.02   467.6    8.5      57.527
2014   11        6     1   8    7.03   467.9    8.5      57.620
2014   11        6     1  14    7.03   468.1    8.5      57.714
2014   11        6     1  19    7.04   468.4    8.5      57.809
2014   11        6     1  25    7.04   468.7    8.5      57.905
2014   11        6     1  31    7.04   469.0    8.5      58.002
2014   11        6     1  36    7.05   469.3    8.5      58.099
2014   11        6     1  42    7.05   469.6    8.5      58.196
2014   11        6     1  47    7.06   469.9    8.5      58.292
2014   11        6     1  53    7.06   470.3    8.5      58.387
2014   11        6     1  59    7.07   470.6    8.5      58.480
2014   11        6     2   4    7.07   470.9    8.5      58.572
2014   11        6     2  10    7.07   471.2    8.5      58.663
2014   11        6     2  16    7.08   471.5    8.5      58.753
2014   11        6     2  21    7.08   471.8    8.5      58.841
2014   11        6     2  27    7.08   472.1    8.5      58.926
2014   11        6     2  33    7.09   472.4    8.5      59.010
2014   11        6     2  38    7.09   472.7    8.5      59.091
2014   11        6     2  44    7.10   473.0    8.5      59.170
2014   11        6     2  50    7.10   473.3    8.5      59.248
2014   11        6     2  55    7.10   473.6    8.5      59.324
2014   11        6     3   1    7.11   474.0    8.4      59.398
2014   11        6     3   7    7.11   474.3    8.4      59.470
2014   11        6     3  12    7.11   474.6    8.4      59.541
2014   11        6     3  18    7.11   474.9    8.4      59.609
2014   11        6     3  23    7.12   475.2    8.4      59.676
2014   11        6     3  29    7.12   475.5    8.4      59.741
2014   11        6     3  35    7.12   475.8    8.4      59.805
2014   11        6     3  40    7.13   476.1    8.4      59.868
2014   11        6     3  46    7.13   476.4    8.4      59.931
2014   11        6     3  52    7.13   476.7    8.4      59.994
2014   11        6     3  57    7.13   477.0    8.4      60.058
2014   11        6     4   3    7.14   477.4    8.4      60.123
2014   11        6     4   9    7.14   477.7    8.4      60.190
2014   11        6     4  14    7.14   478.0    8.4      60.260
2014   11        6     4  20    7.15   478.3    8.3      60.334
2014   11        6     4  26    7.15   478.7    8.3      60.411
2014   11        6     4  31    7.15   479.0    8.3      60.490
2014   11        6     4  37    7.16   479.4    8.3      60.571
2014   11        6     4  42    7.16   479.8    8.3      60.653
2014   11        6     4  48    7.16   480.2    8.3      60.736
2014   11        6     4  54    7.17   480.5    8.3      60.818
2014   11        6     4  59    7.17   480.9    8.3      60.901
2014   11        6     5   5    7.17   481.3    8.3      60.983
2014   11        6     5  11    7.18   481.7    8.3      61.065
2014   11        6     5  16    7.18   482.1    8.3      61.146
2014   11        6     5  22    7.18   482.4    8.3      61.225
2014   11        6     5  28    7.19   482.8    8.3      61.304
2014   11        6     5  33    7.19   483.2    8.3      61.382
2014   11        6     5  39    7.19   483.6    8.2      61.460
2014   11        6     5  45    7.20   483.9    8.2      61.538
2014   11        6     5  50    7.20   484.3    8.2      61.615
2014   11        6     5  56    7.20   484.7    8.2      61.693
2014   11        6     6   1    7.21   485.1    8.2      61.772
2014   11        6     6   7    7.21   485.4    8.2      61.853
2014   11        6     6  13    7.21   485.8    8.2      61.935
2014   11        6     6  18    7.21   486.2    8.2      62.019
2014   11        6     6  24    7.22   486.6    8.2      62.105
2014   11        6     6  30    7.22   487.0    8.2      62.191
2014   11        6     6  35    7.22   487.4    8.2      62.279
2014   11        6     6  41    7.22   487.8    8.2      62.368
2014   11        6     6  47    7.23   488.2    8.2      62.458
2014   11        6     6  52    7.23   488.6    8.2      62.547
2014   11        6     6  58    7.23   489.0    8.1      62.637
2014   11        6     7   4    7.23   489.4    8.1      62.727
2014   11        6     7   9    7.23   489.8    8.1      62.818
2014   11        6     7  15    7.24   490.2    8.1      62.908
2014   11        6     7  20    7.24   490.6    8.1      62.998
2014   11        6     7  26    7.24   491.0    8.1      63.086
2014   11        6     7  32    7.24   491.4    8.1      63.173
2014   11        6     7  37    7.24   491.8    8.1      63.259
2014   11        6     7  43    7.24   492.2    8.1      63.344
2014   11        6     7  49    7.24   492.6    8.1      63.429
2014   11        6     7  54    7.24   493.0    8.1      63.513
2014   11        6     8   0    7.24   493.4    8.1      63.597
2014   11        6     8   6    7.24   493.9    8.0      63.679
2014   11        6     8  11    7.25   494.3    8.0      63.761
2014   11        6     8  17    7.25   494.7    8.0      63.841
2014   11        6     8  22    7.25   495.1    8.0      63.921
2014   11        6     8  28    7.25   495.5    8.0      63.999
2014   11        6     8  34    7.25   496.0    8.0      64.076
2014   11        6     8  39    7.25   496.4    8.0      64.152
2014   11        6     8  45    7.25   496.8    8.0      64.227
2014   11        6     8  51    7.25   497.3    8.0      64.301
2014   11        6     8  56    7.25   497.7    7.9      64.376
2014   11        6     9   2    7.24   498.2    7.9      64.450
2014   11        6     9   8    7.24   498.6    7.9      64.523
2014   11        6     9  13    7.24   499.0    7.9      64.596
2014   11        6     9  19    7.24   499.5    7.9      64.666
2014   11        6     9  24    7.24   499.9    7.9      64.737
2014   11        6     9  30    7.24   500.4    7.9      64.806
2014   11        6     9  36    7.24   500.8    7.9      64.872
2014   11        6     9  41    7.24   501.3    7.8      64.934
2014   11        6     9  47    7.24   501.7    7.8      64.993
2014   11        6     9  53    7.23   502.1    7.8      65.049
2014   11        6     9  58    7.23   502.6    7.8      65.102
2014   11        6    10   4    7.23   503.0    7.8      65.152
2014   11        6    10  10    7.23   503.4    7.8      65.201
2014   11        6    10  15    7.22   503.8    7.7      65.248
2014   11        6    10  21    7.22   504.2    7.7      65.294
2014   11        6    10  27    7.22   504.6    7.7      65.340
2014   11        6    10  32    7.22   505.1    7.7      65.384
2014   11        6    10  38    7.21   505.5    7.7      65.427
2014   11        6    10  44    7.21   505.9    7.6      65.470
2014   11        6    10  49    7.21   506.3    7.6      65.514
2014   11        6    10  55    7.21   506.7    7.6      65.558
2014   11        6    11   0    7.20   507.1    7.6      65.603
2014   11        6    11   6    7.20   507.4    7.6      65.650
2014   11        6    11  12    7.20   507.8    7.6      65.697
2014   11        6    11  17    7.20   508.2    7.6      65.745
2014   11        6    11  23    7.20   508.6    7.5      65.794
2014   11        6    11  29    7.19   509.0    7.5      65.844
2014   11        6    11  34    7.19   509.4    7.5      65.898
2014   11        6    11  40    7.19   509.8    7.5      65.954
2014   11        6    11  46    7.19   510.3    7.5      66.013
2014   11        6    11  51    7.18   510.7    7.5      66.075
2014   11        6    11  57    7.18   511.1    7.5      66.141
2014   11        6    12   3    7.18   511.6    7.4      66.208
2014   11        6    12   8    7.18   512.0    7.4      66.277
2014   11        6    12  14    7.18   512.5    7.4      66.346
2014   11        6    12  20    7.18   513.0    7.4      66.415
2014   11        6    12  25    7.17   513.4    7.4      66.485
2014   11        6    12  31    7.17   513.9    7.4      66.554
2014   11        6    12  36    7.17   514.4    7.4      66.622
2014   11        6    12  42    7.16   514.8    7.3      66.689
2014   11        6    12  48    7.16   515.3    7.3      66.755
2014   11        6    12  53    7.16   515.8    7.3      66.820
2014   11        6    12  59    7.16   516.2    7.3      66.885
2014   11        6    13   5    7.15   516.7    7.3      66.948
2014   11        6    13  10    7.15   517.2    7.3      67.009
2014   11        6    13  16    7.15   517.7    7.3      67.068
2014   11        6    13  22    7.14   518.1    7.2      67.126
2014   11        6    13  27    7.14   518.6    7.2      67.184
2014   11        6    13  33    7.13   519.1    7.2      67.239
2014   11        6    13  38    7.13   519.6    7.2      67.291
2014   11        6    13  44    7.13   520.1    7.2      67.342
2014   11        6    13  50    7.12   520.5    7.2      67.391
2014   11        6    13  55    7.12   521.0    7.1      67.437
2014   11        6    14   1    7.11   521.5    7.1      67.482
2014   11        6    14   7    7.10   522.0    7.1      67.526
2014   11        6    14  12    7.10   522.5    7.1      67.566
2014   11        6    14  18    7.09   522.9    7.1      67.603
2014   11        6    14  24    7.09   523.4    7.0      67.638
2014   11        6    14  29    7.08   523.9    7.0      67.670
2014   11        6    14  35    7.08   524.3    7.0      67.701
2014   11        6    14  40    7.07   524.7    7.0      67.729
2014   11        6    14  46    7.06   525.2    7.0      67.756
2014   11        6    14  52    7.06   525.6    6.9      67.782
2014   11        6    14  57    7.05   526.0    6.9      67.808
2014   11        6    15   3    7.04   526.5    6.9      67.834
2014   11        6    15   9    7.04   526.9    6.9      67.858
2014   11        6    15  14    7.03   527.3    6.9      67.882
2014   11        6    15  20    7.02   527.7    6.8      67.905
2014   11        6    15  26    7.02   528.1    6.8      67.930
2014   11        6    15  31    7.01   528.6    6.8      67.954
2014   11        6    15  37    7.00   529.0    6.8      67.980
2014   11        6    15  42    7.00   529.4    6.8      68.005
2014   11        6    15  48    6.99   529.8    6.8      68.029
2014   11        6    15  54    6.98   530.2    6.7      68.053
2014   11        6    15  59    6.98   530.7    6.7      68.078
2014   11        6    16   5    6.97   531.1    6.7      68.101
2014   11        6    16  11    6.97   531.5    6.7      68.125
2014   11        6    16  16    6.96   532.0    6.7      68.148
2014   11        6    16  22    6.95   532.4    6.7      68.170
2014   11        6    16  28    6.94   532.9    6.6      68.191
2014   11        6    16  33    6.94   533.3    6.6      68.211
2014   11        6    16  39    6.93   533.8    6.6      68.229
2014   11        6    16  45    6.92   534.3    6.6      68.245
2014   11        6    16  50    6.91   534.7    6.6      68.259
2014   11        6    16  56    6.91   535.2    6.5      68.272
2014   11        6    17   1    6.90   535.6    6.5      68.282
2014   11        6    17   7    6.89   536.1    6.5      68.286
2014   11        6    17  13    6.88   536.5    6.5      68.285
2014   11        6    17  18    6.87   536.9    6.5      68.277
2014   11        6    17  24    6.86   537.4    6.4      68.265
2014   11        6    17  30    6.85   537.8    6.4      68.246
2014   11        6    17  35    6.85   538.1    6.4      68.223
2014   11        6    17  41    6.84   538.5    6.4      68.197
2014   11        6    17  47    6.83   538.9    6.3      68.168
2014   11        6    17  52    6.82   539.3    6.3      68.136
2014   11        6    17  58    6.81   539.6    6.3      68.103
2014   11        6    18   4    6.80   540.0    6.3      68.068
2014   11        6    18   9    6.79   540.3    6.3      68.032
2014   11        6    18  15    6.78   540.6    6.2      67.998
2014   11        6    18  21    6.77   541.0    6.2      67.965
2014   11        6    18  26    6.76   541.3    6.2      67.935
2014   11        6    18  32    6.76   541.7    6.2      67.907
2014   11        6    18  37    6.75   542.0    6.2      67.881
2014   11        6    18  43    6.74   542.3    6.2      67.855
2014   11        6    18  49    6.73   542.7    6.1      67.830
2014   11        6    18  54    6.72   543.0    6.1      67.806
2014   11        6    19   0    6.71   543.3    6.1      67.784
2014   11        6    19   6    6.71   543.6    6.1      67.762
2014   11        6    19  11    6.70   544.0    6.1      67.741
2014   11        6    19  17    6.69   544.3    6.1      67.722
2014   11        6    19  23    6.68   544.6    6.0      67.706
2014   11        6    19  28    6.67   544.9    6.0      67.690
2014   11        6    19  34    6.67   545.3    6.0      67.675
2014   11        6    19  40    6.66   545.6    6.0      67.660
2014   11        6    19  45    6.65   545.9    6.0      67.645
2014   11        6    19  51    6.64   546.3    6.0      67.631
2014   11        6    19  56    6.63   546.6    6.0      67.616
2014   11        6    20   2    6.62   546.9    5.9      67.600
2014   11        6    20   8    6.62   547.3    5.9      67.584
2014   11        6    20  13    6.61   547.6    5.9      67.567
2014   11        6    20  19    6.60   547.9    5.9      67.551
2014   11        6    20  25    6.59   548.3    5.9      67.534
2014   11        6    20  30    6.58   548.6    5.9      67.517
2014   11        6    20  36    6.57   548.9    5.9      67.498
2014   11        6    20  42    6.56   549.2    5.8      67.478
2014   11        6    20  47    6.55   549.6    5.8      67.456
2014   11        6    20  53    6.54   549.9    5.8      67.435
2014   11        6    20  59    6.54   550.2    5.8      67.412
2014   11        6    21   4    6.53   550.6    5.8      67.388
2014   11        6    21  10    6.52   550.9    5.8      67.361
2014   11        6    21  15    6.51   551.2    5.7      67.333
2014   11        6    21  21    6.50   551.6    5.7      67.304
2014   11        6    21  27    6.49   551.9    5.7      67.274
2014   11        6    21  32    6.48   552.2    5.7      67.243
2014   11        6    21  38    6.47   552.6    5.7      67.208
2014   11        6    21  44    6.46   552.9    5.7      67.170
2014   11        6    21  49    6.45   553.2    5.6      67.130
2014   11        6    21  55    6.44   553.5    5.6      67.087
2014   11        6    22   1    6.43   553.8    5.6      67.043
2014   11        6    22   6    6.42   554.1    5.6      66.996
2014   11        6    22  12    6.41   554.3    5.6      66.948
2014   11        6    22  17    6.40   554.6    5.6      66.899
2014   11        6    22  23    6.39   554.9    5.5      66.851
2014   11        6    22  29    6.38   555.1    5.5      66.803
2014   11        6    22  34    6.37   555.4    5.5      66.756
2014   11        6    22  40    6.36   555.6    5.5      66.708
2014   11        6    22  46    6.35   555.8    5.5      66.662
2014   11        6    22  51    6.34   556.1    5.5      66.617
2014   11        6    22  57    6.33   556.3    5.5      66.575
2014   11        6    23   3    6.32   556.6    5.5      66.533
2014   11        6    23   8    6.31   556.8    5.4      66.493
2014   11        6    23  14    6.30   557.0    5.4      66.454
2014   11        6    23  19    6.29   557.3    5.4      66.415
2014   11        6    23  25    6.28   557.5    5.4      66.376
2014   11        6    23  31    6.27   557.8    5.4      66.338
2014   11        6    23  36    6.26   558.0    5.4      66.299
2014   11        6    23  42    6.25   558.3    5.4      66.258
2014   11        6    23  48    6.24   558.5    5.4      66.216
2014   11        6    23  53    6.23   558.8    5.3      66.171
2014   11        6    23  59    6.22   559.0    5.3      66.124
2014   11        7     0   5    6.21   559.3    5.3      66.075
2014   11        7     0  10    6.20   559.5    5.3      66.023
2014   11        7     0  16    6.19   559.7    5.3      65.970
2014   11        7     0  22    6.18   559.9    5.3      65.914
2014   11        7     0  27    6.17   560.2    5.3      65.856
2014   11        7     0  33    6.16   560.4    5.2      65.794
2014   11        7     0  38    6.15   560.6    5.2      65.728
2014   11        7     0  44    6.14   560.8    5.2      65.660
2014   11        7     0  50    6.13   560.9    5.2      65.589
2014   11        7     0  55    6.12   561.1    5.2      65.515
2014   11        7     1   1    6.12   561.3    5.2      65.439
2014   11        7     1   7    6.11   561.4    5.2      65.362
2014   11        7     1  12    6.10   561.6    5.2      65.284
2014   11        7     1  18    6.09   561.8    5.1      65.205
2014   11        7     1  24    6.08   561.9    5.1      65.126
2014   11        7     1  29    6.07   562.0    5.1      65.046
2014   11        7     1  35    6.06   562.2    5.1      64.968
2014   11        7     1  41    6.05   562.3    5.1      64.891
2014   11        7     1  46    6.04   562.5    5.1      64.815
2014   11        7     1  52    6.03   562.6    5.1      64.740
2014   11        7     1  58    6.02   562.8    5.1      64.666
2014   11        7     2   3    6.01   562.9    5.0      64.592
2014   11        7     2   9    6.01   563.1    5.0      64.519
2014   11        7     2  14    6.00   563.3    5.0      64.445
2014   11        7     2  20    5.99   563.4    5.0      64.372
2014   11        7     2  26    5.98   563.5    5.0      64.298
2014   11        7     2  31    5.97   563.7    5.0      64.224
2014   11        7     2  37    5.96   563.8    5.0      64.149
2014   11        7     2  43    5.95   564.0    5.0      64.074
2014   11        7     2  48    5.94   564.1    5.0      63.998
2014   11        7     2  54    5.94   564.2    4.9      63.922
2014   11        7     3   0    5.93   564.4    4.9      63.845
2014   11        7     3   5    5.92   564.5    4.9      63.768
2014   11        7     3  11    5.91   564.6    4.9      63.690
2014   11        7     3  17    5.90   564.7    4.9      63.612
2014   11        7     3  22    5.89   564.8    4.9      63.535
2014   11        7     3  28    5.88   564.9    4.9      63.457
2014   11        7     3  33    5.88   565.0    4.9      63.379
2014   11        7     3  39    5.87   565.1    4.9      63.302
2014   11        7     3  45    5.86   565.2    4.9      63.225
2014   11        7     3  50    5.85   565.3    4.8      63.148
2014   11        7     3  56    5.84   565.4    4.8      63.072
2014   11        7     4   2    5.83   565.5    4.8      62.996
2014   11        7     4   7    5.82   565.5    4.8      62.920
2014   11        7     4  13    5.82   565.6    4.8      62.846
2014   11        7     4  19    5.81   565.7    4.8      62.771
2014   11        7     4  24    5.80   565.7    4.8      62.698
2014   11        7     4  30    5.79   565.8    4.8      62.626
2014   11        7     4  35    5.78   565.8    4.8      62.554
2014   11        7     4  41    5.78   565.9    4.8      62.483
2014   11        7     4  47    5.77   565.9    4.8      62.413
2014   11        7     4  52    5.76   566.0    4.7      62.344
2014   11        7     4  58    5.75   566.0    4.7      62.276
2014   11        7     5   4    5.75   566.0    4.7      62.209
2014   11        7     5   9    5.74   566.1    4.7      62.142
2014   11        7     5  15    5.73   566.1    4.7      62.077
2014   11        7     5  21    5.72   566.1    4.7      62.011
2014   11        7     5  26    5.72   566.2    4.7      61.947
2014   11        7     5  32    5.71   566.2    4.7      61.884
2014   11        7     5  37    5.70   566.2    4.7      61.821
2014   11        7     5  43    5.69   566.2    4.7      61.759
2014   11        7     5  49    5.69   566.3    4.7      61.698
2014   11        7     5  54    5.68   566.3    4.7      61.639
2014   11        7     6   0    5.67   566.3    4.7      61.580
2014   11        7     6   6    5.66   566.4    4.7      61.522
2014   11        7     6  11    5.66   566.4    4.7      61.465
2014   11        7     6  17    5.65   566.4    4.6      61.408
2014   11        7     6  23    5.64   566.5    4.6      61.352
2014   11        7     6  28    5.64   566.5    4.6      61.297
2014   11        7     6  34    5.63   566.6    4.6      61.243
2014   11        7     6  39    5.62   566.6    4.6      61.189
2014   11        7     6  45    5.61   566.6    4.6      61.135
2014   11        7     6  51    5.61   566.7    4.6      61.081
2014   11        7     6  56    5.60   566.7    4.6      61.028
2014   11        7     7   2    5.59   566.7    4.6      60.974
2014   11        7     7   8    5.59   566.8    4.6      60.921
2014   11        7     7  13    5.58   566.8    4.6      60.866
2014   11        7     7  19    5.57   566.9    4.6      60.811
2014   11        7     7  25    5.56   566.9    4.6      60.756
2014   11        7     7  30    5.56   566.9    4.6      60.700
2014   11        7     7  36    5.55   566.9    4.6      60.642
2014   11        7     7  42    5.54   567.0    4.6      60.584
2014   11        7     7  47    5.54   567.0    4.6      60.526
2014   11        7     7  53    5.53   567.0    4.6      60.466
2014   11        7     7  59    5.52   567.0    4.6      60.406
2014   11        7     8   4    5.52   567.1    4.5      60.345
2014   11        7     8  10    5.51   567.1    4.5      60.284
2014   11        7     8  15    5.50   567.1    4.5      60.222
2014   11        7     8  21    5.50   567.1    4.5      60.160
2014   11        7     8  27    5.49   567.1    4.5      60.098
2014   11        7     8  32    5.48   567.1    4.5      60.035
2014   11        7     8  38    5.48   567.1    4.5      59.972
2014   11        7     8  44    5.47   567.1    4.5      59.908
2014   11        7     8  49    5.46   567.2    4.5      59.844
2014   11        7     8  55    5.46   567.2    4.5      59.781
2014   11        7     9   1    5.45   567.2    4.5      59.716
2014   11        7     9   6    5.44   567.2    4.5      59.652
2014   11        7     9  12    5.44   567.2    4.5      59.588
2014   11        7     9  18    5.43   567.1    4.5      59.523
2014   11        7     9  23    5.42   567.1    4.5      59.458
2014   11        7     9  29    5.42   567.1    4.5      59.394
2014   11        7     9  34    5.41   567.1    4.5      59.328
2014   11        7     9  40    5.41   567.1    4.5      59.263
2014   11        7     9  46    5.40   567.1    4.5      59.197
2014   11        7     9  51    5.39   567.1    4.5      59.131
2014   11        7     9  57    5.39   567.0    4.4      59.065
2014   11        7    10   3    5.38   567.0    4.4      58.998
2014   11        7    10   8    5.38   567.0    4.4      58.931
2014   11        7    10  14    5.37   567.0    4.4      58.864
2014   11        7    10  20    5.36   566.9    4.4      58.796
2014   11        7    10  25    5.36   566.9    4.4      58.728
2014   11        7    10  31    5.35   566.9    4.4      58.660
2014   11        7    10  37    5.35   566.8    4.4      58.592
2014   11        7    10  42    5.34   566.8    4.4      58.523
2014   11        7    10  48    5.34   566.7    4.4      58.454
2014   11        7    10  53    5.33   566.7    4.4      58.385
2014   11        7    10  59    5.32   566.6    4.4      58.316
2014   11        7    11   5    5.32   566.6    4.4      58.247
2014   11        7    11  10    5.31   566.5    4.4      58.178
2014   11        7    11  16    5.31   566.5    4.4      58.109
2014   11        7    11  22    5.30   566.4    4.4      58.040
2014   11        7    11  27    5.30   566.4    4.4      57.971
2014   11        7    11  33    5.29   566.3    4.4      57.902
2014   11        7    11  39    5.29   566.2    4.4      57.833
2014   11        7    11  44    5.28   566.2    4.4      57.764
2014   11        7    11  50    5.28   566.1    4.4      57.696
2014   11        7    11  55    5.27   566.0    4.4      57.627
2014   11        7    12   1    5.27   566.0    4.3      57.559
2014   11        7    12   7    5.26   565.9    4.3      57.491
2014   11        7    12  12    5.26   565.8    4.3      57.423
2014   11        7    12  18    5.25   565.8    4.3      57.356
2014   11        7    12  24    5.25   565.7    4.3      57.289
2014   11        7    12  29    5.24   565.6    4.3      57.222
2014   11        7    12  35    5.24   565.5    4.3      57.156
2014   11        7    12  41    5.23   565.4    4.3      57.089
2014   11        7    12  46    5.23   565.4    4.3      57.023
2014   11        7    12  52    5.23   565.3    4.3      56.958
2014   11        7    12  57    5.22   565.2    4.3      56.893
2014   11        7    13   3    5.22   565.1    4.3      56.828
2014   11        7    13   9    5.21   565.0    4.3      56.764
2014   11        7    13  14    5.21   564.9    4.3      56.701
2014   11        7    13  20    5.20   564.9    4.3      56.638
2014   11        7    13  26    5.20   564.8    4.3      56.575
2014   11        7    13  31    5.19   564.7    4.3      56.514
2014   11        7    13  37    5.19   564.6    4.3      56.453
2014   11        7    13  43    5.19   564.5    4.3      56.392
2014   11        7    13  48    5.18   564.4    4.3      56.333
2014   11        7    13  54    5.18   564.4    4.3      56.274
2014   11        7    13  59    5.17   564.3    4.3      56.216
2014   11        7    14   5    5.17   564.2    4.3      56.159
2014   11        7    14  11    5.16   564.1    4.3      56.102
2014   11        7    14  16    5.16   564.1    4.3      56.046
2014   11        7    14  22    5.16   564.0    4.3      55.990
2014   11        7    14  28    5.15   563.9    4.3      55.935
2014   11        7    14  33    5.15   563.8    4.3      55.880
2014   11        7    14  39    5.14   563.7    4.3      55.825
2014   11        7    14  45    5.14   563.7    4.2      55.770
2014   11        7    14  50    5.14   563.6    4.2      55.715
2014   11        7    14  56    5.13   563.5    4.2      55.660
2014   11        7    15   2    5.13   563.4    4.2      55.605
2014   11        7    15   7    5.12   563.3    4.2      55.549
2014   11        7    15  13    5.12   563.2    4.2      55.494
2014   11        7    15  18    5.12   563.2    4.2      55.438
2014   11        7    15  24    5.11   563.1    4.2      55.382
2014   11        7    15  30    5.11   563.0    4.2      55.326
2014   11        7    15  35    5.10   562.9    4.2      55.269
2014   11        7    15  41    5.10   562.8    4.2      55.213
2014   11        7    15  47    5.10   562.7    4.2      55.157
2014   11        7    15  52    5.09   562.6    4.2      55.102
2014   11        7    15  58    5.09   562.5    4.2      55.046
2014   11        7    16   4    5.08   562.4    4.2      54.991
2014   11        7    16   9    5.08   562.3    4.2      54.936
2014   11        7    16  15    5.08   562.2    4.2      54.882
2014   11        7    16  21    5.07   562.1    4.2      54.828
2014   11        7    16  26    5.07   562.0    4.2      54.775
2014   11        7    16  32    5.06   561.9    4.2      54.722
2014   11        7    16  38    5.06   561.8    4.2      54.670
2014   11        7    16  43    5.06   561.7    4.2      54.618
2014   11        7    16  49    5.05   561.6    4.2      54.567
2014   11        7    16  54    5.05   561.5    4.2      54.516
2014   11        7    17   0    5.05   561.4    4.2      54.465
2014   11        7    17   6    5.04   561.3    4.2      54.415
2014   11        7    17  11    5.04   561.2    4.2      54.365
2014   11        7    17  17    5.04   561.1    4.2      54.315
2014   11        7    17  23    5.03   561.0    4.2      54.265
2014   11        7    17  28    5.03   560.9    4.2      54.215
2014   11        7    17  34    5.03   560.7    4.2      54.166
2014   11        7    17  40    5.02   560.6    4.2      54.116
2014   11        7    17  45    5.02   560.5    4.2      54.067
2014   11        7    17  51    5.02   560.4    4.2      54.017
2014   11        7    17  57    5.01   560.3    4.2      53.968
2014   11        7    18   2    5.01   560.2    4.2      53.919
2014   11        7    18   8    5.01   560.1    4.2      53.870
2014   11        7    18  13    5.01   560.0    4.2      53.821
2014   11        7    18  19    5.00   559.8    4.2      53.772
2014   11        7    18  25    5.00   559.7    4.2      53.724
2014   11        7    18  30    5.00   559.6    4.2      53.676
2014   11        7    18  36    4.99   559.5    4.2      53.628
2014   11        7    18  42    4.99   559.4    4.2      53.581
2014   11        7    18  47    4.99   559.3    4.2      53.535
2014   11        7    18  53    4.99   559.1    4.2      53.488
2014   11        7    18  59    4.98   559.0    4.2      53.443
2014   11        7    19   4    4.98   558.9    4.2      53.397
2014   11        7    19  10    4.98   558.8    4.2      53.351
2014   11        7    19  15    4.98   558.7    4.2      53.306
2014   11        7    19  21    4.97   558.6    4.2      53.260
2014   11        7    19  27    4.97   558.5    4.2      53.215
2014   11        7    19  32    4.97   558.3    4.2      53.169
2014   11        7    19  38    4.97   558.2    4.2      53.123
2014   11        7    19  44    4.96   558.1    4.2      53.077
2014   11        7    19  49    4.96   558.0    4.2      53.031
2014   11        7    19  55    4.96   557.9    4.2      52.984
2014   11        7    20   1    4.96   557.8    4.2      52.937
2014   11        7    20   6    4.96   557.7    4.2      52.889
2014   11        7    20  12    4.95   557.5    4.2      52.842
2014   11        7    20  17    4.95   557.4    4.2      52.794
2014   11        7    20  23    4.95   557.3    4.2      52.746
2014   11        7    20  29    4.95   557.2    4.2      52.697
2014   11        7    20  34    4.94   557.1    4.2      52.649
2014   11        7    20  40    4.94   556.9    4.2      52.601
2014   11        7    20  46    4.94   556.8    4.2      52.553
2014   11        7    20  51    4.94   556.7    4.2      52.505
2014   11        7    20  57    4.93   556.6    4.2      52.457
2014   11        7    21   3    4.93   556.5    4.2      52.410
2014   11        7    21   8    4.93   556.4    4.2      52.362
2014   11        7    21  14    4.93   556.2    4.2      52.316
2014   11        7    21  19    4.93   556.1    4.2      52.269
2014   11        7    21  25    4.92   556.0    4.2      52.222
2014   11        7    21  31    4.92   555.9    4.2      52.176
2014   11        7    21  36    4.92   555.8    4.2      52.130
2014   11        7    21  42    4.92   555.6    4.2      52.084
2014   11        7    21  48    4.92   555.5    4.2      52.037
2014   11        7    21  53    4.91   555.4    4.2      51.990
2014   11        7    21  59    4.91   555.3    4.2      51.944
2014   11        7    22   5    4.91   555.1    4.2      51.897
2014   11        7    22  10    4.91   555.0    4.2      51.850
2014   11        7    22  16    4.91   554.9    4.2      51.802
2014   11        7    22  22    4.90   554.8    4.2      51.754
2014   11        7    22  27    4.90   554.6    4.2      51.706
2014   11        7    22  33    4.90   554.5    4.2      51.658
2014   11        7    22  38    4.90   554.4    4.2      51.609
2014   11        7    22  44    4.89   554.3    4.2      51.560
2014   11        7    22  50    4.89   554.1    4.2      51.511
2014   11        7    22  55    4.89   554.0    4.2      51.462
2014   11        7    23   1    4.89   553.9    4.2      51.413
2014   11        7    23   7    4.89   553.7    4.2      51.363
2014   11        7    23  12    4.89   553.6    4.2      51.314
2014   11        7    23  18    4.88   553.5    4.2      51.265
2014   11        7    23  24    4.88   553.4    4.2      51.216
2014   11        7    23  29    4.88   553.2    4.1      51.167
2014   11        7    23  35    4.88   553.1    4.1      51.118
2014   11        7    23  41    4.88   553.0    4.1      51.069
2014   11        7    23  46    4.87   552.8    4.1      51.021
2014   11        7    23  52    4.87   552.7    4.1      50.973
2014   11        7    23  58    4.87   552.5    4.1      50.925
2014   11        8     0   3    4.87   552.4    4.1      50.878
2014   11        8     0   9    4.87   552.3    4.1      50.831
2014   11        8     0  14    4.87   552.1    4.1      50.784
2014   11        8     0  20    4.86   552.0    4.1      50.739
2014   11        8     0  26    4.86   551.9    4.1      50.693
2014   11        8     0  31    4.86   551.7    4.1      50.648
2014   11        8     0  37    4.86   551.6    4.1      50.604
2014   11        8     0  43    4.86   551.4    4.1      50.560
2014   11        8     0  48    4.86   551.3    4.1      50.517
2014   11        8     0  54    4.86   551.2    4.1      50.475
2014   11        8     1   0    4.85   551.0    4.1      50.434
2014   11        8     1   5    4.85   550.9    4.1      50.393
2014   11        8     1  11    4.85   550.7    4.1      50.353
2014   11        8     1  17    4.85   550.6    4.1      50.314
2014   11        8     1  22    4.85   550.5    4.1      50.276
2014   11        8     1  28    4.85   550.3    4.1      50.239
2014   11        8     1  33    4.85   550.2    4.1      50.203
2014   11        8     1  39    4.85   550.1    4.1      50.168
2014   11        8     1  45    4.85   549.9    4.1      50.134
2014   11        8     1  50    4.85   549.8    4.1      50.102
2014   11        8     1  56    4.85   549.7    4.1      50.071
2014   11        8     2   2    4.84   549.5    4.1      50.042
2014   11        8     2   7    4.84   549.4    4.1      50.014
2014   11        8     2  13    4.84   549.3    4.1      49.986
2014   11        8     2  19    4.84   549.2    4.1      49.961
2014   11        8     2  24    4.84   549.0    4.1      49.936
2014   11        8     2  30    4.84   548.9    4.1      49.912
2014   11        8     2  35    4.84   548.8    4.1      49.888
2014   11        8     2  41    4.84   548.7    4.2      49.865
2014   11        8     2  47    4.84   548.6    4.2      49.843
2014   11        8     2  52    4.84   548.5    4.2      49.821
2014   11        8     2  58    4.84   548.4    4.2      49.799
2014   11        8     3   4    4.84   548.2    4.2      49.778
2014   11        8     3   9    4.84   548.1    4.2      49.756
2014   11        8     3  15    4.84   548.0    4.2      49.735
2014   11        8     3  21    4.84   547.9    4.2      49.714
2014   11        8     3  26    4.84   547.8    4.2      49.692
2014   11        8     3  32    4.84   547.7    4.2      49.671
2014   11        8     3  37    4.83   547.6    4.2      49.650
2014   11        8     3  43    4.83   547.5    4.2      49.629
2014   11        8     3  49    4.83   547.4    4.2      49.608
2014   11        8     3  54    4.83   547.3    4.2      49.587
2014   11        8     4   0    4.83   547.2    4.2      49.566
2014   11        8     4   6    4.83   547.0    4.2      49.546
2014   11        8     4  11    4.83   546.9    4.2      49.525
2014   11        8     4  17    4.83   546.8    4.2      49.504
2014   11        8     4  23    4.83   546.7    4.2      49.484
2014   11        8     4  28    4.83   546.6    4.2      49.464
2014   11        8     4  34    4.83   546.5    4.2      49.444
2014   11        8     4  39    4.83   546.4    4.2      49.425
2014   11        8     4  45    4.83   546.3    4.2      49.406
2014   11        8     4  51    4.83   546.1    4.2      49.388
2014   11        8     4  56    4.83   546.0    4.2      49.369
2014   11        8     5   2    4.83   545.9    4.2      49.350
2014   11        8     5   8    4.83   545.8    4.2      49.332
2014   11        8     5  13    4.82   545.7    4.2      49.314
2014   11        8     5  19    4.82   545.6    4.2      49.295
2014   11        8     5  25    4.82   545.5    4.2      49.277
2014   11        8     5  30    4.82   545.4    4.2      49.259
2014   11        8     5  36    4.82   545.2    4.2      49.240
2014   11        8     5  42    4.82   545.1    4.2      49.223
2014   11        8     5  47    4.82   545.0    4.2      49.205
2014   11        8     5  53    4.82   544.9    4.2      49.188
2014   11        8     5  59    4.82   544.8    4.2      49.171
2014   11        8     6   4    4.82   544.7    4.2      49.154
2014   11        8     6  10    4.82   544.6    4.2      49.138
2014   11        8     6  15    4.82   544.5    4.2      49.121
2014   11        8     6  21    4.82   544.4    4.2      49.104
2014   11        8     6  27    4.82   544.3    4.2      49.087
2014   11        8     6  32    4.82   544.2    4.2      49.070
2014   11        8     6  38    4.82   544.0    4.2      49.052
2014   11        8     6  44    4.82   543.9    4.2      49.034
2014   11        8     6  49    4.82   543.8    4.2      49.016
2014   11        8     6  55    4.82   543.7    4.2      48.996
2014   11        8     7   1    4.82   543.6    4.2      48.976
2014   11        8     7   6    4.82   543.5    4.2      48.955
2014   11        8     7  12    4.82   543.4    4.2      48.933
2014   11        8     7  18    4.82   543.3    4.2      48.911
2014   11        8     7  23    4.82   543.2    4.2      48.889
2014   11        8     7  29    4.82   543.1    4.2      48.866
2014   11        8     7  34    4.82   543.0    4.2      48.842
2014   11        8     7  40    4.82   542.9    4.2      48.818
2014   11        8     7  46    4.82   542.7    4.2      48.794
2014   11        8     7  51    4.82   542.6    4.2      48.770
2014   11        8     7  57    4.82   542.5    4.2      48.746
2014   11        8     8   3    4.82   542.4    4.2      48.722
2014   11        8     8   8    4.82   542.3    4.2      48.698
2014   11        8     8  14    4.82   542.2    4.2      48.675
2014   11        8     8  20    4.82   542.1    4.2      48.652
2014   11        8     8  25    4.82   542.0    4.2      48.630
2014   11        8     8  31    4.82   541.9    4.2      48.608
2014   11        8     8  37    4.82   541.7    4.2      48.586
2014   11        8     8  42    4.82   541.6    4.2      48.565
2014   11        8     8  48    4.82   541.5    4.2      48.544
2014   11        8     8  53    4.82   541.4    4.2      48.524
2014   11        8     8  59    4.82   541.3    4.2      48.505
2014   11        8     9   5    4.82   541.2    4.2      48.486
2014   11        8     9  10    4.82   541.1    4.2      48.468
2014   11        8     9  16    4.83   541.0    4.2      48.450
2014   11        8     9  22    4.83   540.9    4.2      48.432
2014   11        8     9  27    4.83   540.8    4.2      48.416
2014   11        8     9  33    4.83   540.7    4.2      48.400
2014   11        8     9  39    4.83   540.6    4.2      48.384
2014   11        8     9  44    4.83   540.5    4.2      48.370
2014   11        8     9  50    4.83   540.5    4.2      48.355
2014   11        8     9  55    4.83   540.4    4.2      48.342
2014   11        8    10   1    4.83   540.3    4.2      48.329
2014   11        8    10   7    4.83   540.2    4.2      48.316
2014   11        8    10  12    4.83   540.1    4.2      48.304
2014   11        8    10  18    4.83   540.0    4.2      48.293
2014   11        8    10  24    4.83   540.0    4.2      48.282
2014   11        8    10  29    4.84   539.9    4.2      48.272
2014   11        8    10  35    4.84   539.8    4.2      48.263
2014   11        8    10  41    4.84   539.7    4.2      48.253
2014   11        8    10  46    4.84   539.6    4.2      48.244
2014   11        8    10  52    4.84   539.6    4.2      48.235
2014   11        8    10  57    4.84   539.5    4.3      48.227
2014   11        8    11   3    4.84   539.4    4.3      48.218
2014   11        8    11   9    4.84   539.3    4.3      48.210
2014   11        8    11  14    4.84   539.2    4.3      48.202
2014   11        8    11  20    4.84   539.2    4.3      48.194
2014   11        8    11  26    4.84   539.1    4.3      48.187
2014   11        8    11  31    4.84   539.0    4.3      48.179
2014   11        8    11  37    4.84   538.9    4.3      48.172
2014   11        8    11  43    4.84   538.9    4.3      48.165
2014   11        8    11  48    4.84   538.8    4.3      48.159
2014   11        8    11  54    4.85   538.7    4.3      48.153
2014   11        8    11  59    4.85   538.6    4.3      48.148
2014   11        8    12   5    4.85   538.5    4.3      48.143
2014   11        8    12  11    4.85   538.5    4.3      48.139
2014   11        8    12  16    4.85   538.4    4.3      48.136
2014   11        8    12  22    4.85   538.3    4.3      48.134
2014   11        8    12  28    4.85   538.2    4.3      48.132
2014   11        8    12  33    4.85   538.2    4.3      48.132
2014   11        8    12  39    4.85   538.1    4.3      48.132
2014   11        8    12  45    4.85   538.0    4.3      48.134
2014   11        8    12  50    4.85   537.9    4.3      48.137
2014   11        8    12  56    4.86   537.9    4.3      48.140
2014   11        8    13   2    4.86   537.8    4.3      48.146
2014   11        8    13   7    4.86   537.7    4.3      48.153
2014   11        8    13  13    4.86   537.7    4.3      48.163
2014   11        8    13  19    4.86   537.6    4.3      48.176
2014   11        8    13  24    4.86   537.6    4.3      48.191
2014   11        8    13  30    4.86   537.5    4.3      48.207
2014   11        8    13  35    4.86   537.5    4.3      48.225
2014   11        8    13  41    4.86   537.4    4.3      48.245
2014   11        8    13  47    4.87   537.4    4.3      48.265
2014   11        8    13  52    4.87   537.4    4.3      48.285
2014   11        8    13  58    4.87   537.3    4.4      48.305
2014   11        8    14   4    4.87   537.3    4.4      48.326
2014   11        8    14   9    4.87   537.3    4.4      48.347
2014   11        8    14  15    4.87   537.2    4.4      48.366
2014   11        8    14  21    4.87   537.2    4.4      48.384
2014   11        8    14  26    4.87   537.2    4.4      48.401
2014   11        8    14  32    4.87   537.1    4.4      48.417
2014   11        8    14  38    4.88   537.1    4.4      48.431
2014   11        8    14  43    4.88   537.1    4.4      48.444
2014   11        8    14  49    4.88   537.1    4.4      48.456
2014   11        8    14  55    4.88   537.0    4.4      48.467
2014   11        8    15   0    4.88   537.0    4.4      48.477
2014   11        8    15   6    4.88   537.0    4.4      48.486
2014   11        8    15  11    4.88   536.9    4.4      48.495
2014   11        8    15  17    4.88   536.9    4.4      48.503
2014   11        8    15  23    4.88   536.8    4.4      48.510
2014   11        8    15  28    4.88   536.8    4.4      48.516
2014   11        8    15  34    4.89   536.8    4.4      48.523
2014   11        8    15  40    4.89   536.7    4.4      48.529
2014   11        8    15  45    4.89   536.7    4.4      48.536
2014   11        8    15  51    4.89   536.7    4.4      48.544
2014   11        8    15  57    4.89   536.6    4.4      48.552
2014   11        8    16   2    4.89   536.6    4.4      48.559
2014   11        8    16   8    4.89   536.6    4.4      48.568
2014   11        8    16  13    4.89   536.6    4.4      48.576
2014   11        8    16  19    4.90   536.5    4.4      48.584
2014   11        8    16  25    4.90   536.5    4.4      48.592
2014   11        8    16  30    4.90   536.5    4.4      48.600
2014   11        8    16  36    4.90   536.5    4.4      48.608
2014   11        8    16  42    4.90   536.5    4.4      48.616
2014   11        8    16  47    4.90   536.4    4.4      48.623
2014   11        8    16  53    4.90   536.4    4.4      48.629
2014   11        8    16  59    4.90   536.4    4.4      48.635
2014   11        8    17   4    4.91   536.4    4.4      48.641
2014   11        8    17  10    4.91   536.4    4.4      48.645
2014   11        8    17  15    4.91   536.3    4.4      48.650
2014   11        8    17  21    4.91   536.3    4.4      48.654
2014   11        8    17  27    4.91   536.3    4.4      48.657
2014   11        8    17  32    4.91   536.3    4.4      48.661
2014   11        8    17  38    4.91   536.3    4.4      48.664
2014   11        8    17  44    4.91   536.3    4.4      48.667
2014   11        8    17  49    4.91   536.3    4.4      48.669
2014   11        8    17  55    4.92   536.3    4.4      48.672
2014   11        8    18   1    4.92   536.2    4.4      48.675
2014   11        8    18   6    4.92   536.2    4.4      48.678
2014   11        8    18  12    4.92   536.2    4.4      48.681
2014   11        8    18  17    4.92   536.2    4.4      48.685
2014   11        8    18  23    4.92   536.2    4.4      48.688
2014   11        8    18  29    4.92   536.2    4.4      48.692
2014   11        8    18  34    4.93   536.2    4.4      48.697
2014   11        8    18  40    4.93   536.2    4.4      48.702
2014   11        8    18  46    4.93   536.2    4.4      48.707
2014   11        8    18  51    4.93   536.2    4.4      48.713
2014   11        8    18  57    4.93   536.2    4.4      48.719
2014   11        8    19   3    4.93   536.2    4.4      48.726
2014   11        8    19   8    4.93   536.2    4.4      48.734
2014   11        8    19  14    4.93   536.2    4.4      48.742
2014   11        8    19  20    4.94   536.2    4.4      48.751
2014   11        8    19  25    4.94   536.2    4.4      48.760
2014   11        8    19  31    4.94   536.2    4.5      48.770
2014   11        8    19  36    4.94   536.2    4.5      48.781
2014   11        8    19  42    4.94   536.2    4.5      48.793
2014   11        8    19  48    4.94   536.2    4.5      48.805
2014   11        8    19  53    4.94   536.2    4.5      48.818
2014   11        8    19  59    4.95   536.2    4.5      48.832
2014   11        8    20   5    4.95   536.3    4.5      48.847
2014   11        8    20  10    4.95   536.3    4.5      48.862
2014   11        8    20  16    4.95   536.3    4.5      48.878
2014   11        8    20  22    4.95   536.3    4.5      48.895
2014   11        8    20  27    4.95   536.3    4.5      48.914
2014   11        8    20  33    4.95   536.3    4.5      48.934
2014   11        8    20  39    4.96   536.4    4.5      48.956
2014   11        8    20  44    4.96   536.4    4.5      48.978
2014   11        8    20  50    4.96   536.4    4.5      49.002
2014   11        8    20  56    4.96   536.4    4.5      49.026
2014   11        8    21   1    4.96   536.5    4.5      49.051
2014   11        8    21   7    4.96   536.5    4.5      49.076
2014   11        8    21  12    4.96   536.5    4.5      49.101
2014   11        8    21  18    4.96   536.6    4.5      49.126
2014   11        8    21  24    4.97   536.6    4.5      49.151
2014   11        8    21  29    4.97   536.7    4.5      49.177
2014   11        8    21  35    4.97   536.7    4.5      49.201
2014   11        8    21  41    4.97   536.7    4.5      49.225
2014   11        8    21  46    4.97   536.8    4.5      49.249
2014   11        8    21  52    4.97   536.8    4.5      49.272
2014   11        8    21  58    4.97   536.8    4.5      49.294
2014   11        8    22   3    4.97   536.9    4.5      49.316
2014   11        8    22   9    4.97   536.9    4.5      49.337
2014   11        8    22  15    4.97   536.9    4.5      49.358
2014   11        8    22  20    4.98   537.0    4.5      49.377
2014   11        8    22  26    4.98   537.0    4.5      49.397
2014   11        8    22  31    4.98   537.0    4.5      49.416
2014   11        8    22  37    4.98   537.1    4.5      49.435
2014   11        8    22  43    4.98   537.1    4.5      49.453
2014   11        8    22  48    4.98   537.2    4.5      49.471
2014   11        8    22  54    4.98   537.2    4.5      49.489
2014   11        8    23   0    4.98   537.2    4.5      49.507
2014   11        8    23   5    4.98   537.3    4.5      49.525
2014   11        8    23  11    4.98   537.3    4.5      49.544
2014   11        8    23  17    4.98   537.3    4.5      49.563
2014   11        8    23  22    4.99   537.4    4.5      49.581
2014   11        8    23  28    4.99   537.4    4.5      49.600
2014   11        8    23  33    4.99   537.5    4.5      49.620
2014   11        8    23  39    4.99   537.5    4.5      49.639
2014   11        8    23  45    4.99   537.6    4.5      49.657
2014   11        8    23  50    4.99   537.6    4.5      49.676
2014   11        8    23  56    4.99   537.6    4.5      49.694
2014   11        9     0   2    4.99   537.7    4.6      49.712
2014   11        9     0   7    4.99   537.7    4.6      49.730
2014   11        9     0  13    4.99   537.8    4.6      49.747
2014   11        9     0  19    5.00   537.8    4.6      49.764
2014   11        9     0  24    5.00   537.9    4.6      49.780
2014   11        9     0  30    5.00   537.9    4.6      49.796
2014   11        9     0  36    5.00   538.0    4.6      49.812
2014   11        9     0  41    5.00   538.0    4.6      49.827
2014   11        9     0  47    5.00   538.1    4.6      49.843
2014   11        9     0  52    5.00   538.1    4.6      49.858
2014   11        9     0  58    5.00   538.2    4.6      49.873
2014   11        9     1   4    5.00   538.2    4.6      49.889
2014   11        9     1   9    5.00   538.3    4.6      49.904
2014   11        9     1  15    5.01   538.3    4.6      49.920
2014   11        9     1  21    5.01   538.4    4.6      49.936
2014   11        9     1  26    5.01   538.5    4.6      49.953
2014   11        9     1  32    5.01   538.5    4.6      49.969
2014   11        9     1  37    5.01   538.6    4.6      49.987
2014   11        9     1  43    5.01   538.6    4.6      50.005
2014   11        9     1  49    5.01   538.7    4.6      50.024
2014   11        9     1  54    5.01   538.8    4.6      50.044
2014   11        9     2   0    5.02   538.8    4.6      50.065
2014   11        9     2   6    5.02   538.9    4.6      50.086
2014   11        9     2  11    5.02   539.0    4.6      50.108
2014   11        9     2  17    5.02   539.0    4.6      50.132
2014   11        9     2  23    5.02   539.1    4.6      50.158
2014   11        9     2  28    5.02   539.2    4.6      50.186
2014   11        9     2  34    5.02   539.3    4.6      50.215
2014   11        9     2  40    5.02   539.4    4.6      50.246
2014   11        9     2  45    5.03   539.4    4.6      50.277
2014   11        9     2  51    5.03   539.5    4.6      50.310
2014   11        9     2  56    5.03   539.6    4.6      50.342
2014   11        9     3   2    5.03   539.7    4.6      50.375
2014   11        9     3   8    5.03   539.8    4.6      50.408
2014   11        9     3  13    5.03   539.9    4.6      50.441
2014   11        9     3  19    5.03   540.0    4.6      50.473
2014   11        9     3  25    5.03   540.1    4.6      50.505
2014   11        9     3  30    5.03   540.2    4.6      50.535
2014   11        9     3  36    5.03   540.3    4.6      50.563
2014   11        9     3  42    5.04   540.4    4.6      50.591
2014   11        9     3  47    5.04   540.5    4.6      50.618
2014   11        9     3  53    5.04   540.6    4.6      50.643
2014   11        9     3  59    5.04   540.7    4.6      50.667
2014   11        9     4   4    5.04   540.8    4.6      50.691
2014   11        9     4  10    5.04   540.9    4.6      50.713
2014   11        9     4  16    5.04   541.0    4.6      50.734
2014   11        9     4  21    5.04   541.1    4.6      50.755
2014   11        9     4  27    5.04   541.2    4.6      50.774
2014   11        9     4  32    5.04   541.3    4.6      50.793
2014   11        9     4  38    5.04   541.4    4.6      50.811
2014   11        9     4  44    5.04   541.5    4.6      50.829
2014   11        9     4  49    5.04   541.6    4.6      50.846
2014   11        9     4  55    5.04   541.7    4.6      50.862
2014   11        9     5   1    5.04   541.8    4.6      50.878
2014   11        9     5   6    5.04   541.9    4.6      50.894
2014   11        9     5  12    5.04   541.9    4.6      50.910
2014   11        9     5  18    5.04   542.0    4.6      50.926
2014   11        9     5  23    5.05   542.1    4.6      50.943
2014   11        9     5  29    5.05   542.2    4.6      50.959
2014   11        9     5  35    5.05   542.3    4.6      50.977
2014   11        9     5  40    5.05   542.4    4.6      50.994
2014   11        9     5  46    5.05   542.5    4.6      51.011
2014   11        9     5  51    5.05   542.6    4.6      51.029
2014   11        9     5  57    5.05   542.7    4.6      51.046
2014   11        9     6   3    5.05   542.8    4.6      51.064
2014   11        9     6   8    5.05   542.9    4.6      51.082
2014   11        9     6  14    5.05   543.0    4.6      51.100
2014   11        9     6  20    5.05   543.1    4.6      51.118
2014   11        9     6  25    5.05   543.2    4.6      51.136
2014   11        9     6  31    5.05   543.3    4.6      51.153
2014   11        9     6  37    5.05   543.4    4.5      51.170
2014   11        9     6  42    5.05   543.5    4.5      51.187
2014   11        9     6  48    5.05   543.6    4.5      51.203
2014   11        9     6  54    5.05   543.7    4.5      51.219
2014   11        9     6  59    5.05   543.8    4.5      51.234
2014   11        9     7   5    5.05   543.9    4.5      51.249
2014   11        9     7  10    5.05   544.0    4.5      51.263
2014   11        9     7  16    5.05   544.1    4.5      51.277
2014   11        9     7  22    5.05   544.2    4.5      51.290
2014   11        9     7  27    5.05   544.3    4.5      51.303
2014   11        9     7  33    5.05   544.4    4.5      51.316
2014   11        9     7  39    5.05   544.5    4.5      51.328
2014   11        9     7  44    5.05   544.6    4.5      51.340
2014   11        9     7  50    5.05   544.7    4.5      51.351
2014   11        9     7  56    5.05   544.8    4.5      51.363
2014   11        9     8   1    5.05   544.9    4.5      51.375
2014   11        9     8   7    5.05   545.0    4.5      51.386
2014   11        9     8  12    5.05   545.1    4.5      51.398
2014   11        9     8  18    5.05   545.2    4.5      51.410
2014   11        9     8  24    5.05   545.2    4.5      51.422
2014   11        9     8  29    5.05   545.3    4.5      51.435
2014   11        9     8  35    5.05   545.4    4.5      51.449
2014   11        9     8  41    5.05   545.5    4.5      51.462
2014   11        9     8  46    5.05   545.6    4.5      51.477
2014   11        9     8  52    5.05   545.7    4.5      51.493
2014   11        9     8  58    5.05   545.8    4.5      51.510
2014   11        9     9   3    5.05   545.9    4.5      51.528
2014   11        9     9   9    5.05   546.0    4.5      51.548
2014   11        9     9  14    5.05   546.1    4.5      51.569
2014   11        9     9  20    5.05   546.2    4.5      51.591
2014   11        9     9  26    5.05   546.3    4.5      51.615
2014   11        9     9  31    5.06   546.4    4.5      51.643
2014   11        9     9  37    5.06   546.5    4.5      51.674
2014   11        9     9  43    5.06   546.6    4.5      51.709
2014   11        9     9  48    5.06   546.7    4.5      51.746
2014   11        9     9  54    5.06   546.8    4.5      51.785
2014   11        9    10   0    5.06   546.9    4.5      51.826
2014   11        9    10   5    5.06   547.0    4.5      51.868
2014   11        9    10  11    5.06   547.2    4.5      51.910
2014   11        9    10  16    5.06   547.3    4.5      51.952
2014   11        9    10  22    5.06   547.4    4.5      51.994
2014   11        9    10  28    5.06   547.6    4.5      52.035
2014   11        9    10  33    5.06   547.7    4.5      52.075
2014   11        9    10  39    5.06   547.8    4.5      52.113
2014   11        9    10  45    5.06   548.0    4.5      52.148
2014   11        9    10  50    5.06   548.1    4.5      52.180
2014   11        9    10  56    5.06   548.2    4.5      52.210
2014   11        9    11   2    5.06   548.4    4.5      52.238
2014   11        9    11   7    5.05   548.5    4.5      52.264
2014   11        9    11  13    5.05   548.6    4.5      52.287
2014   11        9    11  19    5.05   548.7    4.5      52.309
2014   11        9    11  24    5.05   548.9    4.5      52.329
2014   11        9    11  30    5.05   549.0    4.5      52.347
2014   11        9    11  36    5.05   549.1    4.5      52.364
2014   11        9    11  41    5.05   549.2    4.5      52.379
2014   11        9    11  47    5.05   549.3    4.5      52.393
2014   11        9    11  52    5.05   549.5    4.5      52.406
2014   11        9    11  58    5.05   549.6    4.5      52.419
2014   11        9    12   4    5.05   549.7    4.5      52.430
2014   11        9    12   9    5.05   549.8    4.5      52.441
2014   11        9    12  15    5.05   549.9    4.5      52.450
2014   11        9    12  21    5.05   550.0    4.5      52.459
2014   11        9    12  26    5.05   550.1    4.5      52.468
2014   11        9    12  32    5.04   550.3    4.5      52.476
2014   11        9    12  38    5.04   550.4    4.5      52.483
2014   11        9    12  43    5.04   550.5    4.5      52.490
2014   11        9    12  49    5.04   550.6    4.5      52.496
2014   11        9    12  55    5.04   550.7    4.5      52.502
2014   11        9    13   0    5.04   550.8    4.5      52.507
2014   11        9    13   6    5.04   550.9    4.5      52.511
2014   11        9    13  11    5.04   551.0    4.5      52.514
2014   11        9    13  17    5.04   551.1    4.5      52.517
2014   11        9    13  23    5.04   551.2    4.5      52.519
2014   11        9    13  28    5.04   551.3    4.4      52.520
2014   11        9    13  34    5.03   551.5    4.4      52.520
2014   11        9    13  40    5.03   551.6    4.4      52.519
2014   11        9    13  45    5.03   551.7    4.4      52.517
2014   11        9    13  51    5.03   551.8    4.4      52.515
2014   11        9    13  57    5.03   551.9    4.4      52.511
2014   11        9    14   2    5.03   552.0    4.4      52.508
2014   11        9    14   8    5.03   552.1    4.4      52.503
2014   11        9    14  14    5.03   552.2    4.4      52.498
2014   11        9    14  19    5.02   552.3    4.4      52.492
2014   11        9    14  25    5.02   552.4    4.4      52.485
2014   11        9    14  30    5.02   552.5    4.4      52.478
2014   11        9    14  36    5.02   552.6    4.4      52.471
2014   11        9    14  42    5.02   552.7    4.4      52.462
2014   11        9    14  47    5.02   552.8    4.4      52.454
2014   11        9    14  53    5.02   552.9    4.4      52.444
2014   11        9    14  59    5.01   552.9    4.4      52.435
2014   11        9    15   4    5.01   553.0    4.4      52.425
2014   11        9    15  10    5.01   553.1    4.4      52.415
2014   11        9    15  16    5.01   553.2    4.4      52.404
2014   11        9    15  21    5.01   553.3    4.4      52.394
2014   11        9    15  27    5.01   553.4    4.4      52.383
2014   11        9    15  32    5.01   553.4    4.3      52.372
2014   11        9    15  38    5.00   553.5    4.3      52.361
2014   11        9    15  44    5.00   553.6    4.3      52.351
2014   11        9    15  49    5.00   553.7    4.3      52.340
2014   11        9    15  55    5.00   553.7    4.3      52.331
2014   11        9    16   1    5.00   553.8    4.3      52.321
2014   11        9    16   6    5.00   553.9    4.3      52.313
2014   11        9    16  12    4.99   553.9    4.3      52.305
2014   11        9    16  18    4.99   554.0    4.3      52.298
2014   11        9    16  23    4.99   554.1    4.3      52.292
2014   11        9    16  29    4.99   554.1    4.3      52.288
2014   11        9    16  34    4.99   554.2    4.3      52.285
2014   11        9    16  40    4.99   554.3    4.3      52.283
2014   11        9    16  46    4.99   554.3    4.3      52.283
2014   11        9    16  51    4.99   554.4    4.3      52.285
2014   11        9    16  57    4.98   554.4    4.3      52.289
2014   11        9    17   3    4.98   554.5    4.3      52.297
2014   11        9    17   8    4.98   554.6    4.3      52.306
2014   11        9    17  14    4.98   554.6    4.3      52.317
2014   11        9    17  20    4.98   554.7    4.3      52.330
2014   11        9    17  25    4.98   554.8    4.3      52.345
2014   11        9    17  31    4.98   554.8    4.3      52.360
2014   11        9    17  37    4.98   554.9    4.3      52.377
2014   11        9    17  42    4.97   555.0    4.3      52.393
2014   11        9    17  48    4.97   555.1    4.3      52.409
2014   11        9    17  53    4.97   555.1    4.3      52.426
2014   11        9    17  59    4.97   555.2    4.3      52.441
2014   11        9    18   5    4.97   555.3    4.3      52.455
2014   11        9    18  10    4.97   555.3    4.3      52.467
2014   11        9    18  16    4.97   555.4    4.3      52.477
2014   11        9    18  22    4.97   555.5    4.3      52.486
2014   11        9    18  27    4.96   555.5    4.3      52.493
2014   11        9    18  33    4.96   555.6    4.3      52.498
2014   11        9    18  39    4.96   555.7    4.3      52.501
2014   11        9    18  44    4.96   555.7    4.3      52.503
2014   11        9    18  50    4.96   555.8    4.3      52.503
2014   11        9    18  56    4.96   555.8    4.3      52.502
2014   11        9    19   1    4.96   555.9    4.3      52.499
2014   11        9    19   7    4.95   555.9    4.3      52.495
2014   11        9    19  13    4.95   556.0    4.3      52.491
2014   11        9    19  18    4.95   556.0    4.3      52.485
2014   11        9    19  24    4.95   556.1    4.3      52.479
2014   11        9    19  29    4.95   556.1    4.3      52.471
2014   11        9    19  35    4.95   556.2    4.3      52.463
2014   11        9    19  41    4.94   556.2    4.3      52.454
2014   11        9    19  46    4.94   556.2    4.3      52.444
2014   11        9    19  52    4.94   556.3    4.3      52.433
2014   11        9    19  58    4.94   556.3    4.3      52.421
2014   11        9    20   3    4.94   556.4    4.3      52.408
2014   11        9    20   9    4.93   556.4    4.3      52.394
2014   11        9    20  15    4.93   556.4    4.2      52.379
2014   11        9    20  20    4.93   556.4    4.2      52.363
2014   11        9    20  26    4.93   556.5    4.2      52.345
2014   11        9    20  32    4.93   556.5    4.2      52.327
2014   11        9    20  37    4.92   556.5    4.2      52.307
2014   11        9    20  43    4.92   556.5    4.2      52.287
2014   11        9    20  48    4.92   556.6    4.2      52.266
2014   11        9    20  54    4.92   556.6    4.2      52.244
2014   11        9    21   0    4.92   556.6    4.2      52.221
2014   11        9    21   5    4.92   556.6    4.2      52.197
2014   11        9    21  11    4.91   556.6    4.2      52.173
2014   11        9    21  17    4.91   556.6    4.2      52.148
2014   11        9    21  22    4.91   556.6    4.2      52.123
2014   11        9    21  28    4.91   556.6    4.2      52.097
2014   11        9    21  34    4.91   556.6    4.2      52.071
2014   11        9    21  39    4.90   556.6    4.2      52.045
2014   11        9    21  45    4.90   556.6    4.2      52.018
2014   11        9    21  50    4.90   556.6    4.2      51.991
2014   11        9    21  56    4.90   556.6    4.2      51.964
2014   11        9    22   2    4.90   556.6    4.2      51.938
2014   11        9    22   7    4.89   556.6    4.2      51.911
2014   11        9    22  13    4.89   556.6    4.2      51.884
2014   11        9    22  19    4.89   556.6    4.2      51.857
2014   11        9    22  24    4.89   556.6    4.2      51.831
2014   11        9    22  30    4.89   556.6    4.2      51.805
2014   11        9    22  36    4.89   556.6    4.2      51.780
2014   11        9    22  41    4.88   556.6    4.2      51.755
2014   11        9    22  47    4.88   556.6    4.2      51.730
2014   11        9    22  52    4.88   556.6    4.2      51.706
2014   11        9    22  58    4.88   556.6    4.2      51.682
2014   11        9    23   4    4.88   556.6    4.2      51.658
2014   11        9    23   9    4.88   556.5    4.2      51.635
2014   11        9    23  15    4.87   556.5    4.1      51.611
2014   11        9    23  21    4.87   556.5    4.1      51.588
2014   11        9    23  26    4.87   556.5    4.1      51.565
2014   11        9    23  32    4.87   556.5    4.1      51.542
2014   11        9    23  38    4.87   556.5    4.1      51.520
2014   11        9    23  43    4.87   556.4    4.1      51.497
2014   11        9    23  49    4.86   556.4    4.1      51.475
2014   11        9    23  54    4.86   556.4    4.1      51.453
2014   11       10     0   0    4.86   556.4    4.1      51.431
2014   11       10     0   6    4.86   556.3    4.1      51.410
2014   11       10     0  11    4.86   556.3    4.1      51.389
2014   11       10     0  17    4.86   556.3    4.1      51.369
2014   11       10     0  23    4.86   556.3    4.1      51.350
2014   11       10     0  28    4.85   556.2    4.1      51.332
2014   11       10     0  34    4.85   556.2    4.1      51.315
2014   11       10     0  40    4.85   556.2    4.1      51.298
2014   11       10     0  45    4.85   556.2    4.1      51.283
2014   11       10     0  51    4.85   556.1    4.1      51.268
2014   11       10     0  57    4.85   556.1    4.1      51.254
2014   11       10     1   2    4.85   556.1    4.1      51.240
2014   11       10     1   8    4.85   556.0    4.1      51.227
2014   11       10     1  13    4.84   556.0    4.1      51.214
2014   11       10     1  19    4.84   556.0    4.1      51.201
2014   11       10     1  25    4.84   555.9    4.1      51.188
2014   11       10     1  30    4.84   555.9    4.1      51.174
2014   11       10     1  36    4.84   555.9    4.1      51.160
2014   11       10     1  42    4.84   555.9    4.1      51.145
2014   11       10     1  47    4.84   555.8    4.1      51.130
2014   11       10     1  53    4.83   555.8    4.1      51.114
2014   11       10     1  59    4.83   555.7    4.1      51.097
2014   11       10     2   4    4.83   555.7    4.1      51.080
2014   11       10     2  10    4.83   555.7    4.1      51.062
2014   11       10     2  16    4.83   555.6    4.1      51.043
2014   11       10     2  21    4.83   555.6    4.1      51.023
2014   11       10     2  27    4.83   555.5    4.1      51.003
2014   11       10     2  33    4.82   555.5    4.1      50.982
2014   11       10     2  38    4.82   555.5    4.1      50.961
2014   11       10     2  44    4.82   555.4    4.1      50.939
2014   11       10     2  49    4.82   555.4    4.1      50.917
2014   11       10     2  55    4.82   555.3    4.1      50.895
2014   11       10     3   1    4.82   555.3    4.1      50.872
2014   11       10     3   6    4.82   555.2    4.1      50.849
2014   11       10     3  12    4.81   555.2    4.1      50.825
2014   11       10     3  18    4.81   555.1    4.1      50.802
2014   11       10     3  23    4.81   555.1    4.1      50.779
2014   11       10     3  29    4.81   555.0    4.1      50.755
2014   11       10     3  35    4.81   555.0    4.1      50.731
2014   11       10     3  40    4.81   554.9    4.1      50.708
2014   11       10     3  46    4.81   554.9    4.1      50.684
2014   11       10     3  52    4.80   554.8    4.1      50.661
2014   11       10     3  57    4.80   554.7    4.1      50.637
2014   11       10     4   3    4.80   554.7    4.1      50.614
2014   11       10     4   8    4.80   554.6    4.1      50.591
2014   11       10     4  14    4.80   554.6    4.1      50.568
2014   11       10     4  20    4.80   554.5    4.1      50.545
2014   11       10     4  25    4.80   554.5    4.1      50.522
2014   11       10     4  31    4.80   554.4    4.1      50.501
2014   11       10     4  37    4.79   554.3    4.1      50.479
2014   11       10     4  42    4.79   554.3    4.1      50.459
2014   11       10     4  48    4.79   554.2    4.1      50.438
2014   11       10     4  54    4.79   554.1    4.1      50.419
2014   11       10     4  59    4.79   554.1    4.1      50.399
2014   11       10     5   5    4.79   554.0    4.1      50.380
2014   11       10     5  10    4.79   553.9    4.1      50.361
2014   11       10     5  16    4.79   553.9    4.1      50.342
2014   11       10     5  22    4.78   553.8    4.1      50.324
2014   11       10     5  27    4.78   553.7    4.1      50.305
2014   11       10     5  33    4.78   553.7    4.1      50.287
2014   11       10     5  39    4.78   553.6    4.1      50.268
2014   11       10     5  44    4.78   553.5    4.1      50.250
2014   11       10     5  50    4.78   553.5    4.1      50.232
2014   11       10     5  56    4.78   553.4    4.1      50.215
2014   11       10     6   1    4.78   553.3    4.1      50.197
2014   11       10     6   7    4.77   553.3    4.1      50.180
2014   11       10     6  13    4.77   553.2    4.1      50.162
2014   11       10     6  18    4.77   553.1    4.1      50.145
2014   11       10     6  24    4.77   553.1    4.1      50.127
2014   11       10     6  29    4.77   553.0    4.1      50.109
2014   11       10     6  35    4.77   552.9    4.1      50.091
2014   11       10     6  41    4.77   552.8    4.1      50.072
2014   11       10     6  46    4.77   552.8    4.1      50.053
2014   11       10     6  52    4.76   552.7    4.1      50.033
2014   11       10     6  58    4.76   552.6    4.1      50.013
2014   11       10     7   3    4.76   552.5    4.1      49.992
2014   11       10     7   9    4.76   552.4    4.1      49.971
2014   11       10     7  14    4.76   552.3    4.1      49.949
2014   11       10     7  20    4.76   552.3    4.1      49.927
2014   11       10     7  26    4.76   552.2    4.1      49.904
2014   11       10     7  31    4.75   552.1    4.1      49.881
2014   11       10     7  37    4.75   552.0    4.1      49.858
2014   11       10     7  43    4.75   551.9    4.1      49.834
2014   11       10     7  48    4.75   551.8    4.1      49.811
2014   11       10     7  54    4.75   551.7    4.1      49.787
2014   11       10     8   0    4.75   551.7    4.1      49.763
2014   11       10     8   5    4.75   551.6    4.1      49.739
2014   11       10     8  11    4.75   551.5    4.1      49.715
2014   11       10     8  17    4.74   551.4    4.1      49.690
2014   11       10     8  22    4.74   551.3    4.1      49.665
2014   11       10     8  28    4.74   551.2    4.1      49.640
2014   11       10     8  34    4.74   551.1    4.1      49.614
2014   11       10     8  39    4.74   551.0    4.1      49.589
2014   11       10     8  45    4.74   550.9    4.1      49.562
2014   11       10     8  50    4.74   550.8    4.1      49.536
2014   11       10     8  56    4.74   550.7    4.1      49.508
2014   11       10     9   2    4.73   550.6    4.1      49.481
2014   11       10     9   7    4.73   550.5    4.1      49.453
2014   11       10     9  13    4.73   550.4    4.1      49.424
2014   11       10     9  19    4.73   550.4    4.1      49.395
2014   11       10     9  24    4.73   550.3    4.1      49.366
2014   11       10     9  30    4.73   550.2    4.1      49.336
2014   11       10     9  36    4.73   550.1    4.1      49.306
2014   11       10     9  41    4.73   550.0    4.1      49.276
2014   11       10     9  47    4.72   549.9    4.1      49.245
2014   11       10     9  53    4.72   549.8    4.1      49.214
2014   11       10     9  58    4.72   549.7    4.1      49.183
2014   11       10    10   4    4.72   549.6    4.1      49.152
2014   11       10    10  10    4.72   549.5    4.1      49.121
2014   11       10    10  15    4.72   549.3    4.1      49.089
2014   11       10    10  21    4.72   549.2    4.1      49.058
2014   11       10    10  26    4.72   549.1    4.1      49.027
2014   11       10    10  32    4.71   549.0    4.1      48.996
2014   11       10    10  38    4.71   548.9    4.1      48.965
2014   11       10    10  43    4.71   548.8    4.1      48.934
2014   11       10    10  49    4.71   548.7    4.1      48.904
2014   11       10    10  55    4.71   548.6    4.1      48.874
2014   11       10    11   0    4.71   548.5    4.1      48.845
2014   11       10    11   6    4.71   548.4    4.1      48.816
2014   11       10    11  12    4.71   548.3    4.1      48.787
2014   11       10    11  17    4.70   548.2    4.1      48.759
2014   11       10    11  23    4.70   548.1    4.1      48.732
2014   11       10    11  29    4.70   548.0    4.1      48.705
2014   11       10    11  34    4.70   547.9    4.1      48.679
2014   11       10    11  40    4.70   547.8    4.1      48.654
2014   11       10    11  45    4.70   547.7    4.1      48.629
2014   11       10    11  51    4.70   547.6    4.1      48.604
2014   11       10    11  57    4.70   547.5    4.1      48.581
2014   11       10    12   2    4.70   547.4    4.1      48.559
2014   11       10    12   8    4.69   547.3    4.1      48.538
2014   11       10    12  14    4.69   547.2    4.1      48.517
2014   11       10    12  19    4.69   547.2    4.1      48.497
2014   11       10    12  25    4.69   547.1    4.1      48.477
2014   11       10    12  31    4.69   547.0    4.1      48.458
2014   11       10    12  36    4.69   546.9    4.1      48.438
2014   11       10    12  42    4.69   546.8    4.1      48.419
2014   11       10    12  47    4.69   546.7    4.1      48.400
2014   11       10    12  53    4.68   546.6    4.1      48.380
2014   11       10    12  59    4.68   546.4    4.1      48.360
2014   11       10    13   4    4.68   546.3    4.1      48.340
2014   11       10    13  10    4.68   546.2    4.1      48.319
2014   11       10    13  16    4.68   546.1    4.1      48.297
2014   11       10    13  21    4.68   546.0    4.1      48.275
2014   11       10    13  27    4.67   545.9    4.1      48.252
2014   11       10    13  33    4.67   545.8    4.1      48.229
2014   11       10    13  38    4.67   545.7    4.1      48.206
2014   11       10    13  44    4.67   545.5    4.1      48.181
2014   11       10    13  49    4.67   545.4    4.1      48.156
2014   11       10    13  55    4.67   545.3    4.1      48.131
2014   11       10    14   1    4.66   545.2    4.1      48.105
2014   11       10    14   6    4.66   545.0    4.1      48.078
2014   11       10    14  12    4.66   544.9    4.1      48.052
2014   11       10    14  18    4.66   544.8    4.1      48.024
2014   11       10    14  23    4.66   544.7    4.1      47.997
2014   11       10    14  29    4.66   544.5    4.1      47.969
2014   11       10    14  35    4.65   544.4    4.1      47.940
2014   11       10    14  40    4.65   544.2    4.1      47.912
2014   11       10    14  46    4.65   544.1    4.1      47.883
2014   11       10    14  51    4.65   544.0    4.1      47.854
2014   11       10    14  57    4.65   543.8    4.1      47.825
2014   11       10    15   3    4.65   543.7    4.1      47.795
2014   11       10    15   8    4.64   543.5    4.1      47.766
2014   11       10    15  14    4.64   543.4    4.1      47.736
2014   11       10    15  20    4.64   543.3    4.1      47.706
2014   11       10    15  25    4.64   543.1    4.1      47.677
2014   11       10    15  31    4.64   543.0    4.1      47.647
2014   11       10    15  37    4.64   542.8    4.1      47.617
2014   11       10    15  42    4.64   542.7    4.1      47.588
2014   11       10    15  48    4.63   542.5    4.1      47.558
2014   11       10    15  54    4.63   542.4    4.1      47.529
2014   11       10    15  59    4.63   542.2    4.1      47.499
2014   11       10    16   5    4.63   542.1    4.1      47.470
2014   11       10    16  11    4.63   542.0    4.1      47.441
2014   11       10    16  16    4.63   541.8    4.1      47.411
2014   11       10    16  22    4.63   541.7    4.1      47.382
2014   11       10    16  27    4.62   541.5    4.1      47.353
2014   11       10    16  33    4.62   541.4    4.1      47.324
2014   11       10    16  39    4.62   541.2    4.1      47.295
2014   11       10    16  44    4.62   541.1    4.1      47.266
2014   11       10    16  50    4.62   540.9    4.1      47.238
2014   11       10    16  56    4.62   540.8    4.1      47.209
2014   11       10    17   1    4.62   540.6    4.1      47.180
2014   11       10    17   7    4.62   540.5    4.1      47.151
2014   11       10    17  13    4.61   540.3    4.1      47.122
2014   11       10    17  18    4.61   540.2    4.1      47.093
2014   11       10    17  24    4.61   540.0    4.1      47.064
2014   11       10    17  30    4.61   539.9    4.1      47.035
2014   11       10    17  35    4.61   539.8    4.1      47.005
2014   11       10    17  41    4.61   539.6    4.1      46.975
2014   11       10    17  46    4.61   539.5    4.1      46.945
2014   11       10    17  52    4.60   539.3    4.1      46.915
2014   11       10    17  58    4.60   539.2    4.1      46.884
2014   11       10    18   3    4.60   539.0    4.1      46.854
2014   11       10    18   9    4.60   538.9    4.1      46.823
2014   11       10    18  15    4.60   538.7    4.1      46.791
2014   11       10    18  20    4.60   538.6    4.1      46.760
2014   11       10    18  26    4.60   538.4    4.1      46.728
2014   11       10    18  32    4.60   538.3    4.1      46.697
2014   11       10    18  37    4.59   538.1    4.1      46.665
2014   11       10    18  43    4.59   538.0    4.1      46.633
2014   11       10    18  49    4.59   537.8    4.1      46.601
2014   11       10    18  54    4.59   537.7    4.1      46.569
2014   11       10    19   0    4.59   537.5    4.1      46.536
2014   11       10    19   5    4.59   537.4    4.1      46.504
2014   11       10    19  11    4.58   537.2    4.1      46.471
2014   11       10    19  17    4.58   537.0    4.1      46.439
2014   11       10    19  22    4.58   536.9    4.1      46.406
2014   11       10    19  28    4.58   536.7    4.1      46.373
2014   11       10    19  34    4.58   536.6    4.1      46.340
2014   11       10    19  39    4.58   536.4    4.1      46.307
2014   11       10    19  45    4.58   536.3    4.1      46.273
2014   11       10    19  51    4.57   536.1    4.1      46.240
2014   11       10    19  56    4.57   536.0    4.1      46.206
2014   11       10    20   2    4.57   535.8    4.1      46.172
2014   11       10    20   7    4.57   535.7    4.1      46.138
2014   11       10    20  13    4.57   535.5    4.1      46.104
2014   11       10    20  19    4.57   535.4    4.1      46.069
2014   11       10    20  24    4.56   535.2    4.1      46.034
2014   11       10    20  30    4.56   535.0    4.1      45.999
2014   11       10    20  36    4.56   534.9    4.1      45.964
2014   11       10    20  41    4.56   534.7    4.1      45.928
2014   11       10    20  47    4.56   534.5    4.1      45.892
2014   11       10    20  53    4.56   534.4    4.1      45.856
2014   11       10    20  58    4.55   534.2    4.1      45.819
2014   11       10    21   4    4.55   534.0    4.1      45.782
2014   11       10    21   9    4.55   533.9    4.1      45.745
2014   11       10    21  15    4.55   533.7    4.1      45.708
2014   11       10    21  21    4.55   533.5    4.1      45.670
2014   11       10    21  26    4.55   533.3    4.1      45.632
2014   11       10    21  32    4.54   533.2    4.1      45.594
2014   11       10    21  38    4.54   533.0    4.1      45.556
2014   11       10    21  43    4.54   532.8    4.1      45.517
2014   11       10    21  49    4.54   532.6    4.1      45.479
2014   11       10    21  55    4.54   532.4    4.1      45.440
2014   11       10    22   0    4.53   532.2    4.1      45.401
2014   11       10    22   6    4.53   532.1    4.1      45.362
2014   11       10    22  12    4.53   531.9    4.1      45.324
2014   11       10    22  17    4.53   531.7    4.1      45.285
2014   11       10    22  23    4.53   531.5    4.1      45.247
2014   11       10    22  28    4.53   531.3    4.1      45.209
2014   11       10    22  34    4.52   531.1    4.1      45.171
2014   11       10    22  40    4.52   530.9    4.1      45.134
2014   11       10    22  45    4.52   530.7    4.1      45.097
2014   11       10    22  51    4.52   530.5    4.1      45.061
2014   11       10    22  57    4.52   530.3    4.1      45.025
2014   11       10    23   2    4.52   530.1    4.1      44.990
2014   11       10    23   8    4.52   530.0    4.1      44.955
2014   11       10    23  14    4.51   529.8    4.1      44.921
2014   11       10    23  19    4.51   529.6    4.1      44.888
2014   11       10    23  25    4.51   529.4    4.1      44.856
2014   11       10    23  31    4.51   529.2    4.1      44.824
2014   11       10    23  36    4.51   529.0    4.1      44.793
2014   11       10    23  42    4.51   528.8    4.1      44.763
2014   11       10    23  47    4.51   528.6    4.1      44.733
2014   11       10    23  53    4.51   528.4    4.1      44.704
2014   11       10    23  59    4.50   528.3    4.1      44.676
2014   11       11     0   4    4.50   528.1    4.1      44.649
2014   11       11     0  10    4.50   527.9    4.1      44.623
2014   11       11     0  16    4.50   527.7    4.1      44.596
2014   11       11     0  21    4.50   527.5    4.1      44.571
2014   11       11     0  27    4.50   527.3    4.1      44.546
2014   11       11     0  33    4.50   527.1    4.1      44.521
2014   11       11     0  38    4.50   527.0    4.1      44.496
2014   11       11     0  44    4.50   526.8    4.1      44.472
2014   11       11     0  50    4.49   526.6    4.1      44.448
2014   11       11     0  55    4.49   526.4    4.1      44.424
2014   11       11     1   1    4.49   526.2    4.1      44.399
2014   11       11     1   7    4.49   526.1    4.1      44.375
2014   11       11     1  12    4.49   525.9    4.1      44.350
2014   11       11     1  18    4.49   525.7    4.1      44.325
2014   11       11     1  23    4.49   525.5    4.1      44.299
2014   11       11     1  29    4.48   525.3    4.1      44.273
2014   11       11     1  35    4.48   525.1    4.1      44.247
2014   11       11     1  40    4.48   525.0    4.1      44.221
2014   11       11     1  46    4.48   524.8    4.1      44.194
2014   11       11     1  52    4.48   524.6    4.1      44.166
2014   11       11     1  57    4.48   524.4    4.1      44.139
2014   11       11     2   3    4.48   524.2    4.1      44.110
2014   11       11     2   9    4.47   524.0    4.1      44.082
2014   11       11     2  14    4.47   523.8    4.1      44.053
2014   11       11     2  20    4.47   523.6    4.1      44.023
2014   11       11     2  25    4.47   523.4    4.1      43.994
2014   11       11     2  31    4.47   523.2    4.1      43.964
2014   11       11     2  37    4.47   523.0    4.1      43.933
2014   11       11     2  42    4.46   522.8    4.1      43.903
2014   11       11     2  48    4.46   522.7    4.1      43.872
2014   11       11     2  54    4.46   522.5    4.1      43.841
2014   11       11     2  59    4.46   522.3    4.1      43.810
2014   11       11     3   5    4.46   522.1    4.1      43.778
2014   11       11     3  11    4.46   521.9    4.1      43.746
2014   11       11     3  16    4.46   521.7    4.1      43.715
2014   11       11     3  22    4.45   521.5    4.1      43.683
2014   11       11     3  28    4.45   521.3    4.1      43.650
2014   11       11     3  33    4.45   521.1    4.1      43.618
2014   11       11     3  39    4.45   520.9    4.1      43.586
2014   11       11     3  44    4.45   520.7    4.1      43.553
2014   11       11     3  50    4.45   520.5    4.1      43.521
2014   11       11     3  56    4.44   520.3    4.1      43.488
2014   11       11     4   1    4.44   520.1    4.1      43.455
2014   11       11     4   7    4.44   519.9    4.1      43.423
2014   11       11     4  13    4.44   519.7    4.1      43.390
2014   11       11     4  18    4.44   519.5    4.1      43.357
2014   11       11     4  24    4.44   519.3    4.1      43.324
2014   11       11     4  30    4.44   519.1    4.2      43.292
2014   11       11     4  35    4.43   518.9    4.2      43.259
2014   11       11     4  41    4.43   518.7    4.2      43.226
2014   11       11     4  46    4.43   518.5    4.2      43.193
2014   11       11     4  52    4.43   518.3    4.2      43.160
2014   11       11     4  58    4.43   518.1    4.2      43.127
2014   11       11     5   3    4.43   517.9    4.2      43.093
2014   11       11     5   9    4.43   517.7    4.2      43.060
2014   11       11     5  15    4.43   517.5    4.2      43.026
2014   11       11     5  20    4.42   517.3    4.2      42.992
2014   11       11     5  26    4.42   517.1    4.2      42.958
2014   11       11     5  32    4.42   516.9    4.2      42.923
2014   11       11     5  37    4.42   516.7    4.2      42.888
2014   11       11     5  43    4.42   516.5    4.2      42.853
2014   11       11     5  48    4.42   516.3    4.2      42.818
2014   11       11     5  54    4.42   516.1    4.2      42.783
2014   11       11     6   0    4.41   515.9    4.2      42.748
2014   11       11     6   5    4.41   515.7    4.2      42.712
2014   11       11     6  11    4.41   515.5    4.2      42.677
2014   11       11     6  17    4.41   515.3    4.2      42.641
2014   11       11     6  22    4.41   515.1    4.2      42.606
2014   11       11     6  28    4.41   514.9    4.2      42.571
2014   11       11     6  34    4.41   514.6    4.2      42.536
2014   11       11     6  39    4.40   514.4    4.2      42.501
2014   11       11     6  45    4.40   514.2    4.2      42.466
2014   11       11     6  51    4.40   514.0    4.2      42.432
2014   11       11     6  56    4.40   513.8    4.2      42.398
2014   11       11     7   2    4.40   513.6    4.2      42.364
2014   11       11     7   8    4.40   513.4    4.2      42.331
2014   11       11     7  13    4.40   513.2    4.2      42.298
2014   11       11     7  19    4.40   513.0    4.2      42.265
2014   11       11     7  24    4.39   512.8    4.2      42.233
2014   11       11     7  30    4.39   512.6    4.2      42.202
2014   11       11     7  36    4.39   512.4    4.2      42.170
2014   11       11     7  41    4.39   512.2    4.2      42.139
2014   11       11     7  47    4.39   512.0    4.2      42.109
2014   11       11     7  53    4.39   511.8    4.2      42.079
2014   11       11     7  58    4.39   511.6    4.2      42.049
2014   11       11     8   4    4.39   511.4    4.2      42.019
2014   11       11     8  10    4.39   511.2    4.2      41.990
2014   11       11     8  15    4.38   511.0    4.2      41.961
2014   11       11     8  21    4.38   510.8    4.2      41.933
2014   11       11     8  27    4.38   510.6    4.2      41.904
2014   11       11     8  32    4.38   510.3    4.2      41.876
2014   11       11     8  38    4.38   510.1    4.2      41.848
2014   11       11     8  43    4.38   509.9    4.2      41.820
2014   11       11     8  49    4.38   509.7    4.2      41.793
2014   11       11     8  55    4.38   509.5    4.2      41.765
2014   11       11     9   0    4.37   509.3    4.2      41.738
2014   11       11     9   6    4.37   509.1    4.2      41.710
2014   11       11     9  12    4.37   508.9    4.2      41.683
2014   11       11     9  17    4.37   508.7    4.2      41.656
2014   11       11     9  23    4.37   508.5    4.2      41.628
2014   11       11     9  29    4.37   508.3    4.2      41.601
2014   11       11     9  34    4.37   508.0    4.2      41.574
2014   11       11     9  40    4.37   507.8    4.2      41.547
2014   11       11     9  46    4.36   507.6    4.2      41.521
2014   11       11     9  51    4.36   507.4    4.2      41.494
2014   11       11     9  57    4.36   507.2    4.2      41.468
2014   11       11    10   2    4.36   507.0    4.2      41.442
2014   11       11    10   8    4.36   506.8    4.2      41.416
2014   11       11    10  14    4.36   506.5    4.2      41.390
2014   11       11    10  19    4.36   506.3    4.2      41.365
2014   11       11    10  25    4.36   506.1    4.2      41.340
2014   11       11    10  31    4.36   505.9    4.2      41.314
2014   11       11    10  36    4.35   505.7    4.2      41.289
2014   11       11    10  42    4.35   505.5    4.2      41.264
2014   11       11    10  48    4.35   505.3    4.2      41.239
2014   11       11    10  53    4.35   505.1    4.2      41.215
2014   11       11    10  59    4.35   504.9    4.2      41.190
2014   11       11    11   4    4.35   504.6    4.2      41.166
2014   11       11    11  10    4.35   504.4    4.2      41.141
2014   11       11    11  16    4.35   504.2    4.2      41.117
2014   11       11    11  21    4.35   504.0    4.2      41.093
2014   11       11    11  27    4.34   503.8    4.2      41.068
2014   11       11    11  33    4.34   503.6    4.2      41.044
2014   11       11    11  38    4.34   503.4    4.2      41.020
2014   11       11    11  44    4.34   503.2    4.2      40.995
2014   11       11    11  50    4.34   503.0    4.3      40.971
2014   11       11    11  55    4.34   502.8    4.3      40.947
2014   11       11    12   1    4.34   502.6    4.3      40.923
2014   11       11    12   6    4.34   502.4    4.3      40.899
2014   11       11    12  12    4.34   502.2    4.3      40.875
2014   11       11    12  18    4.34   502.0    4.3      40.851
2014   11       11    12  23    4.33   501.8    4.3      40.827
2014   11       11    12  29    4.33   501.6    4.3      40.803
2014   11       11    12  35    4.33   501.4    4.3      40.779
2014   11       11    12  40    4.33   501.2    4.3      40.754
2014   11       11    12  46    4.33   501.0    4.3      40.730
2014   11       11    12  52    4.33   500.8    4.3      40.705
2014   11       11    12  57    4.33   500.6    4.3      40.680
2014   11       11    13   3    4.33   500.4    4.3      40.655
2014   11       11    13   9    4.32   500.2    4.3      40.630
2014   11       11    13  14    4.32   500.0    4.3      40.604
2014   11       11    13  20    4.32   499.8    4.3      40.578
2014   11       11    13  25    4.32   499.6    4.3      40.552
2014   11       11    13  31    4.32   499.4    4.3      40.526
2014   11       11    13  37    4.32   499.2    4.3      40.499
2014   11       11    13  42    4.32   499.0    4.3      40.472
2014   11       11    13  48    4.32   498.8    4.3      40.446
2014   11       11    13  54    4.32   498.6    4.3      40.418
2014   11       11    13  59    4.31   498.4    4.3      40.391
2014   11       11    14   5    4.31   498.2    4.3      40.363
2014   11       11    14  11    4.31   498.0    4.3      40.336
2014   11       11    14  16    4.31   497.8    4.3      40.308
2014   11       11    14  22    4.31   497.6    4.3      40.279
2014   11       11    14  28    4.31   497.4    4.3      40.251
2014   11       11    14  33    4.31   497.2    4.3      40.223
2014   11       11    14  39    4.31   497.0    4.3      40.195
2014   11       11    14  45    4.30   496.8    4.3      40.166
2014   11       11    14  50    4.30   496.6    4.3      40.138
2014   11       11    14  56    4.30   496.4    4.3      40.109
2014   11       11    15   1    4.30   496.2    4.3      40.081
2014   11       11    15   7    4.30   496.0    4.3      40.053
2014   11       11    15  13    4.30   495.8    4.3      40.025
2014   11       11    15  18    4.30   495.6    4.3      39.997
2014   11       11    15  24    4.30   495.4    4.3      39.970
2014   11       11    15  30    4.30   495.1    4.3      39.942
2014   11       11    15  35    4.29   494.9    4.3      39.916
2014   11       11    15  41    4.29   494.7    4.3      39.889
2014   11       11    15  47    4.29   494.5    4.3      39.863
2014   11       11    15  52    4.29   494.3    4.3      39.837
2014   11       11    15  58    4.29   494.1    4.3      39.812
2014   11       11    16   4    4.29   493.9    4.3      39.787
2014   11       11    16   9    4.29   493.7    4.3      39.763
2014   11       11    16  15    4.29   493.5    4.3      39.739
2014   11       11    16  20    4.29   493.3    4.3      39.716
2014   11       11    16  26    4.29   493.0    4.3      39.694
2014   11       11    16  32    4.28   492.8    4.3      39.672
2014   11       11    16  37    4.28   492.6    4.3      39.650
2014   11       11    16  43    4.28   492.4    4.3      39.629
2014   11       11    16  49    4.28   492.2    4.3      39.608
2014   11       11    16  54    4.28   492.0    4.3      39.587
2014   11       11    17   0    4.28   491.8    4.4      39.567
2014   11       11    17   6    4.28   491.6    4.4      39.547
2014   11       11    17  11    4.28   491.4    4.4      39.528
2014   11       11    17  17    4.28   491.2    4.4      39.509
2014   11       11    17  22    4.28   491.0    4.4      39.490
2014   11       11    17  28    4.28   490.8    4.4      39.472
2014   11       11    17  34    4.28   490.6    4.4      39.454
2014   11       11    17  39    4.28   490.4    4.4      39.436
2014   11       11    17  45    4.27   490.2    4.4      39.418
2014   11       11    17  51    4.27   490.0    4.4      39.400
2014   11       11    17  56    4.27   489.8    4.4      39.383
2014   11       11    18   2    4.27   489.6    4.4      39.365
2014   11       11    18   8    4.27   489.4    4.4      39.348
2014   11       11    18  13    4.27   489.2    4.4      39.331
2014   11       11    18  19    4.27   489.0    4.4      39.313
2014   11       11    18  24    4.27   488.8    4.4      39.296
2014   11       11    18  30    4.27   488.6    4.4      39.278
2014   11       11    18  36    4.27   488.4    4.4      39.261
2014   11       11    18  41    4.27   488.2    4.4      39.243
2014   11       11    18  47    4.27   488.0    4.4      39.225
2014   11       11    18  53    4.27   487.8    4.4      39.206
2014   11       11    18  58    4.26   487.6    4.4      39.188
2014   11       11    19   4    4.26   487.4    4.4      39.169
2014   11       11    19  10    4.26   487.2    4.4      39.150
2014   11       11    19  15    4.26   487.0    4.4      39.131
2014   11       11    19  21    4.26   486.9    4.4      39.111
2014   11       11    19  26    4.26   486.7    4.4      39.091
2014   11       11    19  32    4.26   486.5    4.4      39.071
2014   11       11    19  38    4.26   486.3    4.4      39.051
2014   11       11    19  43    4.26   486.1    4.4      39.030
2014   11       11    19  49    4.26   485.9    4.4      39.009
2014   11       11    19  55    4.26   485.7    4.4      38.988
2014   11       11    20   0    4.25   485.5    4.4      38.966
2014   11       11    20   6    4.25   485.3    4.4      38.944
2014   11       11    20  12    4.25   485.2    4.4      38.922
2014   11       11    20  17    4.25   485.0    4.4      38.900
2014   11       11    20  23    4.25   484.8    4.4      38.877
2014   11       11    20  29    4.25   484.6    4.4      38.854
2014   11       11    20  34    4.25   484.4    4.4      38.831
2014   11       11    20  40    4.25   484.2    4.4      38.807
2014   11       11    20  45    4.25   484.0    4.4      38.783
2014   11       11    20  51    4.25   483.8    4.4      38.760
2014   11       11    20  57    4.24   483.7    4.4      38.735
2014   11       11    21   2    4.24   483.5    4.4      38.711
2014   11       11    21   8    4.24   483.3    4.4      38.686
2014   11       11    21  14    4.24   483.1    4.5      38.662
2014   11       11    21  19    4.24   482.9    4.5      38.637
2014   11       11    21  25    4.24   482.7    4.5      38.611
2014   11       11    21  31    4.24   482.5    4.5      38.586
2014   11       11    21  36    4.24   482.4    4.5      38.561
2014   11       11    21  42    4.24   482.2    4.5      38.535
2014   11       11    21  48    4.24   482.0    4.5      38.509
2014   11       11    21  53    4.23   481.8    4.5      38.483
2014   11       11    21  59    4.23   481.6    4.5      38.457
2014   11       11    22   5    4.23   481.4    4.5      38.431
2014   11       11    22  10    4.23   481.2    4.5      38.404
2014   11       11    22  16    4.23   481.1    4.5      38.377
2014   11       11    22  21    4.23   480.9    4.5      38.351
2014   11       11    22  27    4.23   480.7    4.5      38.324
2014   11       11    22  33    4.23   480.5    4.5      38.297
2014   11       11    22  38    4.23   480.3    4.5      38.271
2014   11       11    22  44    4.23   480.1    4.5      38.244
2014   11       11    22  50    4.22   479.9    4.5      38.218
2014   11       11    22  55    4.22   479.7    4.5      38.191
2014   11       11    23   1    4.22   479.6    4.5      38.165
2014   11       11    23   7    4.22   479.4    4.5      38.139
2014   11       11    23  12    4.22   479.2    4.5      38.113
2014   11       11    23  18    4.22   479.0    4.5      38.087
2014   11       11    23  24    4.22   478.8    4.5      38.061
2014   11       11    23  29    4.22   478.6    4.5      38.036
2014   11       11    23  35    4.22   478.4    4.5      38.011
2014   11       11    23  40    4.22   478.2    4.5      37.986
2014   11       11    23  46    4.21   478.1    4.5      37.961
2014   11       11    23  52    4.21   477.9    4.5      37.937
2014   11       11    23  57    4.21   477.7    4.5      37.913
2014   11       12     0   3    4.21   477.5    4.5      37.889
