year    month   day   hour  minute  B_enl V_enl   n_enl       T_enl
[year] [month] [day] [hour][minute] [nT]  [km/s]  [cm-3]      [kK]
2014   11        3     0   3    5.81   420.6    7.0      41.034
2014   11        3     0   9    5.81   420.5    7.0      41.022
2014   11        3     0  14    5.81   420.5    7.0      41.011
2014   11        3     0  20    5.81   420.4    7.0      40.999
2014   11        3     0  25    5.81   420.3    7.0      40.988
2014   11        3     0  31    5.81   420.2    7.0      40.976
2014   11        3     0  36    5.81   420.2    7.0      40.965
2014   11        3     0  42    5.81   420.1    7.0      40.953
2014   11        3     0  47    5.81   420.0    7.0      40.942
2014   11        3     0  53    5.81   420.0    7.0      40.931
2014   11        3     0  58    5.81   419.9    7.0      40.919
2014   11        3     1   4    5.81   419.8    7.0      40.907
2014   11        3     1   9    5.80   419.7    7.0      40.896
2014   11        3     1  15    5.80   419.7    7.0      40.884
2014   11        3     1  21    5.80   419.6    7.0      40.872
2014   11        3     1  26    5.80   419.5    7.0      40.860
2014   11        3     1  32    5.80   419.4    7.0      40.848
2014   11        3     1  37    5.80   419.4    7.0      40.836
2014   11        3     1  43    5.80   419.3    7.0      40.824
2014   11        3     1  48    5.80   419.2    7.0      40.811
2014   11        3     1  54    5.80   419.1    7.0      40.798
2014   11        3     1  59    5.80   419.1    7.0      40.786
2014   11        3     2   5    5.80   419.0    7.0      40.773
2014   11        3     2  11    5.80   418.9    7.0      40.760
2014   11        3     2  16    5.80   418.8    7.0      40.747
2014   11        3     2  22    5.80   418.8    7.0      40.733
2014   11        3     2  27    5.80   418.7    7.0      40.720
2014   11        3     2  33    5.80   418.6    7.0      40.706
2014   11        3     2  38    5.80   418.5    7.0      40.693
2014   11        3     2  44    5.80   418.5    7.0      40.679
2014   11        3     2  49    5.80   418.4    7.0      40.665
2014   11        3     2  55    5.80   418.3    7.0      40.651
2014   11        3     3   0    5.80   418.2    7.0      40.638
2014   11        3     3   6    5.80   418.1    7.0      40.623
2014   11        3     3  12    5.79   418.1    7.0      40.609
2014   11        3     3  17    5.79   418.0    7.0      40.595
2014   11        3     3  23    5.79   417.9    7.0      40.581
2014   11        3     3  28    5.79   417.8    7.0      40.566
2014   11        3     3  34    5.79   417.8    7.0      40.552
2014   11        3     3  39    5.79   417.7    7.0      40.538
2014   11        3     3  45    5.79   417.6    7.0      40.523
2014   11        3     3  50    5.79   417.5    7.0      40.509
2014   11        3     3  56    5.79   417.4    7.0      40.494
2014   11        3     4   1    5.79   417.4    7.0      40.480
2014   11        3     4   7    5.79   417.3    7.0      40.465
2014   11        3     4  12    5.79   417.2    7.1      40.451
2014   11        3     4  18    5.79   417.1    7.1      40.437
2014   11        3     4  23    5.79   417.0    7.1      40.422
2014   11        3     4  29    5.79   417.0    7.1      40.408
2014   11        3     4  34    5.79   416.9    7.1      40.393
2014   11        3     4  40    5.79   416.8    7.1      40.379
2014   11        3     4  45    5.79   416.7    7.1      40.365
2014   11        3     4  51    5.79   416.6    7.1      40.351
2014   11        3     4  56    5.79   416.6    7.1      40.338
2014   11        3     5   2    5.79   416.5    7.1      40.324
2014   11        3     5   7    5.79   416.4    7.1      40.311
2014   11        3     5  13    5.79   416.3    7.1      40.297
2014   11        3     5  18    5.79   416.2    7.1      40.284
2014   11        3     5  24    5.79   416.2    7.1      40.272
2014   11        3     5  29    5.79   416.1    7.1      40.259
2014   11        3     5  35    5.79   416.0    7.1      40.247
2014   11        3     5  40    5.79   415.9    7.1      40.234
2014   11        3     5  46    5.79   415.8    7.1      40.223
2014   11        3     5  51    5.79   415.8    7.1      40.211
2014   11        3     5  56    5.79   415.7    7.1      40.200
2014   11        3     6   2    5.79   415.6    7.1      40.189
2014   11        3     6   7    5.80   415.5    7.1      40.178
2014   11        3     6  13    5.80   415.5    7.1      40.167
2014   11        3     6  18    5.80   415.4    7.1      40.157
2014   11        3     6  24    5.80   415.3    7.1      40.147
2014   11        3     6  29    5.80   415.2    7.1      40.137
2014   11        3     6  35    5.80   415.2    7.1      40.128
2014   11        3     6  40    5.80   415.1    7.1      40.119
2014   11        3     6  46    5.80   415.0    7.1      40.110
2014   11        3     6  51    5.80   414.9    7.1      40.101
2014   11        3     6  57    5.80   414.8    7.1      40.093
2014   11        3     7   2    5.80   414.8    7.1      40.085
2014   11        3     7   8    5.80   414.7    7.1      40.077
2014   11        3     7  13    5.80   414.6    7.1      40.070
2014   11        3     7  19    5.80   414.5    7.1      40.063
2014   11        3     7  24    5.80   414.5    7.1      40.056
2014   11        3     7  30    5.80   414.4    7.1      40.049
2014   11        3     7  36    5.80   414.3    7.1      40.043
2014   11        3     7  41    5.80   414.2    7.2      40.038
2014   11        3     7  47    5.80   414.2    7.2      40.032
2014   11        3     7  52    5.80   414.1    7.2      40.027
2014   11        3     7  58    5.80   414.0    7.2      40.023
2014   11        3     8   3    5.80   413.9    7.2      40.019
2014   11        3     8   9    5.80   413.8    7.2      40.015
2014   11        3     8  14    5.81   413.8    7.2      40.011
2014   11        3     8  20    5.81   413.7    7.2      40.008
2014   11        3     8  25    5.81   413.6    7.2      40.005
2014   11        3     8  31    5.81   413.6    7.2      40.003
2014   11        3     8  36    5.81   413.5    7.2      40.001
2014   11        3     8  42    5.81   413.4    7.2      39.999
2014   11        3     8  48    5.81   413.3    7.2      39.998
2014   11        3     8  53    5.81   413.3    7.2      39.996
2014   11        3     8  59    5.81   413.2    7.2      39.995
2014   11        3     9   4    5.81   413.1    7.2      39.995
2014   11        3     9  10    5.81   413.0    7.2      39.994
2014   11        3     9  15    5.82   413.0    7.2      39.994
2014   11        3     9  21    5.82   412.9    7.2      39.993
2014   11        3     9  26    5.82   412.8    7.2      39.993
2014   11        3     9  32    5.82   412.8    7.2      39.994
2014   11        3     9  38    5.82   412.7    7.3      39.994
2014   11        3     9  43    5.82   412.6    7.3      39.994
2014   11        3     9  49    5.82   412.5    7.3      39.995
2014   11        3     9  54    5.82   412.5    7.3      39.995
2014   11        3    10   0    5.82   412.4    7.3      39.996
2014   11        3    10   5    5.83   412.3    7.3      39.997
2014   11        3    10  11    5.83   412.3    7.3      39.999
2014   11        3    10  16    5.83   412.2    7.3      40.001
2014   11        3    10  22    5.83   412.1    7.3      40.002
2014   11        3    10  27    5.83   412.1    7.3      40.005
2014   11        3    10  33    5.83   412.0    7.3      40.007
2014   11        3    10  39    5.83   411.9    7.3      40.009
2014   11        3    10  44    5.84   411.9    7.3      40.012
2014   11        3    10  50    5.84   411.8    7.3      40.014
2014   11        3    10  55    5.84   411.8    7.3      40.017
2014   11        3    11   1    5.84   411.7    7.3      40.020
2014   11        3    11   6    5.84   411.6    7.3      40.022
2014   11        3    11  12    5.84   411.6    7.3      40.025
2014   11        3    11  17    5.84   411.5    7.4      40.028
2014   11        3    11  23    5.85   411.5    7.4      40.030
2014   11        3    11  28    5.85   411.4    7.4      40.033
2014   11        3    11  34    5.85   411.3    7.4      40.036
2014   11        3    11  39    5.85   411.3    7.4      40.038
2014   11        3    11  45    5.85   411.2    7.4      40.041
2014   11        3    11  50    5.85   411.2    7.4      40.043
2014   11        3    11  56    5.86   411.1    7.4      40.045
2014   11        3    12   1    5.86   411.0    7.4      40.047
2014   11        3    12   7    5.86   411.0    7.4      40.049
2014   11        3    12  12    5.86   410.9    7.4      40.051
2014   11        3    12  18    5.86   410.9    7.4      40.053
2014   11        3    12  23    5.86   410.8    7.4      40.056
2014   11        3    12  29    5.87   410.8    7.4      40.058
2014   11        3    12  34    5.87   410.7    7.4      40.060
2014   11        3    12  40    5.87   410.7    7.4      40.063
2014   11        3    12  45    5.87   410.6    7.4      40.065
2014   11        3    12  50    5.87   410.6    7.4      40.068
2014   11        3    12  56    5.87   410.5    7.4      40.071
2014   11        3    13   1    5.88   410.5    7.4      40.073
2014   11        3    13   7    5.88   410.4    7.5      40.077
2014   11        3    13  12    5.88   410.4    7.5      40.080
2014   11        3    13  18    5.88   410.3    7.5      40.083
2014   11        3    13  23    5.88   410.3    7.5      40.086
2014   11        3    13  29    5.89   410.2    7.5      40.090
2014   11        3    13  34    5.89   410.2    7.5      40.094
2014   11        3    13  40    5.89   410.2    7.5      40.098
2014   11        3    13  45    5.89   410.1    7.5      40.102
2014   11        3    13  51    5.89   410.1    7.5      40.106
2014   11        3    13  56    5.89   410.0    7.5      40.111
2014   11        3    14   2    5.90   410.0    7.5      40.116
2014   11        3    14   7    5.90   409.9    7.5      40.121
2014   11        3    14  13    5.90   409.9    7.5      40.127
2014   11        3    14  18    5.90   409.9    7.5      40.132
2014   11        3    14  24    5.90   409.8    7.5      40.138
2014   11        3    14  29    5.91   409.8    7.5      40.144
2014   11        3    14  35    5.91   409.7    7.5      40.150
2014   11        3    14  40    5.91   409.7    7.6      40.157
2014   11        3    14  46    5.91   409.7    7.6      40.163
2014   11        3    14  51    5.91   409.6    7.6      40.170
2014   11        3    14  57    5.92   409.6    7.6      40.177
2014   11        3    15   3    5.92   409.5    7.6      40.184
2014   11        3    15   8    5.92   409.5    7.6      40.192
2014   11        3    15  14    5.92   409.4    7.6      40.199
2014   11        3    15  19    5.92   409.4    7.6      40.207
2014   11        3    15  25    5.93   409.4    7.6      40.215
2014   11        3    15  30    5.93   409.3    7.6      40.223
2014   11        3    15  36    5.93   409.3    7.6      40.231
2014   11        3    15  41    5.93   409.2    7.6      40.239
2014   11        3    15  47    5.93   409.2    7.6      40.248
2014   11        3    15  52    5.94   409.2    7.6      40.256
2014   11        3    15  58    5.94   409.1    7.6      40.265
2014   11        3    16   3    5.94   409.1    7.6      40.274
2014   11        3    16   9    5.94   409.0    7.7      40.283
2014   11        3    16  15    5.94   409.0    7.7      40.292
2014   11        3    16  20    5.95   409.0    7.7      40.302
2014   11        3    16  26    5.95   408.9    7.7      40.312
2014   11        3    16  31    5.95   408.9    7.7      40.322
2014   11        3    16  37    5.95   408.8    7.7      40.332
2014   11        3    16  42    5.95   408.8    7.7      40.342
2014   11        3    16  48    5.96   408.8    7.7      40.353
2014   11        3    16  54    5.96   408.7    7.7      40.363
2014   11        3    16  59    5.96   408.7    7.7      40.374
2014   11        3    17   5    5.96   408.7    7.7      40.386
2014   11        3    17  10    5.97   408.6    7.7      40.397
2014   11        3    17  16    5.97   408.6    7.7      40.409
2014   11        3    17  21    5.97   408.6    7.7      40.420
2014   11        3    17  27    5.97   408.5    7.7      40.433
2014   11        3    17  32    5.98   408.5    7.8      40.445
2014   11        3    17  38    5.98   408.5    7.8      40.458
2014   11        3    17  43    5.98   408.4    7.8      40.472
2014   11        3    17  49    5.98   408.4    7.8      40.486
2014   11        3    17  54    5.99   408.4    7.8      40.501
2014   11        3    18   0    5.99   408.4    7.8      40.515
2014   11        3    18   5    5.99   408.3    7.8      40.531
2014   11        3    18  11    5.99   408.3    7.8      40.546
2014   11        3    18  17    6.00   408.3    7.8      40.562
2014   11        3    18  22    6.00   408.3    7.8      40.578
2014   11        3    18  28    6.00   408.2    7.8      40.594
2014   11        3    18  33    6.00   408.2    7.8      40.610
2014   11        3    18  39    6.01   408.2    7.8      40.627
2014   11        3    18  44    6.01   408.2    7.8      40.643
2014   11        3    18  50    6.01   408.1    7.9      40.660
2014   11        3    18  55    6.01   408.1    7.9      40.677
2014   11        3    19   1    6.02   408.1    7.9      40.693
2014   11        3    19   6    6.02   408.1    7.9      40.710
2014   11        3    19  12    6.02   408.1    7.9      40.726
2014   11        3    19  17    6.02   408.1    7.9      40.742
2014   11        3    19  23    6.03   408.0    7.9      40.758
2014   11        3    19  28    6.03   408.0    7.9      40.774
2014   11        3    19  34    6.03   408.0    7.9      40.790
2014   11        3    19  39    6.04   408.0    7.9      40.806
2014   11        3    19  45    6.04   408.0    7.9      40.821
2014   11        3    19  50    6.04   408.0    7.9      40.837
2014   11        3    19  55    6.04   408.0    7.9      40.852
2014   11        3    20   1    6.05   407.9    7.9      40.867
2014   11        3    20   6    6.05   407.9    7.9      40.883
2014   11        3    20  12    6.05   407.9    7.9      40.898
2014   11        3    20  17    6.05   407.9    7.9      40.914
2014   11        3    20  23    6.06   407.9    8.0      40.929
2014   11        3    20  28    6.06   407.9    8.0      40.944
2014   11        3    20  34    6.06   407.9    8.0      40.960
2014   11        3    20  39    6.06   407.9    8.0      40.975
2014   11        3    20  45    6.07   407.9    8.0      40.991
2014   11        3    20  50    6.07   407.9    8.0      41.007
2014   11        3    20  56    6.07   407.9    8.0      41.022
2014   11        3    21   1    6.07   407.9    8.0      41.038
2014   11        3    21   7    6.08   407.9    8.0      41.054
2014   11        3    21  12    6.08   407.9    8.0      41.070
2014   11        3    21  18    6.08   407.9    8.0      41.087
2014   11        3    21  23    6.09   407.9    8.0      41.103
2014   11        3    21  29    6.09   407.9    8.0      41.119
2014   11        3    21  34    6.09   407.9    8.0      41.136
2014   11        3    21  40    6.09   407.9    8.0      41.153
2014   11        3    21  45    6.10   407.9    8.0      41.170
2014   11        3    21  51    6.10   407.9    8.0      41.187
2014   11        3    21  56    6.10   407.9    8.1      41.204
2014   11        3    22   2    6.10   407.9    8.1      41.222
2014   11        3    22   7    6.11   407.9    8.1      41.239
2014   11        3    22  13    6.11   407.9    8.1      41.257
2014   11        3    22  19    6.11   407.9    8.1      41.274
2014   11        3    22  24    6.11   407.9    8.1      41.292
2014   11        3    22  30    6.12   407.9    8.1      41.309
2014   11        3    22  35    6.12   408.0    8.1      41.327
2014   11        3    22  41    6.12   408.0    8.1      41.344
2014   11        3    22  46    6.13   408.0    8.1      41.362
2014   11        3    22  52    6.13   408.0    8.1      41.379
2014   11        3    22  57    6.13   408.0    8.1      41.396
2014   11        3    23   3    6.13   408.0    8.1      41.413
2014   11        3    23   8    6.14   408.0    8.1      41.431
2014   11        3    23  14    6.14   408.0    8.1      41.447
2014   11        3    23  20    6.14   408.0    8.1      41.464
2014   11        3    23  25    6.14   408.0    8.1      41.481
2014   11        3    23  31    6.15   408.0    8.1      41.497
2014   11        3    23  36    6.15   408.1    8.2      41.513
2014   11        3    23  42    6.15   408.1    8.2      41.529
2014   11        3    23  47    6.15   408.1    8.2      41.546
2014   11        3    23  53    6.16   408.1    8.2      41.562
2014   11        3    23  58    6.16   408.1    8.2      41.578
2014   11        4     0   4    6.16   408.1    8.2      41.594
2014   11        4     0   9    6.16   408.1    8.2      41.610
2014   11        4     0  15    6.17   408.1    8.2      41.626
2014   11        4     0  20    6.17   408.1    8.2      41.642
2014   11        4     0  26    6.17   408.1    8.2      41.658
2014   11        4     0  32    6.17   408.1    8.2      41.674
2014   11        4     0  37    6.18   408.2    8.2      41.690
2014   11        4     0  43    6.18   408.2    8.2      41.706
2014   11        4     0  48    6.18   408.2    8.2      41.723
2014   11        4     0  54    6.18   408.2    8.2      41.739
2014   11        4     0  59    6.19   408.2    8.2      41.756
2014   11        4     1   5    6.19   408.2    8.2      41.773
2014   11        4     1  10    6.19   408.2    8.2      41.791
2014   11        4     1  16    6.19   408.2    8.2      41.809
2014   11        4     1  21    6.20   408.2    8.3      41.827
2014   11        4     1  27    6.20   408.2    8.3      41.845
2014   11        4     1  32    6.20   408.3    8.3      41.864
2014   11        4     1  38    6.20   408.3    8.3      41.883
2014   11        4     1  43    6.21   408.3    8.3      41.903
2014   11        4     1  48    6.21   408.3    8.3      41.922
2014   11        4     1  54    6.21   408.3    8.3      41.941
2014   11        4     1  59    6.21   408.3    8.3      41.961
2014   11        4     2   5    6.22   408.3    8.3      41.980
2014   11        4     2  10    6.22   408.3    8.3      41.999
2014   11        4     2  16    6.22   408.3    8.3      42.018
2014   11        4     2  21    6.22   408.3    8.3      42.037
2014   11        4     2  27    6.23   408.3    8.3      42.056
2014   11        4     2  32    6.23   408.4    8.3      42.075
2014   11        4     2  38    6.23   408.4    8.3      42.093
2014   11        4     2  43    6.23   408.4    8.3      42.111
2014   11        4     2  48    6.24   408.4    8.3      42.128
2014   11        4     2  54    6.24   408.4    8.3      42.145
2014   11        4     2  59    6.24   408.4    8.3      42.162
2014   11        4     3   5    6.24   408.4    8.3      42.178
2014   11        4     3  10    6.24   408.4    8.3      42.195
2014   11        4     3  16    6.25   408.4    8.3      42.210
2014   11        4     3  21    6.25   408.4    8.3      42.226
2014   11        4     3  27    6.25   408.4    8.3      42.241
2014   11        4     3  32    6.25   408.4    8.3      42.256
2014   11        4     3  38    6.26   408.5    8.4      42.271
2014   11        4     3  43    6.26   408.5    8.4      42.285
2014   11        4     3  49    6.26   408.5    8.4      42.300
2014   11        4     3  54    6.26   408.5    8.4      42.314
2014   11        4     4   0    6.27   408.5    8.4      42.328
2014   11        4     4   5    6.27   408.5    8.4      42.342
2014   11        4     4  11    6.27   408.5    8.4      42.355
2014   11        4     4  16    6.27   408.5    8.4      42.369
2014   11        4     4  22    6.28   408.5    8.4      42.382
2014   11        4     4  27    6.28   408.6    8.4      42.396
2014   11        4     4  33    6.28   408.6    8.4      42.409
2014   11        4     4  38    6.28   408.6    8.4      42.422
2014   11        4     4  44    6.28   408.6    8.4      42.435
2014   11        4     4  49    6.29   408.6    8.4      42.448
2014   11        4     4  55    6.29   408.6    8.4      42.462
2014   11        4     5   0    6.29   408.6    8.4      42.475
2014   11        4     5   6    6.29   408.7    8.4      42.488
2014   11        4     5  11    6.30   408.7    8.4      42.501
2014   11        4     5  17    6.30   408.7    8.4      42.514
2014   11        4     5  22    6.30   408.7    8.4      42.527
2014   11        4     5  27    6.30   408.7    8.4      42.541
2014   11        4     5  33    6.31   408.7    8.4      42.554
2014   11        4     5  38    6.31   408.8    8.4      42.567
2014   11        4     5  44    6.31   408.8    8.4      42.581
2014   11        4     5  49    6.31   408.8    8.4      42.594
2014   11        4     5  55    6.32   408.8    8.4      42.608
2014   11        4     6   0    6.32   408.8    8.4      42.621
2014   11        4     6   6    6.32   408.9    8.4      42.635
2014   11        4     6  11    6.32   408.9    8.4      42.648
2014   11        4     6  17    6.33   408.9    8.4      42.662
2014   11        4     6  22    6.33   408.9    8.4      42.676
2014   11        4     6  28    6.33   409.0    8.4      42.690
2014   11        4     6  33    6.33   409.0    8.4      42.704
2014   11        4     6  38    6.34   409.0    8.4      42.719
2014   11        4     6  44    6.34   409.0    8.4      42.733
2014   11        4     6  49    6.34   409.1    8.4      42.748
2014   11        4     6  55    6.34   409.1    8.4      42.762
2014   11        4     7   0    6.34   409.1    8.4      42.777
2014   11        4     7   6    6.35   409.2    8.4      42.792
2014   11        4     7  11    6.35   409.2    8.5      42.807
2014   11        4     7  17    6.35   409.2    8.5      42.823
2014   11        4     7  22    6.35   409.3    8.5      42.839
2014   11        4     7  28    6.36   409.3    8.5      42.855
2014   11        4     7  33    6.36   409.3    8.5      42.871
2014   11        4     7  39    6.36   409.4    8.5      42.887
2014   11        4     7  44    6.36   409.4    8.5      42.904
2014   11        4     7  50    6.37   409.4    8.5      42.922
2014   11        4     7  55    6.37   409.5    8.5      42.939
2014   11        4     8   1    6.37   409.5    8.5      42.958
2014   11        4     8   6    6.37   409.5    8.5      42.976
2014   11        4     8  12    6.38   409.6    8.5      42.995
2014   11        4     8  17    6.38   409.6    8.5      43.014
2014   11        4     8  23    6.38   409.6    8.5      43.033
2014   11        4     8  28    6.38   409.7    8.5      43.053
2014   11        4     8  34    6.39   409.7    8.5      43.074
2014   11        4     8  39    6.39   409.8    8.5      43.095
2014   11        4     8  45    6.39   409.8    8.5      43.117
2014   11        4     8  50    6.39   409.8    8.5      43.139
2014   11        4     8  56    6.40   409.9    8.5      43.161
2014   11        4     9   1    6.40   409.9    8.5      43.184
2014   11        4     9   7    6.40   410.0    8.5      43.208
2014   11        4     9  12    6.40   410.0    8.6      43.231
2014   11        4     9  18    6.41   410.0    8.6      43.255
2014   11        4     9  23    6.41   410.1    8.6      43.280
2014   11        4     9  29    6.41   410.1    8.6      43.305
2014   11        4     9  34    6.41   410.2    8.6      43.331
2014   11        4     9  39    6.42   410.2    8.6      43.357
2014   11        4     9  45    6.42   410.3    8.6      43.384
2014   11        4     9  50    6.42   410.3    8.6      43.410
2014   11        4     9  56    6.42   410.3    8.6      43.437
2014   11        4    10   1    6.43   410.4    8.6      43.464
2014   11        4    10   7    6.43   410.4    8.6      43.490
2014   11        4    10  12    6.43   410.5    8.6      43.517
2014   11        4    10  18    6.43   410.5    8.6      43.543
2014   11        4    10  23    6.43   410.6    8.6      43.569
2014   11        4    10  29    6.44   410.6    8.6      43.594
2014   11        4    10  34    6.44   410.6    8.6      43.619
2014   11        4    10  40    6.44   410.7    8.6      43.644
2014   11        4    10  45    6.44   410.7    8.6      43.667
2014   11        4    10  50    6.45   410.8    8.6      43.691
2014   11        4    10  56    6.45   410.8    8.6      43.713
2014   11        4    11   1    6.45   410.8    8.6      43.735
2014   11        4    11   7    6.45   410.9    8.6      43.756
2014   11        4    11  12    6.45   410.9    8.6      43.776
2014   11        4    11  18    6.46   411.0    8.6      43.796
2014   11        4    11  23    6.46   411.0    8.6      43.815
2014   11        4    11  29    6.46   411.0    8.6      43.833
2014   11        4    11  34    6.46   411.1    8.6      43.851
2014   11        4    11  40    6.46   411.1    8.6      43.868
2014   11        4    11  45    6.47   411.2    8.6      43.884
2014   11        4    11  51    6.47   411.2    8.6      43.900
2014   11        4    11  56    6.47   411.2    8.6      43.914
2014   11        4    12   2    6.47   411.3    8.6      43.929
2014   11        4    12   7    6.47   411.3    8.6      43.943
2014   11        4    12  13    6.48   411.4    8.6      43.956
2014   11        4    12  18    6.48   411.4    8.6      43.969
2014   11        4    12  24    6.48   411.4    8.6      43.981
2014   11        4    12  29    6.48   411.5    8.6      43.992
2014   11        4    12  35    6.48   411.5    8.6      44.004
2014   11        4    12  40    6.49   411.5    8.6      44.015
2014   11        4    12  46    6.49   411.6    8.6      44.025
2014   11        4    12  52    6.49   411.6    8.6      44.035
2014   11        4    12  57    6.49   411.6    8.6      44.045
2014   11        4    13   3    6.49   411.7    8.6      44.055
2014   11        4    13   8    6.50   411.7    8.6      44.064
2014   11        4    13  14    6.50   411.8    8.6      44.073
2014   11        4    13  19    6.50   411.8    8.6      44.082
2014   11        4    13  25    6.50   411.8    8.6      44.090
2014   11        4    13  30    6.50   411.9    8.6      44.099
2014   11        4    13  36    6.51   411.9    8.6      44.107
2014   11        4    13  41    6.51   411.9    8.6      44.116
2014   11        4    13  47    6.51   412.0    8.6      44.124
2014   11        4    13  52    6.51   412.0    8.6      44.132
2014   11        4    13  58    6.51   412.0    8.6      44.141
2014   11        4    14   4    6.52   412.1    8.6      44.149
2014   11        4    14   9    6.52   412.1    8.6      44.157
2014   11        4    14  15    6.52   412.2    8.6      44.165
2014   11        4    14  20    6.52   412.2    8.6      44.174
2014   11        4    14  26    6.52   412.2    8.6      44.182
2014   11        4    14  31    6.53   412.3    8.6      44.191
2014   11        4    14  37    6.53   412.3    8.6      44.200
2014   11        4    14  43    6.53   412.4    8.6      44.209
2014   11        4    14  48    6.53   412.4    8.6      44.218
2014   11        4    14  54    6.53   412.4    8.6      44.227
2014   11        4    14  59    6.54   412.5    8.6      44.237
2014   11        4    15   5    6.54   412.5    8.6      44.247
2014   11        4    15  10    6.54   412.6    8.6      44.258
2014   11        4    15  16    6.54   412.6    8.6      44.268
2014   11        4    15  22    6.55   412.7    8.6      44.279
2014   11        4    15  27    6.55   412.7    8.6      44.290
2014   11        4    15  33    6.55   412.8    8.6      44.302
2014   11        4    15  38    6.55   412.8    8.6      44.314
2014   11        4    15  44    6.55   412.9    8.6      44.326
2014   11        4    15  49    6.56   412.9    8.6      44.339
2014   11        4    15  55    6.56   413.0    8.6      44.353
2014   11        4    16   1    6.56   413.0    8.6      44.366
2014   11        4    16   6    6.56   413.1    8.7      44.381
2014   11        4    16  12    6.56   413.1    8.7      44.395
2014   11        4    16  17    6.57   413.2    8.7      44.411
2014   11        4    16  23    6.57   413.2    8.7      44.426
2014   11        4    16  29    6.57   413.3    8.7      44.443
2014   11        4    16  34    6.57   413.3    8.7      44.459
2014   11        4    16  40    6.57   413.4    8.7      44.477
2014   11        4    16  45    6.58   413.4    8.7      44.496
2014   11        4    16  51    6.58   413.5    8.7      44.516
2014   11        4    16  56    6.58   413.6    8.7      44.537
2014   11        4    17   2    6.58   413.6    8.7      44.559
2014   11        4    17   8    6.58   413.7    8.7      44.581
2014   11        4    17  13    6.59   413.7    8.7      44.604
2014   11        4    17  19    6.59   413.8    8.7      44.628
2014   11        4    17  24    6.59   413.9    8.7      44.652
2014   11        4    17  30    6.59   413.9    8.7      44.677
2014   11        4    17  36    6.60   414.0    8.7      44.703
2014   11        4    17  41    6.60   414.1    8.7      44.728
2014   11        4    17  47    6.60   414.1    8.7      44.755
2014   11        4    17  52    6.60   414.2    8.7      44.782
2014   11        4    17  58    6.60   414.2    8.7      44.809
2014   11        4    18   3    6.61   414.3    8.7      44.836
2014   11        4    18   9    6.61   414.4    8.7      44.863
2014   11        4    18  15    6.61   414.4    8.7      44.890
2014   11        4    18  20    6.61   414.5    8.7      44.918
2014   11        4    18  26    6.61   414.6    8.8      44.946
2014   11        4    18  31    6.62   414.7    8.8      44.975
2014   11        4    18  37    6.62   414.7    8.8      45.004
2014   11        4    18  42    6.62   414.8    8.8      45.033
2014   11        4    18  48    6.62   414.9    8.8      45.064
2014   11        4    18  54    6.63   415.0    8.8      45.095
2014   11        4    18  59    6.63   415.0    8.8      45.126
2014   11        4    19   5    6.63   415.1    8.8      45.157
2014   11        4    19  10    6.63   415.2    8.8      45.189
2014   11        4    19  16    6.63   415.3    8.8      45.220
2014   11        4    19  22    6.64   415.4    8.8      45.252
2014   11        4    19  27    6.64   415.4    8.8      45.283
2014   11        4    19  33    6.64   415.5    8.8      45.314
2014   11        4    19  38    6.64   415.6    8.8      45.344
2014   11        4    19  44    6.65   415.7    8.8      45.374
2014   11        4    19  49    6.65   415.8    8.8      45.403
2014   11        4    19  55    6.65   415.8    8.8      45.431
2014   11        4    20   0    6.65   415.9    8.8      45.459
2014   11        4    20   6    6.65   416.0    8.8      45.485
2014   11        4    20  12    6.65   416.1    8.8      45.511
2014   11        4    20  17    6.66   416.2    8.8      45.535
2014   11        4    20  23    6.66   416.2    8.8      45.559
2014   11        4    20  28    6.66   416.3    8.8      45.581
2014   11        4    20  34    6.66   416.4    8.8      45.603
2014   11        4    20  39    6.66   416.5    8.8      45.624
2014   11        4    20  45    6.67   416.6    8.8      45.643
2014   11        4    20  51    6.67   416.6    8.8      45.662
2014   11        4    20  56    6.67   416.7    8.8      45.681
2014   11        4    21   2    6.67   416.8    8.8      45.698
2014   11        4    21   7    6.67   416.9    8.8      45.715
2014   11        4    21  13    6.67   416.9    8.8      45.730
2014   11        4    21  18    6.67   417.0    8.8      45.746
2014   11        4    21  24    6.68   417.1    8.8      45.760
2014   11        4    21  29    6.68   417.2    8.8      45.774
2014   11        4    21  35    6.68   417.2    8.8      45.787
2014   11        4    21  41    6.68   417.3    8.8      45.800
2014   11        4    21  46    6.68   417.4    8.8      45.812
2014   11        4    21  52    6.68   417.5    8.8      45.823
2014   11        4    21  57    6.68   417.6    8.8      45.834
2014   11        4    22   3    6.69   417.6    8.8      45.844
2014   11        4    22   8    6.69   417.7    8.8      45.854
2014   11        4    22  14    6.69   417.8    8.8      45.864
2014   11        4    22  20    6.69   417.9    8.8      45.873
2014   11        4    22  25    6.69   417.9    8.8      45.881
2014   11        4    22  31    6.69   418.0    8.8      45.890
2014   11        4    22  36    6.69   418.1    8.8      45.898
2014   11        4    22  42    6.70   418.2    8.8      45.906
2014   11        4    22  47    6.70   418.2    8.8      45.913
2014   11        4    22  53    6.70   418.3    8.8      45.921
2014   11        4    22  59    6.70   418.4    8.8      45.928
2014   11        4    23   4    6.70   418.5    8.8      45.935
2014   11        4    23  10    6.70   418.5    8.7      45.942
2014   11        4    23  15    6.70   418.6    8.7      45.949
2014   11        4    23  21    6.70   418.7    8.7      45.956
2014   11        4    23  27    6.71   418.8    8.7      45.963
2014   11        4    23  32    6.71   418.8    8.7      45.970
2014   11        4    23  38    6.71   418.9    8.7      45.977
2014   11        4    23  43    6.71   419.0    8.7      45.984
2014   11        4    23  49    6.71   419.1    8.7      45.990
2014   11        4    23  55    6.71   419.1    8.7      45.998
2014   11        5     0   0    6.71   419.2    8.7      46.005
2014   11        5     0   6    6.72   419.3    8.7      46.012
2014   11        5     0  11    6.72   419.4    8.7      46.019
2014   11        5     0  17    6.72   419.5    8.7      46.027
2014   11        5     0  23    6.72   419.5    8.7      46.035
2014   11        5     0  28    6.72   419.6    8.7      46.043
2014   11        5     0  34    6.72   419.7    8.7      46.051
2014   11        5     0  39    6.72   419.8    8.7      46.059
2014   11        5     0  45    6.72   419.8    8.7      46.068
2014   11        5     0  50    6.73   419.9    8.7      46.078
2014   11        5     0  56    6.73   420.0    8.7      46.087
2014   11        5     1   2    6.73   420.1    8.7      46.097
2014   11        5     1   7    6.73   420.2    8.7      46.108
2014   11        5     1  13    6.73   420.2    8.7      46.119
2014   11        5     1  18    6.73   420.3    8.7      46.131
2014   11        5     1  24    6.74   420.4    8.7      46.143
2014   11        5     1  30    6.74   420.5    8.7      46.156
2014   11        5     1  35    6.74   420.6    8.7      46.170
2014   11        5     1  41    6.74   420.7    8.7      46.184
2014   11        5     1  46    6.74   420.7    8.7      46.200
2014   11        5     1  52    6.74   420.8    8.7      46.217
2014   11        5     1  57    6.75   420.9    8.7      46.236
2014   11        5     2   3    6.75   421.0    8.7      46.255
2014   11        5     2   9    6.75   421.1    8.7      46.276
2014   11        5     2  14    6.75   421.2    8.7      46.298
2014   11        5     2  20    6.75   421.3    8.7      46.322
2014   11        5     2  25    6.75   421.4    8.7      46.347
2014   11        5     2  31    6.76   421.5    8.7      46.373
2014   11        5     2  36    6.76   421.6    8.7      46.400
2014   11        5     2  42    6.76   421.7    8.7      46.429
2014   11        5     2  48    6.76   421.8    8.7      46.458
2014   11        5     2  53    6.77   421.9    8.7      46.488
2014   11        5     2  59    6.77   422.0    8.7      46.519
2014   11        5     3   4    6.77   422.1    8.8      46.551
2014   11        5     3  10    6.77   422.2    8.8      46.585
2014   11        5     3  15    6.77   422.3    8.8      46.619
2014   11        5     3  21    6.78   422.4    8.8      46.654
2014   11        5     3  27    6.78   422.5    8.8      46.688
2014   11        5     3  32    6.78   422.6    8.8      46.724
2014   11        5     3  38    6.78   422.7    8.8      46.760
2014   11        5     3  43    6.78   422.8    8.8      46.796
2014   11        5     3  49    6.78   422.9    8.8      46.833
2014   11        5     3  54    6.79   423.0    8.8      46.870
2014   11        5     4   0    6.79   423.1    8.8      46.907
2014   11        5     4   6    6.79   423.3    8.8      46.944
2014   11        5     4  11    6.79   423.4    8.8      46.981
2014   11        5     4  17    6.79   423.5    8.8      47.018
2014   11        5     4  22    6.80   423.6    8.8      47.055
2014   11        5     4  28    6.80   423.8    8.8      47.090
2014   11        5     4  33    6.80   423.9    8.8      47.125
2014   11        5     4  39    6.80   424.0    8.8      47.159
2014   11        5     4  44    6.80   424.1    8.8      47.192
2014   11        5     4  50    6.80   424.3    8.8      47.224
2014   11        5     4  56    6.80   424.4    8.8      47.255
2014   11        5     5   1    6.80   424.5    8.8      47.285
2014   11        5     5   7    6.81   424.6    8.8      47.314
2014   11        5     5  12    6.81   424.8    8.8      47.341
2014   11        5     5  18    6.81   424.9    8.8      47.367
2014   11        5     5  24    6.81   425.0    8.8      47.392
2014   11        5     5  29    6.81   425.1    8.8      47.416
2014   11        5     5  35    6.81   425.3    8.8      47.439
2014   11        5     5  40    6.81   425.4    8.8      47.460
2014   11        5     5  46    6.81   425.5    8.8      47.481
2014   11        5     5  51    6.81   425.6    8.8      47.501
2014   11        5     5  57    6.82   425.8    8.8      47.520
2014   11        5     6   3    6.82   425.9    8.8      47.538
2014   11        5     6   8    6.82   426.0    8.8      47.555
2014   11        5     6  14    6.82   426.1    8.8      47.571
2014   11        5     6  19    6.82   426.3    8.8      47.586
2014   11        5     6  25    6.82   426.4    8.8      47.601
2014   11        5     6  31    6.82   426.5    8.8      47.615
2014   11        5     6  36    6.82   426.6    8.8      47.629
2014   11        5     6  42    6.82   426.8    8.8      47.642
2014   11        5     6  47    6.82   426.9    8.8      47.654
2014   11        5     6  53    6.82   427.0    8.7      47.666
2014   11        5     6  58    6.83   427.1    8.7      47.677
2014   11        5     7   4    6.83   427.3    8.7      47.687
2014   11        5     7  10    6.83   427.4    8.7      47.697
2014   11        5     7  15    6.83   427.5    8.7      47.707
2014   11        5     7  21    6.83   427.6    8.7      47.716
2014   11        5     7  26    6.83   427.8    8.7      47.725
2014   11        5     7  32    6.83   427.9    8.7      47.733
2014   11        5     7  38    6.83   428.0    8.7      47.741
2014   11        5     7  43    6.83   428.1    8.7      47.748
2014   11        5     7  49    6.83   428.2    8.7      47.755
2014   11        5     7  54    6.83   428.4    8.7      47.762
2014   11        5     8   0    6.83   428.5    8.7      47.769
2014   11        5     8   6    6.84   428.6    8.7      47.775
2014   11        5     8  11    6.84   428.7    8.7      47.781
2014   11        5     8  17    6.84   428.9    8.7      47.787
2014   11        5     8  22    6.84   429.0    8.7      47.793
2014   11        5     8  28    6.84   429.1    8.7      47.798
2014   11        5     8  33    6.84   429.2    8.7      47.803
2014   11        5     8  39    6.84   429.4    8.7      47.809
2014   11        5     8  45    6.84   429.5    8.7      47.814
2014   11        5     8  50    6.84   429.6    8.6      47.820
2014   11        5     8  56    6.84   429.7    8.6      47.825
2014   11        5     9   1    6.84   429.8    8.6      47.831
2014   11        5     9   7    6.84   430.0    8.6      47.836
2014   11        5     9  12    6.85   430.1    8.6      47.842
2014   11        5     9  18    6.85   430.2    8.6      47.847
2014   11        5     9  24    6.85   430.3    8.6      47.853
2014   11        5     9  29    6.85   430.5    8.6      47.860
2014   11        5     9  35    6.85   430.6    8.6      47.866
2014   11        5     9  40    6.85   430.7    8.6      47.873
2014   11        5     9  46    6.85   430.8    8.6      47.880
2014   11        5     9  51    6.85   431.0    8.6      47.887
2014   11        5     9  57    6.85   431.1    8.6      47.895
2014   11        5    10   3    6.85   431.2    8.6      47.903
2014   11        5    10   8    6.86   431.3    8.6      47.912
2014   11        5    10  14    6.86   431.4    8.6      47.921
2014   11        5    10  19    6.86   431.6    8.6      47.931
2014   11        5    10  25    6.86   431.7    8.6      47.941
2014   11        5    10  30    6.86   431.8    8.6      47.953
2014   11        5    10  36    6.86   431.9    8.6      47.965
2014   11        5    10  42    6.86   432.1    8.6      47.979
2014   11        5    10  47    6.86   432.2    8.6      47.993
2014   11        5    10  53    6.87   432.3    8.6      48.008
2014   11        5    10  58    6.87   432.4    8.6      48.025
2014   11        5    11   4    6.87   432.6    8.6      48.042
2014   11        5    11   9    6.87   432.7    8.6      48.061
2014   11        5    11  15    6.87   432.8    8.6      48.081
2014   11        5    11  20    6.87   433.0    8.6      48.101
2014   11        5    11  26    6.87   433.1    8.6      48.123
2014   11        5    11  32    6.87   433.2    8.6      48.145
2014   11        5    11  37    6.87   433.4    8.6      48.167
2014   11        5    11  43    6.88   433.5    8.6      48.191
2014   11        5    11  48    6.88   433.6    8.6      48.214
2014   11        5    11  54    6.88   433.8    8.6      48.238
2014   11        5    11  59    6.88   433.9    8.6      48.261
2014   11        5    12   5    6.88   434.1    8.6      48.284
2014   11        5    12  11    6.88   434.2    8.6      48.306
2014   11        5    12  16    6.88   434.4    8.6      48.329
2014   11        5    12  22    6.88   434.5    8.6      48.350
2014   11        5    12  27    6.88   434.6    8.6      48.372
2014   11        5    12  33    6.88   434.8    8.6      48.392
2014   11        5    12  38    6.89   434.9    8.6      48.412
2014   11        5    12  44    6.89   435.1    8.6      48.431
2014   11        5    12  50    6.89   435.2    8.6      48.450
2014   11        5    12  55    6.89   435.4    8.5      48.467
2014   11        5    13   1    6.89   435.5    8.5      48.484
2014   11        5    13   6    6.89   435.6    8.5      48.501
2014   11        5    13  12    6.89   435.8    8.5      48.516
2014   11        5    13  17    6.89   435.9    8.5      48.532
2014   11        5    13  23    6.89   436.1    8.5      48.547
2014   11        5    13  29    6.89   436.2    8.5      48.561
2014   11        5    13  34    6.89   436.3    8.5      48.575
2014   11        5    13  40    6.89   436.5    8.5      48.588
2014   11        5    13  45    6.89   436.6    8.5      48.602
2014   11        5    13  51    6.90   436.8    8.5      48.615
2014   11        5    13  57    6.90   436.9    8.5      48.627
2014   11        5    14   2    6.90   437.0    8.5      48.640
2014   11        5    14   8    6.90   437.2    8.5      48.652
2014   11        5    14  13    6.90   437.3    8.5      48.664
2014   11        5    14  19    6.90   437.5    8.5      48.676
2014   11        5    14  25    6.90   437.6    8.5      48.688
2014   11        5    14  30    6.90   437.8    8.5      48.701
2014   11        5    14  36    6.90   437.9    8.5      48.714
2014   11        5    14  41    6.90   438.0    8.5      48.727
2014   11        5    14  47    6.90   438.2    8.5      48.740
2014   11        5    14  52    6.91   438.3    8.5      48.753
2014   11        5    14  58    6.91   438.5    8.5      48.766
2014   11        5    15   4    6.91   438.6    8.5      48.779
2014   11        5    15   9    6.91   438.8    8.5      48.792
2014   11        5    15  15    6.91   438.9    8.5      48.806
2014   11        5    15  20    6.91   439.0    8.5      48.819
2014   11        5    15  26    6.91   439.2    8.5      48.831
2014   11        5    15  31    6.91   439.3    8.4      48.844
2014   11        5    15  37    6.91   439.5    8.4      48.857
2014   11        5    15  43    6.91   439.6    8.4      48.869
2014   11        5    15  48    6.92   439.8    8.4      48.881
2014   11        5    15  54    6.92   439.9    8.4      48.893
2014   11        5    15  59    6.92   440.1    8.4      48.904
2014   11        5    16   5    6.92   440.2    8.4      48.915
2014   11        5    16  10    6.92   440.4    8.4      48.925
2014   11        5    16  16    6.92   440.5    8.4      48.935
2014   11        5    16  22    6.92   440.7    8.4      48.944
2014   11        5    16  27    6.92   440.8    8.4      48.954
2014   11        5    16  33    6.92   441.0    8.4      48.962
2014   11        5    16  38    6.92   441.1    8.4      48.971
2014   11        5    16  44    6.93   441.3    8.4      48.979
2014   11        5    16  49    6.93   441.4    8.4      48.987
2014   11        5    16  55    6.93   441.6    8.4      48.994
2014   11        5    17   0    6.93   441.7    8.4      49.002
2014   11        5    17   6    6.93   441.9    8.4      49.009
2014   11        5    17  12    6.93   442.0    8.4      49.016
2014   11        5    17  17    6.93   442.2    8.3      49.022
2014   11        5    17  23    6.93   442.3    8.3      49.029
2014   11        5    17  28    6.93   442.5    8.3      49.035
2014   11        5    17  34    6.93   442.6    8.3      49.041
2014   11        5    17  39    6.93   442.8    8.3      49.047
2014   11        5    17  45    6.93   443.0    8.3      49.053
2014   11        5    17  51    6.93   443.1    8.3      49.059
2014   11        5    17  56    6.94   443.3    8.3      49.064
2014   11        5    18   2    6.94   443.4    8.3      49.070
2014   11        5    18   7    6.94   443.6    8.3      49.075
2014   11        5    18  13    6.94   443.7    8.3      49.081
2014   11        5    18  18    6.94   443.9    8.3      49.086
2014   11        5    18  24    6.94   444.0    8.3      49.092
2014   11        5    18  29    6.94   444.2    8.3      49.097
2014   11        5    18  35    6.94   444.3    8.3      49.102
2014   11        5    18  41    6.94   444.5    8.3      49.108
2014   11        5    18  46    6.94   444.7    8.3      49.113
2014   11        5    18  52    6.94   444.8    8.2      49.118
2014   11        5    18  57    6.94   445.0    8.2      49.123
2014   11        5    19   3    6.95   445.1    8.2      49.128
2014   11        5    19   8    6.95   445.3    8.2      49.133
2014   11        5    19  14    6.95   445.4    8.2      49.139
2014   11        5    19  20    6.95   445.6    8.2      49.144
2014   11        5    19  25    6.95   445.7    8.2      49.149
2014   11        5    19  31    6.95   445.9    8.2      49.154
2014   11        5    19  36    6.95   446.0    8.2      49.159
2014   11        5    19  42    6.95   446.2    8.2      49.164
2014   11        5    19  47    6.95   446.3    8.2      49.170
2014   11        5    19  53    6.95   446.5    8.2      49.175
2014   11        5    19  58    6.95   446.6    8.2      49.180
2014   11        5    20   4    6.95   446.8    8.2      49.186
2014   11        5    20  10    6.95   446.9    8.2      49.191
2014   11        5    20  15    6.96   447.1    8.2      49.197
2014   11        5    20  21    6.96   447.2    8.2      49.203
2014   11        5    20  26    6.96   447.4    8.2      49.209
2014   11        5    20  32    6.96   447.5    8.2      49.216
2014   11        5    20  38    6.96   447.7    8.2      49.223
2014   11        5    20  43    6.96   447.8    8.1      49.230
2014   11        5    20  49    6.96   448.0    8.1      49.238
2014   11        5    20  54    6.96   448.1    8.1      49.246
2014   11        5    21   0    6.96   448.3    8.1      49.254
2014   11        5    21   5    6.96   448.4    8.1      49.263
2014   11        5    21  11    6.97   448.5    8.1      49.273
2014   11        5    21  17    6.97   448.7    8.1      49.283
2014   11        5    21  22    6.97   448.8    8.1      49.294
2014   11        5    21  28    6.97   449.0    8.1      49.306
2014   11        5    21  33    6.97   449.1    8.1      49.318
2014   11        5    21  39    6.97   449.3    8.1      49.331
2014   11        5    21  45    6.97   449.4    8.1      49.345
2014   11        5    21  50    6.97   449.5    8.1      49.360
2014   11        5    21  56    6.98   449.7    8.1      49.376
2014   11        5    22   1    6.98   449.8    8.1      49.393
2014   11        5    22   7    6.98   450.0    8.1      49.411
2014   11        5    22  12    6.98   450.1    8.1      49.430
2014   11        5    22  18    6.98   450.3    8.1      49.451
2014   11        5    22  24    6.98   450.4    8.1      49.473
2014   11        5    22  29    6.99   450.5    8.1      49.496
2014   11        5    22  35    6.99   450.7    8.1      49.520
2014   11        5    22  40    6.99   450.8    8.1      49.545
2014   11        5    22  46    6.99   451.0    8.1      49.572
2014   11        5    22  51    6.99   451.1    8.1      49.601
2014   11        5    22  57    6.99   451.3    8.1      49.630
2014   11        5    23   2    7.00   451.5    8.1      49.661
2014   11        5    23   8    7.00   451.6    8.1      49.693
2014   11        5    23  14    7.00   451.8    8.1      49.724
2014   11        5    23  19    7.00   451.9    8.1      49.757
2014   11        5    23  25    7.00   452.1    8.1      49.790
2014   11        5    23  30    7.01   452.3    8.1      49.822
2014   11        5    23  36    7.01   452.4    8.1      49.855
2014   11        5    23  41    7.01   452.6    8.1      49.888
2014   11        5    23  47    7.01   452.8    8.1      49.921
2014   11        5    23  52    7.01   452.9    8.1      49.953
2014   11        5    23  58    7.01   453.1    8.1      49.985
2014   11        6     0   4    7.02   453.3    8.1      50.016
2014   11        6     0   9    7.02   453.5    8.1      50.047
2014   11        6     0  15    7.02   453.6    8.1      50.077
2014   11        6     0  20    7.02   453.8    8.1      50.106
2014   11        6     0  26    7.02   454.0    8.1      50.135
2014   11        6     0  31    7.02   454.2    8.1      50.163
2014   11        6     0  37    7.03   454.3    8.1      50.191
2014   11        6     0  42    7.03   454.5    8.1      50.219
2014   11        6     0  48    7.03   454.7    8.1      50.246
2014   11        6     0  54    7.03   454.9    8.1      50.272
2014   11        6     0  59    7.03   455.0    8.0      50.298
2014   11        6     1   5    7.03   455.2    8.0      50.324
2014   11        6     1  10    7.04   455.4    8.0      50.350
2014   11        6     1  16    7.04   455.6    8.0      50.375
2014   11        6     1  21    7.04   455.7    8.0      50.400
2014   11        6     1  27    7.04   455.9    8.0      50.425
2014   11        6     1  32    7.04   456.1    8.0      50.449
2014   11        6     1  38    7.04   456.3    8.0      50.473
2014   11        6     1  44    7.04   456.5    8.0      50.497
2014   11        6     1  49    7.05   456.6    8.0      50.520
2014   11        6     1  55    7.05   456.8    8.0      50.544
2014   11        6     2   0    7.05   457.0    8.0      50.567
2014   11        6     2   6    7.05   457.2    8.0      50.590
2014   11        6     2  11    7.05   457.4    8.0      50.613
2014   11        6     2  17    7.05   457.5    8.0      50.636
2014   11        6     2  23    7.05   457.7    8.0      50.658
2014   11        6     2  28    7.06   457.9    8.0      50.681
2014   11        6     2  34    7.06   458.1    8.0      50.703
2014   11        6     2  39    7.06   458.2    8.0      50.726
2014   11        6     2  45    7.06   458.4    8.0      50.748
2014   11        6     2  50    7.06   458.6    8.0      50.771
2014   11        6     2  56    7.06   458.8    8.0      50.793
2014   11        6     3   1    7.07   459.0    7.9      50.816
2014   11        6     3   7    7.07   459.1    7.9      50.838
2014   11        6     3  13    7.07   459.3    7.9      50.861
2014   11        6     3  18    7.07   459.5    7.9      50.885
2014   11        6     3  24    7.07   459.7    7.9      50.908
2014   11        6     3  29    7.07   459.9    7.9      50.932
2014   11        6     3  35    7.07   460.0    7.9      50.956
2014   11        6     3  40    7.08   460.2    7.9      50.980
2014   11        6     3  46    7.08   460.4    7.9      51.005
2014   11        6     3  52    7.08   460.6    7.9      51.029
2014   11        6     3  57    7.08   460.8    7.9      51.054
2014   11        6     4   3    7.08   461.0    7.9      51.080
2014   11        6     4   8    7.08   461.2    7.9      51.105
2014   11        6     4  14    7.09   461.3    7.9      51.131
2014   11        6     4  19    7.09   461.5    7.9      51.157
2014   11        6     4  25    7.09   461.7    7.9      51.183
2014   11        6     4  31    7.09   461.9    7.9      51.210
2014   11        6     4  36    7.09   462.1    7.9      51.237
2014   11        6     4  42    7.09   462.3    7.9      51.264
2014   11        6     4  47    7.10   462.5    7.9      51.291
2014   11        6     4  53    7.10   462.6    7.9      51.319
2014   11        6     4  58    7.10   462.8    7.9      51.348
2014   11        6     5   4    7.10   463.0    7.9      51.377
2014   11        6     5  10    7.10   463.2    7.9      51.406
2014   11        6     5  15    7.11   463.4    7.9      51.436
2014   11        6     5  21    7.11   463.6    7.9      51.467
2014   11        6     5  26    7.11   463.8    7.9      51.499
2014   11        6     5  32    7.11   464.0    7.8      51.531
2014   11        6     5  37    7.11   464.1    7.8      51.564
2014   11        6     5  43    7.11   464.3    7.8      51.599
2014   11        6     5  48    7.12   464.5    7.8      51.634
2014   11        6     5  54    7.12   464.7    7.8      51.670
2014   11        6     6   0    7.12   464.9    7.8      51.709
2014   11        6     6   5    7.12   465.1    7.8      51.749
2014   11        6     6  11    7.13   465.3    7.8      51.792
2014   11        6     6  16    7.13   465.5    7.8      51.836
2014   11        6     6  22    7.13   465.7    7.8      51.882
2014   11        6     6  27    7.13   465.9    7.8      51.929
2014   11        6     6  33    7.14   466.1    7.8      51.978
2014   11        6     6  38    7.14   466.3    7.9      52.029
2014   11        6     6  44    7.14   466.6    7.9      52.081
2014   11        6     6  50    7.15   466.8    7.9      52.134
2014   11        6     6  55    7.15   467.0    7.9      52.188
2014   11        6     7   1    7.15   467.2    7.9      52.244
2014   11        6     7   6    7.16   467.4    7.9      52.301
2014   11        6     7  12    7.16   467.7    7.9      52.361
2014   11        6     7  17    7.16   467.9    7.9      52.422
2014   11        6     7  23    7.17   468.1    7.9      52.486
2014   11        6     7  28    7.17   468.4    7.9      52.550
2014   11        6     7  34    7.17   468.6    7.9      52.617
2014   11        6     7  39    7.18   468.9    7.9      52.685
2014   11        6     7  45    7.18   469.1    7.9      52.754
2014   11        6     7  51    7.19   469.4    7.9      52.825
2014   11        6     7  56    7.19   469.6    7.9      52.897
2014   11        6     8   2    7.19   469.9    7.9      52.969
2014   11        6     8   7    7.20   470.1    7.9      53.043
2014   11        6     8  13    7.20   470.4    7.9      53.117
2014   11        6     8  18    7.21   470.6    7.9      53.193
2014   11        6     8  24    7.21   470.9    7.9      53.269
2014   11        6     8  29    7.22   471.2    7.9      53.346
2014   11        6     8  35    7.22   471.4    7.9      53.423
2014   11        6     8  41    7.23   471.7    7.9      53.500
2014   11        6     8  46    7.23   472.0    7.9      53.577
2014   11        6     8  52    7.24   472.3    7.9      53.655
2014   11        6     8  57    7.24   472.5    7.9      53.732
2014   11        6     9   3    7.25   472.8    7.9      53.811
2014   11        6     9   8    7.26   473.1    7.9      53.889
2014   11        6     9  14    7.26   473.4    7.9      53.968
2014   11        6     9  19    7.27   473.6    7.9      54.046
2014   11        6     9  25    7.27   473.9    7.9      54.126
2014   11        6     9  31    7.28   474.2    7.9      54.206
2014   11        6     9  36    7.29   474.5    7.9      54.286
2014   11        6     9  42    7.29   474.8    7.9      54.368
2014   11        6     9  47    7.30   475.1    7.9      54.450
2014   11        6     9  53    7.31   475.4    7.9      54.533
2014   11        6     9  58    7.31   475.7    7.9      54.617
2014   11        6    10   4    7.32   476.0    7.9      54.702
2014   11        6    10   9    7.33   476.3    7.9      54.788
2014   11        6    10  15    7.34   476.6    7.9      54.874
2014   11        6    10  21    7.34   476.9    7.9      54.963
2014   11        6    10  26    7.35   477.3    7.9      55.053
2014   11        6    10  32    7.36   477.6    7.9      55.144
2014   11        6    10  37    7.37   477.9    7.9      55.236
2014   11        6    10  43    7.38   478.2    7.9      55.331
2014   11        6    10  48    7.39   478.6    7.9      55.428
2014   11        6    10  54    7.39   478.9    7.9      55.528
2014   11        6    11   0    7.40   479.3    7.9      55.628
2014   11        6    11   5    7.41   479.6    7.9      55.731
2014   11        6    11  11    7.42   480.0    7.9      55.834
2014   11        6    11  16    7.43   480.4    7.9      55.940
2014   11        6    11  22    7.44   480.7    7.9      56.044
2014   11        6    11  27    7.45   481.1    7.9      56.149
2014   11        6    11  33    7.46   481.5    7.9      56.253
2014   11        6    11  39    7.47   481.9    7.9      56.356
2014   11        6    11  44    7.48   482.3    7.9      56.458
2014   11        6    11  50    7.49   482.7    7.9      56.560
2014   11        6    11  55    7.50   483.1    7.9      56.659
2014   11        6    12   1    7.50   483.4    7.9      56.757
2014   11        6    12   6    7.51   483.8    7.9      56.852
2014   11        6    12  12    7.52   484.2    7.9      56.947
2014   11        6    12  17    7.53   484.6    7.9      57.039
2014   11        6    12  23    7.54   485.0    7.9      57.130
2014   11        6    12  29    7.54   485.3    7.9      57.219
2014   11        6    12  34    7.55   485.7    7.9      57.307
2014   11        6    12  40    7.56   486.1    7.9      57.394
2014   11        6    12  45    7.57   486.5    7.9      57.479
2014   11        6    12  51    7.57   486.9    7.9      57.562
2014   11        6    12  56    7.58   487.2    7.9      57.645
2014   11        6    13   2    7.59   487.6    7.9      57.726
2014   11        6    13   7    7.59   488.0    7.9      57.805
2014   11        6    13  13    7.60   488.4    7.9      57.881
2014   11        6    13  18    7.61   488.7    7.9      57.958
2014   11        6    13  24    7.61   489.1    7.9      58.033
2014   11        6    13  30    7.62   489.5    7.9      58.108
2014   11        6    13  35    7.62   489.9    7.9      58.183
2014   11        6    13  41    7.63   490.2    7.9      58.256
2014   11        6    13  46    7.63   490.6    7.9      58.329
2014   11        6    13  52    7.64   490.9    7.9      58.400
2014   11        6    13  57    7.64   491.3    7.9      58.470
2014   11        6    14   3    7.64   491.6    7.9      58.538
2014   11        6    14   8    7.65   492.0    7.9      58.605
2014   11        6    14  14    7.65   492.3    7.9      58.670
2014   11        6    14  19    7.65   492.7    7.9      58.733
2014   11        6    14  25    7.65   493.0    7.9      58.795
2014   11        6    14  30    7.65   493.4    7.9      58.854
2014   11        6    14  36    7.66   493.7    7.9      58.911
2014   11        6    14  42    7.66   494.0    7.9      58.966
2014   11        6    14  47    7.66   494.4    7.8      59.017
2014   11        6    14  53    7.66   494.7    7.8      59.068
2014   11        6    14  58    7.66   495.0    7.8      59.119
2014   11        6    15   4    7.66   495.4    7.8      59.170
2014   11        6    15   9    7.66   495.7    7.8      59.221
2014   11        6    15  15    7.66   496.0    7.8      59.272
2014   11        6    15  20    7.65   496.4    7.8      59.323
2014   11        6    15  26    7.65   496.7    7.8      59.374
2014   11        6    15  32    7.65   497.0    7.8      59.425
2014   11        6    15  37    7.65   497.4    7.8      59.476
2014   11        6    15  43    7.65   497.7    7.8      59.525
2014   11        6    15  48    7.65   498.0    7.8      59.574
2014   11        6    15  54    7.64   498.3    7.7      59.622
2014   11        6    15  59    7.64   498.7    7.7      59.669
2014   11        6    16   5    7.63   499.0    7.7      59.715
2014   11        6    16  10    7.63   499.3    7.7      59.758
2014   11        6    16  16    7.63   499.7    7.7      59.799
2014   11        6    16  21    7.62   500.0    7.7      59.838
2014   11        6    16  27    7.62   500.3    7.7      59.874
2014   11        6    16  33    7.61   500.6    7.7      59.908
2014   11        6    16  38    7.61   500.9    7.6      59.940
2014   11        6    16  44    7.60   501.2    7.6      59.969
2014   11        6    16  49    7.59   501.6    7.6      59.995
2014   11        6    16  55    7.59   501.9    7.6      60.019
2014   11        6    17   0    7.58   502.2    7.6      60.039
2014   11        6    17   6    7.57   502.5    7.5      60.056
2014   11        6    17  12    7.57   502.8    7.5      60.071
2014   11        6    17  17    7.56   503.1    7.5      60.083
2014   11        6    17  23    7.55   503.4    7.5      60.093
2014   11        6    17  28    7.54   503.7    7.5      60.101
2014   11        6    17  34    7.54   504.0    7.4      60.107
2014   11        6    17  39    7.53   504.3    7.4      60.112
2014   11        6    17  45    7.52   504.6    7.4      60.116
2014   11        6    17  50    7.51   504.9    7.4      60.118
2014   11        6    17  56    7.50   505.2    7.4      60.120
2014   11        6    18   2    7.49   505.5    7.3      60.122
2014   11        6    18   7    7.49   505.8    7.3      60.124
2014   11        6    18  13    7.48   506.1    7.3      60.127
2014   11        6    18  18    7.47   506.4    7.3      60.129
2014   11        6    18  24    7.46   506.7    7.3      60.132
2014   11        6    18  29    7.45   507.0    7.2      60.136
2014   11        6    18  35    7.44   507.3    7.2      60.141
2014   11        6    18  40    7.43   507.6    7.2      60.144
2014   11        6    18  46    7.42   507.9    7.2      60.146
2014   11        6    18  52    7.41   508.2    7.2      60.146
2014   11        6    18  57    7.40   508.5    7.1      60.145
2014   11        6    19   3    7.40   508.8    7.1      60.143
2014   11        6    19   8    7.39   509.1    7.1      60.139
2014   11        6    19  14    7.38   509.4    7.1      60.137
2014   11        6    19  19    7.37   509.7    7.1      60.134
2014   11        6    19  25    7.36   509.9    7.0      60.130
2014   11        6    19  30    7.35   510.2    7.0      60.128
2014   11        6    19  36    7.34   510.5    7.0      60.127
2014   11        6    19  42    7.33   510.7    7.0      60.127
2014   11        6    19  47    7.32   511.0    7.0      60.127
2014   11        6    19  53    7.31   511.2    6.9      60.128
2014   11        6    19  58    7.30   511.5    6.9      60.130
2014   11        6    20   4    7.29   511.7    6.9      60.134
2014   11        6    20   9    7.28   512.0    6.9      60.141
2014   11        6    20  15    7.27   512.2    6.9      60.149
2014   11        6    20  20    7.26   512.5    6.8      60.159
2014   11        6    20  26    7.25   512.7    6.8      60.172
2014   11        6    20  31    7.24   513.0    6.8      60.186
2014   11        6    20  37    7.23   513.2    6.8      60.204
2014   11        6    20  42    7.22   513.5    6.8      60.225
2014   11        6    20  48    7.21   513.8    6.8      60.250
2014   11        6    20  53    7.20   514.1    6.7      60.278
2014   11        6    20  59    7.19   514.4    6.7      60.308
2014   11        6    21   5    7.18   514.7    6.7      60.340
2014   11        6    21  10    7.18   515.0    6.7      60.376
2014   11        6    21  16    7.17   515.3    6.7      60.412
2014   11        6    21  21    7.16   515.7    6.7      60.448
2014   11        6    21  27    7.15   516.0    6.6      60.484
2014   11        6    21  32    7.14   516.3    6.6      60.517
2014   11        6    21  38    7.13   516.7    6.6      60.550
2014   11        6    21  43    7.12   517.0    6.6      60.581
2014   11        6    21  49    7.11   517.3    6.6      60.611
2014   11        6    21  54    7.09   517.7    6.6      60.636
2014   11        6    22   0    7.08   518.0    6.6      60.659
2014   11        6    22   5    7.07   518.3    6.5      60.678
2014   11        6    22  11    7.06   518.6    6.5      60.695
2014   11        6    22  16    7.05   518.9    6.5      60.710
2014   11        6    22  22    7.04   519.2    6.5      60.723
2014   11        6    22  28    7.03   519.4    6.5      60.735
2014   11        6    22  33    7.02   519.7    6.5      60.745
2014   11        6    22  39    7.01   520.0    6.4      60.754
2014   11        6    22  44    7.00   520.2    6.4      60.762
2014   11        6    22  50    6.99   520.4    6.4      60.770
2014   11        6    22  55    6.98   520.7    6.4      60.778
2014   11        6    23   1    6.96   520.9    6.4      60.787
2014   11        6    23   6    6.95   521.1    6.4      60.798
2014   11        6    23  12    6.94   521.3    6.3      60.809
2014   11        6    23  18    6.93   521.5    6.3      60.823
2014   11        6    23  23    6.92   521.7    6.3      60.840
2014   11        6    23  29    6.91   521.9    6.3      60.859
2014   11        6    23  34    6.91   522.1    6.3      60.882
2014   11        6    23  40    6.90   522.3    6.3      60.907
2014   11        6    23  45    6.89   522.5    6.3      60.936
2014   11        6    23  51    6.88   522.7    6.3      60.968
2014   11        6    23  56    6.87   522.9    6.2      61.005
2014   11        7     0   2    6.86   523.1    6.2      61.045
2014   11        7     0   7    6.85   523.3    6.2      61.088
2014   11        7     0  13    6.84   523.6    6.2      61.135
2014   11        7     0  19    6.83   523.8    6.2      61.183
2014   11        7     0  24    6.82   524.1    6.2      61.233
2014   11        7     0  30    6.82   524.3    6.2      61.282
2014   11        7     0  35    6.81   524.6    6.2      61.332
2014   11        7     0  41    6.80   524.8    6.1      61.380
2014   11        7     0  46    6.79   525.1    6.1      61.426
2014   11        7     0  52    6.78   525.4    6.1      61.470
2014   11        7     0  57    6.77   525.6    6.1      61.511
2014   11        7     1   3    6.76   525.9    6.1      61.551
2014   11        7     1   9    6.75   526.1    6.1      61.587
2014   11        7     1  14    6.74   526.4    6.1      61.620
2014   11        7     1  20    6.73   526.6    6.1      61.649
2014   11        7     1  25    6.73   526.9    6.1      61.674
2014   11        7     1  31    6.72   527.1    6.1      61.696
2014   11        7     1  36    6.71   527.4    6.0      61.714
2014   11        7     1  42    6.70   527.6    6.0      61.728
2014   11        7     1  47    6.69   527.8    6.0      61.737
2014   11        7     1  53    6.68   528.1    6.0      61.743
2014   11        7     1  59    6.67   528.3    6.0      61.744
2014   11        7     2   4    6.66   528.5    6.0      61.741
2014   11        7     2  10    6.65   528.8    6.0      61.734
2014   11        7     2  15    6.64   529.0    6.0      61.722
2014   11        7     2  21    6.63   529.2    6.0      61.707
2014   11        7     2  26    6.62   529.4    6.0      61.687
2014   11        7     2  32    6.61   529.6    5.9      61.663
2014   11        7     2  37    6.60   529.8    5.9      61.636
2014   11        7     2  43    6.59   530.0    5.9      61.605
2014   11        7     2  48    6.58   530.2    5.9      61.570
2014   11        7     2  54    6.57   530.4    5.9      61.532
2014   11        7     3   0    6.56   530.6    5.9      61.490
2014   11        7     3   5    6.55   530.8    5.9      61.445
2014   11        7     3  11    6.54   530.9    5.9      61.397
2014   11        7     3  16    6.53   531.1    5.9      61.346
2014   11        7     3  22    6.52   531.3    5.9      61.291
2014   11        7     3  27    6.51   531.4    5.9      61.234
2014   11        7     3  33    6.50   531.6    5.9      61.174
2014   11        7     3  38    6.49   531.7    5.8      61.111
2014   11        7     3  44    6.49   531.8    5.8      61.046
2014   11        7     3  49    6.48   532.0    5.8      60.978
2014   11        7     3  55    6.47   532.1    5.8      60.908
2014   11        7     4   0    6.46   532.2    5.8      60.837
2014   11        7     4   6    6.45   532.3    5.8      60.764
2014   11        7     4  11    6.44   532.5    5.8      60.690
2014   11        7     4  17    6.43   532.6    5.8      60.615
2014   11        7     4  22    6.42   532.7    5.8      60.540
2014   11        7     4  28    6.41   532.8    5.8      60.464
2014   11        7     4  33    6.40   532.9    5.8      60.388
2014   11        7     4  39    6.40   533.0    5.8      60.312
2014   11        7     4  44    6.39   533.1    5.8      60.237
2014   11        7     4  50    6.38   533.2    5.7      60.163
2014   11        7     4  56    6.37   533.3    5.7      60.089
2014   11        7     5   1    6.36   533.4    5.7      60.015
2014   11        7     5   7    6.35   533.5    5.7      59.943
2014   11        7     5  12    6.34   533.5    5.7      59.871
2014   11        7     5  18    6.34   533.6    5.7      59.801
2014   11        7     5  23    6.33   533.7    5.7      59.731
2014   11        7     5  29    6.32   533.8    5.7      59.662
2014   11        7     5  34    6.31   533.8    5.7      59.594
2014   11        7     5  40    6.30   533.9    5.7      59.528
2014   11        7     5  45    6.30   534.0    5.7      59.462
2014   11        7     5  51    6.29   534.0    5.7      59.398
2014   11        7     5  56    6.28   534.1    5.7      59.334
2014   11        7     6   2    6.27   534.1    5.7      59.272
2014   11        7     6   8    6.26   534.2    5.7      59.210
2014   11        7     6  13    6.26   534.2    5.7      59.149
2014   11        7     6  19    6.25   534.2    5.7      59.089
2014   11        7     6  24    6.24   534.3    5.7      59.031
2014   11        7     6  30    6.23   534.3    5.7      58.973
2014   11        7     6  35    6.23   534.3    5.7      58.916
2014   11        7     6  41    6.22   534.4    5.7      58.860
2014   11        7     6  46    6.21   534.4    5.6      58.805
2014   11        7     6  52    6.20   534.4    5.6      58.750
2014   11        7     6  57    6.20   534.5    5.6      58.696
2014   11        7     7   3    6.19   534.5    5.6      58.641
2014   11        7     7   9    6.18   534.5    5.6      58.586
2014   11        7     7  14    6.17   534.5    5.6      58.532
2014   11        7     7  20    6.17   534.6    5.6      58.478
2014   11        7     7  25    6.16   534.6    5.6      58.424
2014   11        7     7  31    6.15   534.6    5.6      58.370
2014   11        7     7  36    6.14   534.6    5.6      58.316
2014   11        7     7  42    6.14   534.7    5.6      58.262
2014   11        7     7  47    6.13   534.7    5.6      58.208
2014   11        7     7  53    6.12   534.7    5.6      58.155
2014   11        7     7  59    6.12   534.7    5.6      58.101
2014   11        7     8   4    6.11   534.7    5.6      58.049
2014   11        7     8  10    6.10   534.7    5.6      57.997
2014   11        7     8  15    6.10   534.8    5.6      57.946
2014   11        7     8  21    6.09   534.8    5.6      57.895
2014   11        7     8  26    6.08   534.8    5.6      57.846
2014   11        7     8  32    6.08   534.8    5.6      57.798
2014   11        7     8  37    6.07   534.8    5.6      57.751
2014   11        7     8  43    6.06   534.8    5.6      57.705
2014   11        7     8  48    6.06   534.8    5.6      57.660
2014   11        7     8  54    6.05   534.8    5.6      57.614
2014   11        7     9   0    6.04   534.8    5.6      57.569
2014   11        7     9   5    6.04   534.8    5.6      57.522
2014   11        7     9  11    6.03   534.8    5.6      57.474
2014   11        7     9  16    6.03   534.8    5.6      57.425
2014   11        7     9  22    6.02   534.8    5.6      57.374
2014   11        7     9  27    6.01   534.9    5.6      57.322
2014   11        7     9  33    6.01   534.9    5.6      57.269
2014   11        7     9  38    6.00   534.9    5.6      57.213
2014   11        7     9  44    6.00   534.9    5.6      57.156
2014   11        7     9  49    5.99   534.9    5.6      57.096
2014   11        7     9  55    5.99   534.9    5.6      57.035
2014   11        7    10   0    5.98   534.9    5.6      56.971
2014   11        7    10   6    5.98   534.9    5.6      56.906
2014   11        7    10  12    5.97   535.0    5.6      56.839
2014   11        7    10  17    5.97   535.0    5.6      56.771
2014   11        7    10  23    5.96   535.0    5.6      56.702
2014   11        7    10  28    5.96   535.0    5.6      56.633
2014   11        7    10  34    5.95   535.0    5.6      56.562
2014   11        7    10  39    5.95   535.1    5.6      56.491
2014   11        7    10  45    5.94   535.1    5.6      56.418
2014   11        7    10  50    5.94   535.1    5.6      56.346
2014   11        7    10  56    5.94   535.1    5.6      56.273
2014   11        7    11   1    5.93   535.1    5.6      56.200
2014   11        7    11   7    5.93   535.2    5.5      56.127
2014   11        7    11  12    5.92   535.2    5.5      56.054
2014   11        7    11  18    5.92   535.2    5.5      55.980
2014   11        7    11  23    5.91   535.2    5.5      55.907
2014   11        7    11  29    5.91   535.3    5.5      55.833
2014   11        7    11  34    5.91   535.3    5.5      55.759
2014   11        7    11  40    5.90   535.3    5.5      55.684
2014   11        7    11  45    5.90   535.3    5.5      55.608
2014   11        7    11  51    5.89   535.4    5.5      55.532
2014   11        7    11  56    5.89   535.4    5.5      55.455
2014   11        7    12   2    5.89   535.4    5.5      55.376
2014   11        7    12   7    5.88   535.4    5.5      55.296
2014   11        7    12  13    5.88   535.4    5.5      55.214
2014   11        7    12  18    5.87   535.4    5.4      55.132
2014   11        7    12  24    5.87   535.4    5.4      55.047
2014   11        7    12  29    5.87   535.4    5.4      54.961
2014   11        7    12  35    5.86   535.4    5.4      54.874
2014   11        7    12  40    5.86   535.4    5.4      54.785
2014   11        7    12  46    5.85   535.4    5.4      54.696
2014   11        7    12  52    5.85   535.4    5.4      54.606
2014   11        7    12  57    5.85   535.4    5.4      54.514
2014   11        7    13   3    5.84   535.4    5.4      54.423
2014   11        7    13   8    5.84   535.5    5.4      54.331
2014   11        7    13  14    5.84   535.5    5.4      54.240
2014   11        7    13  19    5.84   535.5    5.3      54.148
2014   11        7    13  25    5.83   535.5    5.3      54.056
2014   11        7    13  30    5.83   535.5    5.3      53.964
2014   11        7    13  36    5.83   535.5    5.3      53.872
2014   11        7    13  41    5.82   535.5    5.3      53.780
2014   11        7    13  47    5.82   535.6    5.3      53.689
2014   11        7    13  52    5.82   535.6    5.3      53.598
2014   11        7    13  58    5.81   535.6    5.3      53.508
2014   11        7    14   4    5.81   535.6    5.3      53.418
2014   11        7    14   9    5.81   535.7    5.3      53.330
2014   11        7    14  15    5.80   535.7    5.2      53.242
2014   11        7    14  20    5.80   535.7    5.2      53.155
2014   11        7    14  26    5.80   535.7    5.2      53.068
2014   11        7    14  31    5.79   535.7    5.2      52.983
2014   11        7    14  37    5.79   535.7    5.2      52.898
2014   11        7    14  42    5.79   535.7    5.2      52.814
2014   11        7    14  48    5.79   535.8    5.2      52.730
2014   11        7    14  54    5.78   535.8    5.2      52.648
2014   11        7    14  59    5.78   535.8    5.2      52.566
2014   11        7    15   5    5.78   535.8    5.1      52.485
2014   11        7    15  10    5.77   535.8    5.1      52.403
2014   11        7    15  16    5.77   535.8    5.1      52.323
2014   11        7    15  21    5.77   535.8    5.1      52.243
2014   11        7    15  27    5.77   535.8    5.1      52.164
2014   11        7    15  32    5.76   535.8    5.1      52.086
2014   11        7    15  38    5.76   535.9    5.1      52.008
2014   11        7    15  43    5.76   535.9    5.1      51.931
2014   11        7    15  49    5.75   535.9    5.1      51.855
2014   11        7    15  55    5.75   535.9    5.0      51.778
2014   11        7    16   0    5.75   535.9    5.0      51.703
2014   11        7    16   6    5.75   535.9    5.0      51.628
2014   11        7    16  11    5.74   535.9    5.0      51.554
2014   11        7    16  17    5.74   535.9    5.0      51.479
2014   11        7    16  22    5.74   535.9    5.0      51.406
2014   11        7    16  28    5.73   536.0    5.0      51.331
2014   11        7    16  33    5.73   536.0    5.0      51.259
2014   11        7    16  39    5.73   536.0    5.0      51.185
2014   11        7    16  44    5.73   536.0    5.0      51.112
2014   11        7    16  50    5.72   536.0    5.0      51.038
2014   11        7    16  55    5.72   536.0    4.9      50.965
2014   11        7    17   1    5.72   536.0    4.9      50.892
2014   11        7    17   6    5.71   536.0    4.9      50.820
2014   11        7    17  12    5.71   536.0    4.9      50.746
2014   11        7    17  17    5.71   536.0    4.9      50.675
2014   11        7    17  23    5.70   535.9    4.9      50.602
2014   11        7    17  28    5.70   535.9    4.9      50.531
2014   11        7    17  34    5.70   535.9    4.9      50.460
2014   11        7    17  40    5.70   535.9    4.9      50.390
2014   11        7    17  45    5.69   535.9    4.9      50.320
2014   11        7    17  51    5.69   535.9    4.9      50.252
2014   11        7    17  56    5.69   535.8    4.9      50.184
2014   11        7    18   2    5.68   535.8    4.8      50.119
2014   11        7    18   7    5.68   535.8    4.8      50.053
2014   11        7    18  13    5.68   535.8    4.8      49.990
2014   11        7    18  18    5.67   535.7    4.8      49.928
2014   11        7    18  24    5.67   535.7    4.8      49.867
2014   11        7    18  29    5.67   535.6    4.8      49.808
2014   11        7    18  35    5.66   535.6    4.8      49.751
2014   11        7    18  40    5.66   535.6    4.8      49.695
2014   11        7    18  46    5.66   535.5    4.8      49.641
2014   11        7    18  51    5.66   535.5    4.8      49.589
2014   11        7    18  57    5.65   535.4    4.8      49.538
2014   11        7    19   2    5.65   535.4    4.8      49.489
2014   11        7    19   8    5.65   535.4    4.8      49.442
2014   11        7    19  13    5.64   535.3    4.8      49.397
2014   11        7    19  19    5.64   535.3    4.8      49.353
2014   11        7    19  24    5.64   535.2    4.8      49.310
2014   11        7    19  30    5.64   535.1    4.8      49.268
2014   11        7    19  35    5.63   535.1    4.8      49.227
2014   11        7    19  41    5.63   535.0    4.8      49.188
2014   11        7    19  46    5.63   535.0    4.8      49.148
2014   11        7    19  52    5.63   534.9    4.8      49.110
2014   11        7    19  57    5.62   534.9    4.8      49.072
2014   11        7    20   3    5.62   534.8    4.7      49.034
2014   11        7    20   8    5.62   534.7    4.7      48.997
2014   11        7    20  14    5.62   534.7    4.7      48.959
2014   11        7    20  19    5.61   534.6    4.7      48.921
2014   11        7    20  25    5.61   534.6    4.7      48.884
2014   11        7    20  30    5.61   534.5    4.7      48.846
2014   11        7    20  36    5.61   534.4    4.7      48.808
2014   11        7    20  41    5.60   534.4    4.7      48.769
2014   11        7    20  47    5.60   534.3    4.7      48.730
2014   11        7    20  53    5.60   534.2    4.7      48.691
2014   11        7    20  58    5.60   534.2    4.7      48.653
2014   11        7    21   4    5.59   534.1    4.7      48.613
2014   11        7    21   9    5.59   534.0    4.7      48.575
2014   11        7    21  15    5.59   533.9    4.7      48.535
2014   11        7    21  20    5.59   533.9    4.7      48.496
2014   11        7    21  26    5.59   533.8    4.7      48.456
2014   11        7    21  31    5.58   533.7    4.7      48.417
2014   11        7    21  37    5.58   533.7    4.7      48.378
2014   11        7    21  42    5.58   533.6    4.7      48.339
2014   11        7    21  48    5.58   533.5    4.7      48.300
2014   11        7    21  54    5.58   533.4    4.7      48.261
2014   11        7    21  59    5.57   533.4    4.7      48.222
2014   11        7    22   5    5.57   533.3    4.7      48.183
2014   11        7    22  10    5.57   533.2    4.7      48.144
2014   11        7    22  16    5.57   533.1    4.7      48.106
2014   11        7    22  21    5.56   533.0    4.7      48.067
2014   11        7    22  27    5.56   533.0    4.7      48.029
2014   11        7    22  32    5.56   532.9    4.7      47.991
2014   11        7    22  38    5.56   532.8    4.7      47.953
2014   11        7    22  44    5.56   532.7    4.7      47.915
2014   11        7    22  49    5.55   532.6    4.7      47.878
2014   11        7    22  55    5.55   532.6    4.7      47.840
2014   11        7    23   0    5.55   532.5    4.7      47.803
2014   11        7    23   6    5.55   532.4    4.7      47.766
2014   11        7    23  11    5.55   532.3    4.7      47.730
2014   11        7    23  17    5.54   532.2    4.7      47.694
2014   11        7    23  22    5.54   532.1    4.7      47.658
2014   11        7    23  28    5.54   532.1    4.7      47.623
2014   11        7    23  33    5.54   532.0    4.7      47.588
2014   11        7    23  39    5.54   531.9    4.7      47.554
2014   11        7    23  44    5.53   531.8    4.7      47.521
2014   11        7    23  50    5.53   531.7    4.7      47.487
2014   11        7    23  55    5.53   531.6    4.7      47.455
2014   11        8     0   1    5.53   531.5    4.7      47.423
2014   11        8     0   6    5.53   531.5    4.7      47.392
2014   11        8     0  12    5.53   531.4    4.7      47.361
2014   11        8     0  17    5.52   531.3    4.7      47.331
2014   11        8     0  23    5.52   531.2    4.7      47.301
2014   11        8     0  28    5.52   531.1    4.7      47.272
2014   11        8     0  34    5.52   531.0    4.7      47.243
2014   11        8     0  39    5.52   530.9    4.7      47.215
2014   11        8     0  45    5.52   530.9    4.7      47.187
2014   11        8     0  50    5.51   530.8    4.7      47.160
2014   11        8     0  56    5.51   530.7    4.7      47.133
2014   11        8     1   1    5.51   530.6    4.7      47.107
2014   11        8     1   7    5.51   530.5    4.7      47.081
2014   11        8     1  12    5.51   530.4    4.7      47.056
2014   11        8     1  18    5.51   530.3    4.7      47.031
2014   11        8     1  23    5.51   530.3    4.7      47.007
2014   11        8     1  29    5.50   530.2    4.7      46.982
2014   11        8     1  34    5.50   530.1    4.7      46.959
2014   11        8     1  40    5.50   530.0    4.7      46.935
2014   11        8     1  45    5.50   529.9    4.7      46.913
2014   11        8     1  51    5.50   529.8    4.7      46.890
2014   11        8     1  56    5.50   529.7    4.7      46.868
2014   11        8     2   2    5.50   529.7    4.7      46.846
2014   11        8     2   7    5.49   529.6    4.7      46.825
2014   11        8     2  13    5.49   529.5    4.7      46.804
2014   11        8     2  18    5.49   529.4    4.7      46.783
2014   11        8     2  24    5.49   529.3    4.7      46.763
2014   11        8     2  29    5.49   529.2    4.7      46.743
2014   11        8     2  35    5.49   529.2    4.7      46.724
2014   11        8     2  40    5.49   529.1    4.7      46.705
2014   11        8     2  46    5.49   529.0    4.7      46.686
2014   11        8     2  51    5.49   528.9    4.7      46.668
2014   11        8     2  57    5.48   528.8    4.7      46.649
2014   11        8     3   2    5.48   528.7    4.7      46.631
2014   11        8     3   8    5.48   528.7    4.7      46.613
2014   11        8     3  13    5.48   528.6    4.7      46.596
2014   11        8     3  19    5.48   528.5    4.7      46.578
2014   11        8     3  24    5.48   528.4    4.7      46.561
2014   11        8     3  30    5.48   528.3    4.7      46.544
2014   11        8     3  35    5.48   528.3    4.7      46.527
2014   11        8     3  41    5.48   528.2    4.7      46.510
2014   11        8     3  47    5.48   528.1    4.7      46.493
2014   11        8     3  52    5.47   528.0    4.7      46.476
2014   11        8     3  58    5.47   527.9    4.7      46.459
2014   11        8     4   3    5.47   527.9    4.7      46.442
2014   11        8     4   9    5.47   527.8    4.7      46.425
2014   11        8     4  14    5.47   527.7    4.7      46.407
2014   11        8     4  20    5.47   527.6    4.7      46.390
2014   11        8     4  25    5.47   527.5    4.7      46.372
2014   11        8     4  31    5.47   527.5    4.7      46.355
2014   11        8     4  36    5.47   527.4    4.7      46.337
2014   11        8     4  42    5.47   527.3    4.7      46.319
2014   11        8     4  47    5.47   527.2    4.7      46.300
2014   11        8     4  53    5.47   527.1    4.7      46.282
2014   11        8     4  59    5.46   527.1    4.7      46.264
2014   11        8     5   4    5.46   527.0    4.7      46.245
2014   11        8     5  10    5.46   526.9    4.7      46.226
2014   11        8     5  15    5.46   526.8    4.7      46.207
2014   11        8     5  21    5.46   526.8    4.7      46.188
2014   11        8     5  26    5.46   526.7    4.7      46.169
2014   11        8     5  32    5.46   526.6    4.7      46.149
2014   11        8     5  37    5.46   526.5    4.7      46.130
2014   11        8     5  43    5.46   526.5    4.7      46.110
2014   11        8     5  48    5.46   526.4    4.7      46.090
2014   11        8     5  54    5.46   526.3    4.7      46.070
2014   11        8     6   0    5.46   526.2    4.7      46.050
2014   11        8     6   5    5.46   526.2    4.7      46.030
2014   11        8     6  11    5.46   526.1    4.7      46.010
2014   11        8     6  16    5.46   526.0    4.7      45.989
2014   11        8     6  22    5.45   525.9    4.7      45.969
2014   11        8     6  27    5.45   525.9    4.7      45.948
2014   11        8     6  33    5.45   525.8    4.7      45.928
2014   11        8     6  38    5.45   525.7    4.7      45.907
2014   11        8     6  44    5.45   525.6    4.7      45.887
2014   11        8     6  49    5.45   525.6    4.7      45.866
2014   11        8     6  55    5.45   525.5    4.7      45.846
2014   11        8     7   0    5.45   525.4    4.7      45.825
2014   11        8     7   6    5.45   525.4    4.7      45.805
2014   11        8     7  11    5.45   525.3    4.7      45.784
2014   11        8     7  17    5.45   525.2    4.7      45.764
2014   11        8     7  22    5.45   525.1    4.7      45.744
2014   11        8     7  28    5.45   525.1    4.7      45.724
2014   11        8     7  33    5.45   525.0    4.7      45.704
2014   11        8     7  39    5.45   524.9    4.7      45.684
2014   11        8     7  44    5.45   524.9    4.7      45.665
2014   11        8     7  50    5.44   524.8    4.7      45.645
2014   11        8     7  55    5.44   524.7    4.7      45.626
2014   11        8     8   1    5.44   524.7    4.7      45.607
2014   11        8     8   6    5.44   524.6    4.7      45.588
2014   11        8     8  12    5.44   524.5    4.7      45.569
2014   11        8     8  17    5.44   524.5    4.7      45.550
2014   11        8     8  23    5.44   524.4    4.7      45.532
2014   11        8     8  28    5.44   524.3    4.7      45.514
2014   11        8     8  34    5.44   524.3    4.7      45.495
2014   11        8     8  39    5.44   524.2    4.7      45.477
2014   11        8     8  44    5.44   524.1    4.7      45.459
2014   11        8     8  50    5.44   524.0    4.7      45.441
2014   11        8     8  55    5.44   524.0    4.7      45.424
2014   11        8     9   1    5.44   523.9    4.7      45.407
2014   11        8     9   6    5.44   523.8    4.7      45.390
2014   11        8     9  12    5.44   523.8    4.7      45.373
2014   11        8     9  17    5.44   523.7    4.7      45.356
2014   11        8     9  23    5.43   523.6    4.7      45.340
2014   11        8     9  28    5.43   523.6    4.7      45.324
2014   11        8     9  34    5.43   523.5    4.7      45.308
2014   11        8     9  39    5.43   523.4    4.7      45.293
2014   11        8     9  45    5.43   523.3    4.7      45.278
2014   11        8     9  50    5.43   523.3    4.7      45.264
2014   11        8     9  56    5.43   523.2    4.7      45.250
2014   11        8    10   1    5.43   523.1    4.7      45.237
2014   11        8    10   7    5.43   523.0    4.7      45.224
2014   11        8    10  12    5.43   523.0    4.7      45.212
2014   11        8    10  18    5.43   522.9    4.7      45.201
2014   11        8    10  23    5.43   522.8    4.7      45.190
2014   11        8    10  29    5.43   522.8    4.7      45.180
2014   11        8    10  34    5.43   522.7    4.7      45.170
2014   11        8    10  40    5.43   522.6    4.7      45.161
2014   11        8    10  45    5.43   522.6    4.7      45.152
2014   11        8    10  51    5.43   522.5    4.7      45.144
2014   11        8    10  56    5.43   522.4    4.7      45.136
2014   11        8    11   2    5.43   522.3    4.7      45.128
2014   11        8    11   8    5.43   522.3    4.7      45.121
2014   11        8    11  13    5.43   522.2    4.7      45.114
2014   11        8    11  19    5.43   522.1    4.7      45.107
2014   11        8    11  24    5.43   522.1    4.7      45.100
2014   11        8    11  30    5.43   522.0    4.7      45.093
2014   11        8    11  35    5.43   521.9    4.7      45.087
2014   11        8    11  41    5.43   521.9    4.7      45.081
2014   11        8    11  46    5.43   521.8    4.7      45.075
2014   11        8    11  52    5.43   521.7    4.7      45.069
2014   11        8    11  57    5.43   521.7    4.7      45.063
2014   11        8    12   3    5.43   521.6    4.7      45.057
2014   11        8    12   8    5.43   521.5    4.7      45.051
2014   11        8    12  14    5.43   521.5    4.7      45.046
2014   11        8    12  20    5.43   521.4    4.7      45.039
2014   11        8    12  25    5.43   521.3    4.7      45.033
2014   11        8    12  31    5.43   521.3    4.7      45.027
2014   11        8    12  36    5.43   521.2    4.7      45.021
2014   11        8    12  42    5.43   521.1    4.7      45.014
2014   11        8    12  47    5.43   521.1    4.7      45.008
2014   11        8    12  53    5.43   521.0    4.7      45.001
2014   11        8    12  58    5.43   520.9    4.7      44.993
2014   11        8    13   4    5.43   520.9    4.7      44.986
2014   11        8    13   9    5.43   520.8    4.7      44.978
2014   11        8    13  15    5.43   520.7    4.7      44.970
2014   11        8    13  21    5.43   520.7    4.7      44.962
2014   11        8    13  26    5.43   520.6    4.7      44.954
2014   11        8    13  32    5.43   520.6    4.7      44.945
2014   11        8    13  37    5.43   520.5    4.7      44.937
2014   11        8    13  43    5.43   520.4    4.7      44.928
2014   11        8    13  48    5.43   520.4    4.7      44.919
2014   11        8    13  54    5.43   520.3    4.7      44.910
2014   11        8    13  59    5.43   520.2    4.7      44.901
2014   11        8    14   5    5.43   520.2    4.7      44.893
2014   11        8    14  10    5.43   520.1    4.7      44.884
2014   11        8    14  16    5.43   520.0    4.7      44.875
2014   11        8    14  21    5.43   520.0    4.7      44.867
2014   11        8    14  27    5.43   519.9    4.7      44.858
2014   11        8    14  32    5.43   519.8    4.7      44.850
2014   11        8    14  38    5.43   519.8    4.7      44.842
2014   11        8    14  43    5.43   519.7    4.7      44.834
2014   11        8    14  49    5.43   519.6    4.7      44.827
2014   11        8    14  54    5.43   519.6    4.7      44.820
2014   11        8    15   0    5.43   519.5    4.7      44.813
2014   11        8    15   5    5.43   519.4    4.7      44.807
2014   11        8    15  10    5.43   519.4    4.7      44.801
2014   11        8    15  16    5.43   519.3    4.7      44.795
2014   11        8    15  21    5.43   519.3    4.7      44.790
2014   11        8    15  27    5.43   519.2    4.7      44.785
2014   11        8    15  32    5.43   519.1    4.7      44.781
2014   11        8    15  38    5.43   519.1    4.7      44.778
2014   11        8    15  43    5.43   519.0    4.7      44.775
2014   11        8    15  49    5.43   519.0    4.7      44.772
2014   11        8    15  54    5.44   518.9    4.7      44.769
2014   11        8    15  59    5.44   518.9    4.7      44.767
2014   11        8    16   5    5.44   518.8    4.7      44.767
2014   11        8    16  10    5.44   518.8    4.7      44.766
2014   11        8    16  16    5.44   518.7    4.8      44.767
2014   11        8    16  21    5.44   518.7    4.8      44.768
2014   11        8    16  27    5.44   518.6    4.8      44.769
2014   11        8    16  32    5.44   518.6    4.8      44.771
2014   11        8    16  38    5.44   518.5    4.8      44.774
2014   11        8    16  43    5.44   518.5    4.8      44.776
2014   11        8    16  49    5.44   518.4    4.8      44.779
2014   11        8    16  54    5.44   518.4    4.8      44.782
2014   11        8    17   0    5.44   518.3    4.8      44.785
2014   11        8    17   5    5.44   518.3    4.8      44.788
2014   11        8    17  11    5.44   518.3    4.8      44.791
2014   11        8    17  16    5.44   518.2    4.8      44.793
2014   11        8    17  22    5.44   518.2    4.8      44.795
2014   11        8    17  27    5.44   518.1    4.8      44.797
2014   11        8    17  33    5.44   518.1    4.8      44.800
2014   11        8    17  38    5.45   518.0    4.8      44.801
2014   11        8    17  44    5.45   518.0    4.8      44.803
2014   11        8    17  49    5.45   518.0    4.8      44.805
2014   11        8    17  55    5.45   517.9    4.8      44.807
2014   11        8    18   0    5.45   517.9    4.8      44.808
2014   11        8    18   6    5.45   517.9    4.8      44.809
2014   11        8    18  11    5.45   517.8    4.8      44.810
2014   11        8    18  17    5.45   517.8    4.8      44.811
2014   11        8    18  22    5.45   517.8    4.8      44.811
2014   11        8    18  28    5.45   517.7    4.8      44.812
2014   11        8    18  33    5.45   517.7    4.8      44.812
2014   11        8    18  39    5.45   517.7    4.8      44.811
2014   11        8    18  44    5.45   517.6    4.8      44.810
2014   11        8    18  50    5.45   517.6    4.8      44.809
2014   11        8    18  55    5.45   517.6    4.8      44.808
2014   11        8    19   1    5.45   517.5    4.8      44.806
2014   11        8    19   6    5.45   517.5    4.8      44.805
2014   11        8    19  12    5.45   517.5    4.8      44.803
2014   11        8    19  18    5.46   517.4    4.8      44.800
2014   11        8    19  23    5.46   517.4    4.8      44.798
2014   11        8    19  29    5.46   517.3    4.8      44.795
2014   11        8    19  34    5.46   517.3    4.8      44.792
2014   11        8    19  40    5.46   517.3    4.8      44.789
2014   11        8    19  45    5.46   517.2    4.8      44.786
2014   11        8    19  51    5.46   517.2    4.8      44.783
2014   11        8    19  56    5.46   517.2    4.8      44.780
2014   11        8    20   2    5.46   517.1    4.8      44.777
2014   11        8    20   7    5.46   517.1    4.8      44.774
2014   11        8    20  13    5.46   517.1    4.8      44.771
2014   11        8    20  19    5.46   517.0    4.8      44.768
2014   11        8    20  24    5.46   517.0    4.8      44.765
2014   11        8    20  30    5.46   517.0    4.8      44.762
2014   11        8    20  35    5.46   516.9    4.8      44.759
2014   11        8    20  41    5.47   516.9    4.8      44.756
2014   11        8    20  46    5.47   516.9    4.8      44.753
2014   11        8    20  52    5.47   516.8    4.8      44.751
2014   11        8    20  57    5.47   516.8    4.8      44.748
2014   11        8    21   3    5.47   516.8    4.8      44.746
2014   11        8    21   8    5.47   516.8    4.8      44.743
2014   11        8    21  14    5.47   516.7    4.8      44.741
2014   11        8    21  19    5.47   516.7    4.8      44.739
2014   11        8    21  25    5.47   516.7    4.8      44.737
2014   11        8    21  30    5.47   516.6    4.8      44.736
2014   11        8    21  36    5.47   516.6    4.8      44.735
2014   11        8    21  41    5.48   516.6    4.8      44.733
2014   11        8    21  47    5.48   516.5    4.8      44.733
2014   11        8    21  52    5.48   516.5    4.8      44.732
2014   11        8    21  58    5.48   516.5    4.8      44.732
2014   11        8    22   3    5.48   516.4    4.8      44.732
2014   11        8    22   9    5.48   516.4    4.8      44.733
2014   11        8    22  14    5.48   516.4    4.8      44.734
2014   11        8    22  20    5.48   516.3    4.8      44.735
2014   11        8    22  25    5.48   516.3    4.8      44.737
2014   11        8    22  31    5.49   516.3    4.8      44.739
2014   11        8    22  36    5.49   516.3    4.9      44.742
2014   11        8    22  42    5.49   516.2    4.9      44.746
2014   11        8    22  47    5.49   516.2    4.9      44.750
2014   11        8    22  53    5.49   516.2    4.9      44.755
2014   11        8    22  58    5.49   516.2    4.9      44.760
2014   11        8    23   4    5.49   516.1    4.9      44.766
2014   11        8    23   9    5.49   516.1    4.9      44.773
2014   11        8    23  14    5.50   516.1    4.9      44.780
2014   11        8    23  20    5.50   516.1    4.9      44.788
2014   11        8    23  25    5.50   516.0    4.9      44.796
2014   11        8    23  31    5.50   516.0    4.9      44.806
2014   11        8    23  36    5.50   516.0    4.9      44.816
2014   11        8    23  42    5.50   516.0    4.9      44.827
2014   11        8    23  47    5.50   516.0    4.9      44.838
2014   11        8    23  53    5.50   516.0    4.9      44.849
2014   11        8    23  58    5.51   516.0    4.9      44.861
2014   11        9     0   4    5.51   516.0    4.9      44.873
2014   11        9     0   9    5.51   515.9    4.9      44.884
2014   11        9     0  15    5.51   515.9    4.9      44.895
2014   11        9     0  20    5.51   515.9    4.9      44.906
2014   11        9     0  26    5.51   515.9    4.9      44.917
2014   11        9     0  31    5.51   515.9    4.9      44.928
2014   11        9     0  37    5.52   515.9    4.9      44.939
2014   11        9     0  42    5.52   515.9    4.9      44.948
2014   11        9     0  48    5.52   515.9    4.9      44.958
2014   11        9     0  53    5.52   515.9    4.9      44.966
2014   11        9     0  59    5.52   515.9    4.9      44.974
2014   11        9     1   4    5.52   515.8    4.9      44.982
2014   11        9     1  10    5.52   515.8    4.9      44.990
2014   11        9     1  15    5.53   515.8    4.9      44.997
2014   11        9     1  21    5.53   515.8    4.9      45.004
2014   11        9     1  26    5.53   515.8    4.9      45.010
2014   11        9     1  32    5.53   515.8    4.9      45.017
2014   11        9     1  37    5.53   515.8    4.9      45.023
2014   11        9     1  43    5.53   515.8    4.9      45.029
2014   11        9     1  48    5.53   515.8    4.9      45.035
2014   11        9     1  54    5.54   515.8    4.9      45.041
2014   11        9     1  59    5.54   515.8    4.9      45.047
2014   11        9     2   5    5.54   515.8    4.9      45.052
2014   11        9     2  10    5.54   515.8    4.9      45.057
2014   11        9     2  16    5.54   515.8    4.9      45.063
2014   11        9     2  21    5.54   515.8    4.9      45.068
2014   11        9     2  27    5.55   515.7    4.9      45.073
2014   11        9     2  32    5.55   515.7    4.9      45.078
2014   11        9     2  38    5.55   515.7    4.9      45.083
2014   11        9     2  44    5.55   515.7    4.9      45.087
2014   11        9     2  49    5.55   515.7    4.9      45.092
2014   11        9     2  55    5.55   515.7    4.9      45.096
2014   11        9     3   0    5.55   515.7    5.0      45.101
2014   11        9     3   6    5.56   515.7    5.0      45.105
2014   11        9     3  11    5.56   515.7    5.0      45.109
2014   11        9     3  17    5.56   515.7    5.0      45.114
2014   11        9     3  22    5.56   515.7    5.0      45.118
2014   11        9     3  28    5.56   515.7    5.0      45.123
2014   11        9     3  34    5.57   515.7    5.0      45.128
2014   11        9     3  39    5.57   515.7    5.0      45.133
2014   11        9     3  45    5.57   515.7    5.0      45.138
2014   11        9     3  50    5.57   515.7    5.0      45.144
2014   11        9     3  56    5.57   515.7    5.0      45.149
2014   11        9     4   1    5.57   515.7    5.0      45.156
2014   11        9     4   7    5.58   515.7    5.0      45.163
2014   11        9     4  12    5.58   515.7    5.0      45.171
2014   11        9     4  18    5.58   515.8    5.0      45.179
2014   11        9     4  23    5.58   515.8    5.0      45.188
2014   11        9     4  29    5.58   515.8    5.0      45.198
2014   11        9     4  34    5.59   515.8    5.0      45.208
2014   11        9     4  40    5.59   515.8    5.0      45.219
2014   11        9     4  45    5.59   515.8    5.0      45.230
2014   11        9     4  51    5.59   515.8    5.0      45.242
2014   11        9     4  56    5.59   515.8    5.0      45.254
2014   11        9     5   2    5.59   515.8    5.0      45.267
2014   11        9     5   7    5.60   515.9    5.0      45.280
2014   11        9     5  13    5.60   515.9    5.0      45.292
2014   11        9     5  18    5.60   515.9    5.0      45.305
2014   11        9     5  24    5.60   515.9    5.0      45.318
2014   11        9     5  29    5.60   515.9    5.0      45.331
2014   11        9     5  35    5.61   515.9    5.0      45.344
2014   11        9     5  40    5.61   515.9    5.0      45.357
2014   11        9     5  46    5.61   516.0    5.0      45.370
2014   11        9     5  51    5.61   516.0    5.0      45.383
2014   11        9     5  57    5.61   516.0    5.0      45.396
2014   11        9     6   2    5.61   516.0    5.0      45.409
2014   11        9     6   8    5.62   516.0    5.0      45.422
2014   11        9     6  13    5.62   516.1    5.0      45.435
2014   11        9     6  19    5.62   516.1    5.0      45.449
2014   11        9     6  24    5.62   516.1    5.0      45.462
2014   11        9     6  29    5.62   516.1    5.0      45.475
2014   11        9     6  35    5.63   516.1    5.0      45.488
2014   11        9     6  40    5.63   516.2    5.0      45.501
2014   11        9     6  46    5.63   516.2    5.0      45.514
2014   11        9     6  51    5.63   516.2    5.0      45.527
2014   11        9     6  57    5.63   516.2    5.0      45.540
2014   11        9     7   2    5.64   516.3    5.0      45.553
2014   11        9     7   8    5.64   516.3    5.0      45.565
2014   11        9     7  13    5.64   516.3    5.0      45.578
2014   11        9     7  19    5.64   516.3    5.0      45.590
2014   11        9     7  24    5.64   516.4    5.0      45.602
2014   11        9     7  30    5.65   516.4    5.0      45.614
2014   11        9     7  35    5.65   516.4    5.0      45.626
2014   11        9     7  41    5.65   516.4    5.0      45.638
2014   11        9     7  46    5.65   516.4    5.0      45.649
2014   11        9     7  52    5.65   516.5    5.0      45.661
2014   11        9     7  57    5.66   516.5    5.0      45.672
2014   11        9     8   3    5.66   516.5    5.0      45.684
2014   11        9     8   8    5.66   516.5    5.0      45.696
2014   11        9     8  14    5.66   516.6    5.0      45.707
2014   11        9     8  19    5.66   516.6    5.0      45.719
2014   11        9     8  25    5.67   516.6    5.0      45.731
2014   11        9     8  30    5.67   516.7    5.0      45.743
2014   11        9     8  36    5.67   516.7    5.0      45.755
2014   11        9     8  41    5.67   516.7    5.0      45.767
2014   11        9     8  47    5.67   516.7    5.1      45.780
2014   11        9     8  52    5.68   516.8    5.1      45.792
2014   11        9     8  58    5.68   516.8    5.1      45.805
2014   11        9     9   3    5.68   516.8    5.1      45.819
2014   11        9     9   9    5.68   516.9    5.1      45.832
2014   11        9     9  14    5.68   516.9    5.1      45.846
2014   11        9     9  20    5.69   516.9    5.1      45.861
2014   11        9     9  25    5.69   516.9    5.1      45.875
2014   11        9     9  31    5.69   517.0    5.1      45.890
2014   11        9     9  36    5.69   517.0    5.1      45.906
2014   11        9     9  42    5.70   517.0    5.1      45.922
2014   11        9     9  47    5.70   517.1    5.1      45.938
2014   11        9     9  53    5.70   517.1    5.1      45.956
2014   11        9     9  59    5.70   517.2    5.1      45.974
2014   11        9    10   4    5.70   517.2    5.1      45.992
2014   11        9    10  10    5.71   517.2    5.1      46.011
2014   11        9    10  15    5.71   517.3    5.1      46.031
2014   11        9    10  21    5.71   517.3    5.1      46.050
2014   11        9    10  26    5.71   517.4    5.1      46.071
2014   11        9    10  32    5.72   517.4    5.1      46.091
2014   11        9    10  37    5.72   517.5    5.1      46.112
2014   11        9    10  43    5.72   517.5    5.1      46.134
2014   11        9    10  48    5.72   517.6    5.1      46.156
2014   11        9    10  54    5.73   517.6    5.1      46.179
2014   11        9    11   0    5.73   517.7    5.1      46.203
2014   11        9    11   5    5.73   517.7    5.1      46.227
2014   11        9    11  11    5.73   517.8    5.1      46.252
2014   11        9    11  16    5.73   517.9    5.1      46.277
2014   11        9    11  22    5.74   517.9    5.1      46.302
2014   11        9    11  27    5.74   518.0    5.1      46.327
2014   11        9    11  33    5.74   518.0    5.1      46.353
2014   11        9    11  38    5.74   518.1    5.1      46.379
2014   11        9    11  44    5.75   518.2    5.1      46.404
2014   11        9    11  49    5.75   518.2    5.1      46.430
2014   11        9    11  55    5.75   518.3    5.1      46.455
2014   11        9    12   0    5.75   518.3    5.1      46.481
2014   11        9    12   6    5.75   518.4    5.1      46.505
2014   11        9    12  11    5.76   518.5    5.1      46.530
2014   11        9    12  17    5.76   518.5    5.1      46.554
2014   11        9    12  22    5.76   518.6    5.1      46.578
2014   11        9    12  28    5.76   518.6    5.1      46.601
2014   11        9    12  33    5.77   518.7    5.1      46.625
2014   11        9    12  39    5.77   518.8    5.1      46.648
2014   11        9    12  44    5.77   518.8    5.1      46.670
2014   11        9    12  50    5.77   518.9    5.1      46.693
2014   11        9    12  55    5.77   518.9    5.1      46.715
2014   11        9    13   1    5.78   519.0    5.1      46.738
2014   11        9    13   6    5.78   519.1    5.1      46.760
2014   11        9    13  12    5.78   519.1    5.1      46.783
2014   11        9    13  17    5.78   519.2    5.1      46.805
2014   11        9    13  23    5.79   519.3    5.2      46.828
2014   11        9    13  28    5.79   519.3    5.2      46.850
2014   11        9    13  33    5.79   519.4    5.2      46.873
2014   11        9    13  39    5.79   519.4    5.2      46.895
2014   11        9    13  44    5.79   519.5    5.2      46.918
2014   11        9    13  50    5.80   519.6    5.2      46.941
2014   11        9    13  55    5.80   519.6    5.2      46.964
2014   11        9    14   1    5.80   519.7    5.2      46.986
2014   11        9    14   6    5.80   519.8    5.2      47.009
2014   11        9    14  12    5.81   519.8    5.2      47.032
2014   11        9    14  17    5.81   519.9    5.2      47.055
2014   11        9    14  23    5.81   520.0    5.2      47.078
2014   11        9    14  28    5.81   520.0    5.2      47.101
2014   11        9    14  34    5.82   520.1    5.2      47.124
2014   11        9    14  39    5.82   520.2    5.2      47.147
2014   11        9    14  45    5.82   520.2    5.2      47.169
2014   11        9    14  50    5.82   520.3    5.2      47.192
2014   11        9    14  56    5.82   520.4    5.2      47.215
2014   11        9    15   1    5.83   520.4    5.2      47.239
2014   11        9    15   6    5.83   520.5    5.2      47.262
2014   11        9    15  12    5.83   520.6    5.2      47.285
2014   11        9    15  18    5.83   520.7    5.2      47.309
2014   11        9    15  23    5.84   520.7    5.2      47.333
2014   11        9    15  28    5.84   520.8    5.2      47.356
2014   11        9    15  34    5.84   520.9    5.2      47.380
2014   11        9    15  40    5.84   521.0    5.2      47.404
2014   11        9    15  45    5.85   521.1    5.2      47.428
2014   11        9    15  51    5.85   521.1    5.2      47.453
2014   11        9    15  56    5.85   521.2    5.2      47.477
2014   11        9    16   2    5.85   521.3    5.2      47.502
2014   11        9    16   7    5.85   521.4    5.2      47.526
2014   11        9    16  13    5.86   521.5    5.2      47.550
2014   11        9    16  18    5.86   521.5    5.2      47.575
2014   11        9    16  24    5.86   521.6    5.2      47.599
2014   11        9    16  29    5.86   521.7    5.2      47.624
2014   11        9    16  35    5.87   521.8    5.2      47.648
2014   11        9    16  40    5.87   521.9    5.2      47.673
2014   11        9    16  46    5.87   521.9    5.2      47.697
2014   11        9    16  51    5.87   522.0    5.2      47.721
2014   11        9    16  57    5.87   522.1    5.2      47.745
2014   11        9    17   2    5.88   522.2    5.2      47.769
2014   11        9    17   8    5.88   522.3    5.2      47.793
2014   11        9    17  13    5.88   522.4    5.2      47.817
2014   11        9    17  19    5.88   522.4    5.2      47.840
2014   11        9    17  25    5.88   522.5    5.2      47.864
2014   11        9    17  30    5.89   522.6    5.2      47.887
2014   11        9    17  36    5.89   522.7    5.2      47.911
2014   11        9    17  41    5.89   522.8    5.2      47.935
2014   11        9    17  47    5.89   522.8    5.2      47.959
2014   11        9    17  52    5.90   522.9    5.2      47.983
2014   11        9    17  58    5.90   523.0    5.2      48.008
2014   11        9    18   3    5.90   523.1    5.2      48.033
2014   11        9    18   9    5.90   523.2    5.2      48.058
2014   11        9    18  15    5.90   523.3    5.2      48.083
2014   11        9    18  20    5.91   523.4    5.2      48.108
2014   11        9    18  26    5.91   523.5    5.2      48.134
2014   11        9    18  31    5.91   523.5    5.2      48.160
2014   11        9    18  37    5.91   523.6    5.2      48.186
2014   11        9    18  42    5.91   523.7    5.2      48.212
2014   11        9    18  48    5.91   523.8    5.2      48.239
2014   11        9    18  53    5.92   523.9    5.2      48.265
2014   11        9    18  59    5.92   524.0    5.2      48.292
2014   11        9    19   4    5.92   524.1    5.2      48.319
2014   11        9    19  10    5.92   524.1    5.2      48.346
2014   11        9    19  15    5.92   524.2    5.2      48.373
2014   11        9    19  21    5.93   524.3    5.2      48.401
2014   11        9    19  26    5.93   524.4    5.2      48.430
2014   11        9    19  32    5.93   524.5    5.2      48.459
2014   11        9    19  37    5.93   524.6    5.2      48.488
2014   11        9    19  43    5.93   524.7    5.2      48.518
2014   11        9    19  48    5.94   524.7    5.2      48.549
2014   11        9    19  54    5.94   524.8    5.2      48.581
2014   11        9    19  59    5.94   524.9    5.2      48.614
2014   11        9    20   5    5.94   525.0    5.2      48.647
2014   11        9    20  10    5.94   525.1    5.2      48.681
2014   11        9    20  16    5.95   525.2    5.2      48.716
2014   11        9    20  21    5.95   525.3    5.2      48.751
2014   11        9    20  27    5.95   525.4    5.2      48.787
2014   11        9    20  32    5.95   525.5    5.2      48.822
2014   11        9    20  38    5.95   525.6    5.2      48.859
2014   11        9    20  43    5.96   525.7    5.2      48.895
2014   11        9    20  48    5.96   525.8    5.2      48.932
2014   11        9    20  54    5.96   525.9    5.2      48.968
2014   11        9    20  59    5.96   526.0    5.2      49.004
2014   11        9    21   5    5.96   526.1    5.2      49.041
2014   11        9    21  10    5.97   526.2    5.2      49.077
2014   11        9    21  16    5.97   526.3    5.2      49.114
2014   11        9    21  21    5.97   526.4    5.2      49.150
2014   11        9    21  27    5.97   526.5    5.2      49.187
2014   11        9    21  32    5.98   526.6    5.2      49.223
2014   11        9    21  38    5.98   526.7    5.2      49.259
2014   11        9    21  43    5.98   526.8    5.2      49.295
2014   11        9    21  49    5.98   526.9    5.2      49.330
2014   11        9    21  54    5.98   527.0    5.2      49.365
2014   11        9    21  59    5.99   527.1    5.2      49.400
2014   11        9    22   5    5.99   527.2    5.2      49.434
2014   11        9    22  10    5.99   527.3    5.2      49.469
2014   11        9    22  16    5.99   527.4    5.2      49.502
2014   11        9    22  21    5.99   527.5    5.2      49.535
2014   11        9    22  27    6.00   527.6    5.2      49.568
2014   11        9    22  32    6.00   527.7    5.2      49.600
2014   11        9    22  38    6.00   527.8    5.2      49.632
2014   11        9    22  43    6.00   527.9    5.2      49.663
2014   11        9    22  49    6.00   528.0    5.2      49.694
2014   11        9    22  54    6.01   528.1    5.2      49.725
2014   11        9    23   0    6.01   528.2    5.2      49.755
2014   11        9    23   5    6.01   528.4    5.2      49.785
2014   11        9    23  11    6.01   528.5    5.2      49.814
2014   11        9    23  16    6.01   528.6    5.2      49.843
2014   11        9    23  22    6.01   528.7    5.2      49.872
2014   11        9    23  28    6.02   528.8    5.2      49.900
2014   11        9    23  33    6.02   528.9    5.2      49.928
2014   11        9    23  39    6.02   529.0    5.2      49.956
2014   11        9    23  44    6.02   529.2    5.2      49.984
2014   11        9    23  50    6.02   529.3    5.2      50.011
2014   11        9    23  55    6.02   529.4    5.2      50.038
2014   11       10     0   1    6.03   529.5    5.2      50.065
2014   11       10     0   6    6.03   529.6    5.2      50.092
2014   11       10     0  12    6.03   529.7    5.2      50.118
2014   11       10     0  17    6.03   529.8    5.2      50.145
2014   11       10     0  23    6.03   530.0    5.2      50.171
2014   11       10     0  28    6.03   530.1    5.2      50.196
2014   11       10     0  34    6.03   530.2    5.2      50.222
2014   11       10     0  39    6.04   530.3    5.2      50.247
2014   11       10     0  45    6.04   530.4    5.2      50.272
2014   11       10     0  51    6.04   530.5    5.2      50.297
2014   11       10     0  56    6.04   530.6    5.2      50.321
2014   11       10     1   2    6.04   530.7    5.2      50.345
2014   11       10     1   7    6.04   530.9    5.2      50.368
2014   11       10     1  13    6.04   531.0    5.2      50.392
2014   11       10     1  18    6.05   531.1    5.2      50.415
2014   11       10     1  24    6.05   531.2    5.2      50.438
2014   11       10     1  29    6.05   531.3    5.2      50.460
2014   11       10     1  35    6.05   531.4    5.2      50.482
2014   11       10     1  40    6.05   531.5    5.2      50.504
2014   11       10     1  46    6.05   531.6    5.2      50.526
2014   11       10     1  52    6.05   531.7    5.2      50.548
2014   11       10     1  57    6.05   531.8    5.2      50.570
2014   11       10     2   3    6.06   531.9    5.2      50.592
2014   11       10     2   8    6.06   532.0    5.2      50.614
2014   11       10     2  14    6.06   532.1    5.2      50.636
2014   11       10     2  19    6.06   532.2    5.2      50.658
2014   11       10     2  25    6.06   532.3    5.2      50.681
2014   11       10     2  30    6.06   532.4    5.2      50.703
2014   11       10     2  36    6.06   532.5    5.2      50.726
2014   11       10     2  41    6.06   532.6    5.2      50.749
2014   11       10     2  47    6.07   532.7    5.2      50.773
2014   11       10     2  52    6.07   532.8    5.2      50.797
2014   11       10     2  58    6.07   532.9    5.2      50.821
2014   11       10     3   3    6.07   533.0    5.2      50.846
2014   11       10     3   9    6.07   533.1    5.2      50.872
2014   11       10     3  14    6.07   533.2    5.2      50.899
2014   11       10     3  20    6.07   533.3    5.2      50.926
2014   11       10     3  25    6.07   533.4    5.2      50.954
2014   11       10     3  31    6.08   533.5    5.2      50.982
2014   11       10     3  36    6.08   533.6    5.2      51.011
2014   11       10     3  42    6.08   533.7    5.2      51.041
2014   11       10     3  47    6.08   533.8    5.2      51.072
2014   11       10     3  52    6.08   533.9    5.2      51.103
2014   11       10     3  58    6.08   534.0    5.2      51.135
2014   11       10     4   3    6.08   534.1    5.2      51.167
2014   11       10     4   9    6.09   534.2    5.2      51.200
2014   11       10     4  14    6.09   534.3    5.2      51.233
2014   11       10     4  20    6.09   534.4    5.2      51.267
2014   11       10     4  25    6.09   534.6    5.2      51.302
2014   11       10     4  31    6.09   534.7    5.2      51.336
2014   11       10     4  36    6.09   534.8    5.2      51.371
2014   11       10     4  42    6.09   534.9    5.2      51.406
2014   11       10     4  47    6.10   535.0    5.2      51.441
2014   11       10     4  53    6.10   535.1    5.2      51.477
2014   11       10     4  58    6.10   535.2    5.2      51.512
2014   11       10     5   3    6.10   535.3    5.2      51.547
2014   11       10     5   9    6.10   535.4    5.2      51.583
2014   11       10     5  14    6.10   535.6    5.2      51.618
2014   11       10     5  20    6.10   535.7    5.2      51.653
2014   11       10     5  25    6.10   535.8    5.2      51.687
2014   11       10     5  31    6.11   535.9    5.2      51.720
2014   11       10     5  36    6.11   536.0    5.2      51.754
2014   11       10     5  42    6.11   536.1    5.2      51.786
2014   11       10     5  47    6.11   536.3    5.2      51.819
2014   11       10     5  53    6.11   536.4    5.2      51.851
2014   11       10     5  58    6.11   536.5    5.2      51.883
2014   11       10     6   4    6.11   536.6    5.2      51.914
2014   11       10     6   9    6.11   536.7    5.2      51.945
2014   11       10     6  15    6.11   536.9    5.2      51.975
2014   11       10     6  20    6.12   537.0    5.2      52.005
2014   11       10     6  26    6.12   537.1    5.2      52.035
2014   11       10     6  31    6.12   537.2    5.2      52.064
2014   11       10     6  37    6.12   537.4    5.2      52.092
2014   11       10     6  42    6.12   537.5    5.2      52.120
2014   11       10     6  48    6.12   537.6    5.2      52.147
2014   11       10     6  53    6.12   537.7    5.2      52.174
2014   11       10     6  59    6.12   537.9    5.2      52.200
2014   11       10     7   5    6.12   538.0    5.2      52.225
2014   11       10     7  10    6.12   538.1    5.2      52.249
2014   11       10     7  16    6.12   538.3    5.2      52.273
2014   11       10     7  21    6.12   538.4    5.2      52.297
2014   11       10     7  27    6.12   538.5    5.2      52.320
2014   11       10     7  32    6.13   538.6    5.2      52.342
2014   11       10     7  38    6.13   538.8    5.2      52.364
2014   11       10     7  43    6.13   538.9    5.2      52.386
2014   11       10     7  49    6.13   539.0    5.2      52.407
2014   11       10     7  54    6.13   539.1    5.2      52.427
2014   11       10     8   0    6.13   539.3    5.2      52.448
2014   11       10     8   5    6.13   539.4    5.2      52.468
2014   11       10     8  11    6.13   539.5    5.2      52.487
2014   11       10     8  17    6.13   539.6    5.2      52.507
2014   11       10     8  22    6.13   539.8    5.2      52.526
2014   11       10     8  28    6.13   539.9    5.2      52.545
2014   11       10     8  33    6.13   540.0    5.2      52.563
2014   11       10     8  39    6.13   540.1    5.2      52.582
2014   11       10     8  44    6.13   540.3    5.2      52.600
2014   11       10     8  50    6.13   540.4    5.2      52.619
2014   11       10     8  55    6.13   540.5    5.2      52.637
2014   11       10     9   1    6.13   540.6    5.2      52.655
2014   11       10     9   6    6.13   540.8    5.2      52.673
2014   11       10     9  12    6.13   540.9    5.2      52.690
2014   11       10     9  18    6.13   541.0    5.2      52.708
2014   11       10     9  23    6.13   541.1    5.1      52.725
2014   11       10     9  29    6.13   541.3    5.1      52.741
2014   11       10     9  34    6.13   541.4    5.1      52.758
2014   11       10     9  40    6.13   541.5    5.1      52.774
2014   11       10     9  45    6.13   541.6    5.1      52.790
2014   11       10     9  51    6.13   541.7    5.1      52.806
2014   11       10     9  56    6.13   541.9    5.1      52.822
2014   11       10    10   2    6.13   542.0    5.1      52.837
2014   11       10    10   7    6.13   542.1    5.1      52.851
2014   11       10    10  13    6.13   542.2    5.1      52.866
2014   11       10    10  18    6.13   542.3    5.1      52.880
2014   11       10    10  24    6.13   542.5    5.1      52.894
2014   11       10    10  29    6.13   542.6    5.1      52.907
2014   11       10    10  35    6.13   542.7    5.1      52.920
2014   11       10    10  40    6.13   542.8    5.1      52.934
2014   11       10    10  46    6.13   542.9    5.1      52.947
2014   11       10    10  51    6.13   543.0    5.1      52.959
2014   11       10    10  56    6.13   543.1    5.1      52.972
2014   11       10    11   2    6.13   543.3    5.1      52.984
2014   11       10    11   7    6.13   543.4    5.1      52.997
2014   11       10    11  13    6.13   543.5    5.1      53.009
2014   11       10    11  18    6.13   543.6    5.1      53.021
2014   11       10    11  24    6.13   543.7    5.1      53.034
2014   11       10    11  29    6.13   543.8    5.1      53.046
2014   11       10    11  35    6.13   543.9    5.1      53.059
2014   11       10    11  40    6.13   544.0    5.1      53.072
2014   11       10    11  46    6.13   544.1    5.1      53.085
2014   11       10    11  51    6.13   544.2    5.1      53.099
2014   11       10    11  56    6.13   544.4    5.1      53.114
2014   11       10    12   2    6.13   544.5    5.1      53.129
2014   11       10    12   7    6.13   544.6    5.1      53.145
2014   11       10    12  13    6.13   544.7    5.1      53.161
2014   11       10    12  18    6.13   544.8    5.1      53.177
2014   11       10    12  24    6.13   544.9    5.1      53.194
2014   11       10    12  29    6.13   545.0    5.1      53.211
2014   11       10    12  35    6.13   545.2    5.1      53.227
2014   11       10    12  40    6.13   545.3    5.1      53.245
2014   11       10    12  46    6.12   545.4    5.1      53.261
2014   11       10    12  51    6.12   545.5    5.1      53.278
2014   11       10    12  57    6.12   545.6    5.1      53.294
2014   11       10    13   2    6.12   545.8    5.0      53.309
2014   11       10    13   8    6.12   545.9    5.0      53.325
2014   11       10    13  13    6.12   546.0    5.0      53.339
2014   11       10    13  19    6.12   546.1    5.0      53.353
2014   11       10    13  24    6.12   546.2    5.0      53.366
2014   11       10    13  30    6.12   546.3    5.0      53.378
2014   11       10    13  35    6.12   546.5    5.0      53.391
2014   11       10    13  41    6.12   546.6    5.0      53.402
2014   11       10    13  46    6.12   546.7    5.0      53.413
2014   11       10    13  52    6.11   546.8    5.0      53.423
2014   11       10    13  57    6.11   546.9    5.0      53.434
2014   11       10    14   3    6.11   547.0    5.0      53.443
2014   11       10    14   8    6.11   547.2    5.0      53.452
2014   11       10    14  14    6.11   547.3    5.0      53.461
2014   11       10    14  19    6.11   547.4    5.0      53.469
2014   11       10    14  25    6.11   547.5    5.0      53.477
2014   11       10    14  30    6.11   547.6    5.0      53.485
2014   11       10    14  36    6.10   547.7    5.0      53.492
2014   11       10    14  42    6.10   547.8    5.0      53.499
2014   11       10    14  47    6.10   547.9    5.0      53.506
2014   11       10    14  53    6.10   548.1    5.0      53.512
2014   11       10    14  58    6.10   548.2    5.0      53.518
2014   11       10    15   4    6.10   548.3    5.0      53.524
2014   11       10    15   9    6.10   548.4    5.0      53.529
2014   11       10    15  15    6.09   548.5    5.0      53.535
2014   11       10    15  20    6.09   548.6    5.0      53.540
2014   11       10    15  26    6.09   548.7    5.0      53.544
2014   11       10    15  32    6.09   548.8    5.0      53.549
2014   11       10    15  37    6.09   548.9    5.0      53.553
2014   11       10    15  43    6.09   549.0    4.9      53.557
2014   11       10    15  48    6.08   549.1    4.9      53.562
2014   11       10    15  54    6.08   549.2    4.9      53.566
2014   11       10    15  59    6.08   549.3    4.9      53.570
2014   11       10    16   5    6.08   549.4    4.9      53.573
2014   11       10    16  10    6.08   549.5    4.9      53.577
2014   11       10    16  16    6.08   549.7    4.9      53.580
2014   11       10    16  21    6.07   549.8    4.9      53.584
2014   11       10    16  27    6.07   549.9    4.9      53.587
2014   11       10    16  32    6.07   550.0    4.9      53.590
2014   11       10    16  38    6.07   550.1    4.9      53.593
2014   11       10    16  43    6.07   550.2    4.9      53.596
2014   11       10    16  49    6.06   550.3    4.9      53.598
2014   11       10    16  54    6.06   550.4    4.9      53.600
2014   11       10    17   0    6.06   550.5    4.9      53.602
2014   11       10    17   6    6.06   550.5    4.9      53.604
2014   11       10    17  11    6.06   550.6    4.9      53.606
2014   11       10    17  17    6.06   550.7    4.9      53.608
2014   11       10    17  22    6.05   550.8    4.9      53.609
2014   11       10    17  28    6.05   550.9    4.9      53.611
2014   11       10    17  33    6.05   551.0    4.9      53.612
2014   11       10    17  38    6.05   551.1    4.9      53.613
2014   11       10    17  44    6.05   551.2    4.9      53.613
2014   11       10    17  49    6.04   551.3    4.9      53.614
2014   11       10    17  55    6.04   551.4    4.9      53.614
2014   11       10    18   0    6.04   551.5    4.9      53.614
2014   11       10    18   6    6.04   551.6    4.9      53.614
2014   11       10    18  11    6.04   551.7    4.9      53.613
2014   11       10    18  17    6.03   551.8    4.9      53.612
2014   11       10    18  22    6.03   551.8    4.9      53.610
2014   11       10    18  28    6.03   551.9    4.9      53.608
2014   11       10    18  33    6.03   552.0    4.8      53.606
2014   11       10    18  39    6.02   552.1    4.8      53.603
2014   11       10    18  44    6.02   552.2    4.8      53.599
2014   11       10    18  50    6.02   552.3    4.8      53.596
2014   11       10    18  55    6.02   552.4    4.8      53.591
2014   11       10    19   0    6.01   552.4    4.8      53.587
2014   11       10    19   6    6.01   552.5    4.8      53.581
2014   11       10    19  11    6.01   552.6    4.8      53.576
2014   11       10    19  17    6.01   552.7    4.8      53.570
2014   11       10    19  22    6.01   552.8    4.8      53.563
2014   11       10    19  28    6.00   552.9    4.8      53.556
2014   11       10    19  33    6.00   552.9    4.8      53.549
2014   11       10    19  39    6.00   553.0    4.8      53.541
2014   11       10    19  44    6.00   553.1    4.8      53.533
2014   11       10    19  50    5.99   553.2    4.8      53.525
2014   11       10    19  55    5.99   553.3    4.8      53.516
2014   11       10    20   1    5.99   553.3    4.8      53.507
2014   11       10    20   6    5.98   553.4    4.8      53.497
2014   11       10    20  12    5.98   553.5    4.8      53.488
2014   11       10    20  17    5.98   553.6    4.8      53.477
2014   11       10    20  23    5.98   553.6    4.8      53.467
2014   11       10    20  28    5.97   553.7    4.8      53.456
2014   11       10    20  34    5.97   553.8    4.8      53.445
2014   11       10    20  39    5.97   553.9    4.7      53.434
2014   11       10    20  45    5.96   553.9    4.7      53.422
2014   11       10    20  50    5.96   554.0    4.7      53.410
2014   11       10    20  56    5.96   554.1    4.7      53.398
2014   11       10    21   1    5.96   554.1    4.7      53.386
2014   11       10    21   7    5.95   554.2    4.7      53.374
2014   11       10    21  12    5.95   554.3    4.7      53.361
2014   11       10    21  18    5.95   554.3    4.7      53.349
2014   11       10    21  23    5.94   554.4    4.7      53.337
2014   11       10    21  29    5.94   554.5    4.7      53.324
2014   11       10    21  34    5.94   554.5    4.7      53.312
2014   11       10    21  40    5.93   554.6    4.7      53.300
2014   11       10    21  45    5.93   554.6    4.7      53.288
2014   11       10    21  51    5.93   554.7    4.7      53.276
2014   11       10    21  56    5.92   554.7    4.7      53.264
2014   11       10    22   2    5.92   554.8    4.7      53.252
2014   11       10    22   8    5.92   554.8    4.7      53.241
2014   11       10    22  13    5.91   554.9    4.7      53.230
2014   11       10    22  19    5.91   555.0    4.7      53.220
2014   11       10    22  24    5.91   555.0    4.7      53.210
2014   11       10    22  30    5.90   555.1    4.7      53.200
2014   11       10    22  35    5.90   555.1    4.7      53.190
2014   11       10    22  41    5.90   555.1    4.7      53.180
2014   11       10    22  46    5.89   555.2    4.7      53.171
2014   11       10    22  52    5.89   555.2    4.7      53.162
2014   11       10    22  57    5.89   555.3    4.7      53.152
2014   11       10    23   3    5.88   555.3    4.6      53.143
2014   11       10    23   9    5.88   555.4    4.6      53.133
2014   11       10    23  14    5.87   555.4    4.6      53.123
2014   11       10    23  20    5.87   555.4    4.6      53.113
2014   11       10    23  25    5.87   555.5    4.6      53.103
2014   11       10    23  31    5.86   555.5    4.6      53.092
2014   11       10    23  36    5.86   555.6    4.6      53.081
2014   11       10    23  42    5.86   555.6    4.6      53.069
2014   11       10    23  47    5.85   555.6    4.6      53.057
2014   11       10    23  53    5.85   555.7    4.6      53.045
2014   11       10    23  58    5.85   555.7    4.6      53.032
2014   11       11     0   4    5.84   555.7    4.6      53.019
2014   11       11     0   9    5.84   555.8    4.6      53.006
2014   11       11     0  15    5.84   555.8    4.6      52.992
2014   11       11     0  20    5.83   555.8    4.6      52.978
2014   11       11     0  26    5.83   555.9    4.6      52.965
2014   11       11     0  31    5.83   555.9    4.6      52.951
2014   11       11     0  37    5.82   555.9    4.6      52.937
2014   11       11     0  42    5.82   556.0    4.6      52.922
2014   11       11     0  48    5.82   556.0    4.6      52.908
2014   11       11     0  53    5.81   556.0    4.6      52.893
2014   11       11     0  59    5.81   556.0    4.6      52.878
2014   11       11     1   4    5.81   556.1    4.6      52.862
2014   11       11     1  10    5.80   556.1    4.6      52.846
2014   11       11     1  15    5.80   556.1    4.6      52.830
2014   11       11     1  21    5.80   556.2    4.6      52.813
2014   11       11     1  26    5.79   556.2    4.6      52.795
2014   11       11     1  32    5.79   556.2    4.6      52.778
2014   11       11     1  37    5.79   556.2    4.6      52.759
2014   11       11     1  43    5.78   556.3    4.5      52.740
2014   11       11     1  48    5.78   556.3    4.5      52.721
2014   11       11     1  54    5.78   556.3    4.5      52.701
2014   11       11     1  59    5.77   556.3    4.5      52.680
2014   11       11     2   4    5.77   556.3    4.5      52.659
2014   11       11     2  10    5.77   556.4    4.5      52.638
2014   11       11     2  15    5.76   556.4    4.5      52.616
2014   11       11     2  21    5.76   556.4    4.5      52.593
2014   11       11     2  26    5.76   556.4    4.5      52.570
2014   11       11     2  32    5.75   556.4    4.5      52.547
2014   11       11     2  37    5.75   556.4    4.5      52.523
2014   11       11     2  43    5.74   556.5    4.5      52.499
2014   11       11     2  48    5.74   556.5    4.5      52.475
2014   11       11     2  54    5.74   556.5    4.5      52.450
2014   11       11     2  59    5.73   556.5    4.5      52.425
2014   11       11     3   5    5.73   556.5    4.5      52.399
2014   11       11     3  10    5.73   556.5    4.5      52.374
2014   11       11     3  16    5.72   556.5    4.5      52.348
2014   11       11     3  21    5.72   556.6    4.5      52.322
2014   11       11     3  27    5.71   556.6    4.5      52.295
2014   11       11     3  32    5.71   556.6    4.5      52.269
2014   11       11     3  38    5.71   556.6    4.5      52.242
2014   11       11     3  43    5.70   556.6    4.5      52.216
2014   11       11     3  49    5.70   556.6    4.5      52.189
2014   11       11     3  54    5.70   556.6    4.4      52.162
2014   11       11     4   0    5.69   556.6    4.4      52.135
2014   11       11     4   5    5.69   556.6    4.4      52.108
2014   11       11     4  11    5.68   556.6    4.4      52.080
2014   11       11     4  16    5.68   556.6    4.4      52.053
2014   11       11     4  22    5.68   556.6    4.4      52.026
2014   11       11     4  27    5.67   556.6    4.4      51.999
2014   11       11     4  33    5.67   556.6    4.4      51.972
2014   11       11     4  38    5.66   556.6    4.4      51.946
2014   11       11     4  44    5.66   556.6    4.4      51.919
2014   11       11     4  49    5.66   556.6    4.4      51.892
2014   11       11     4  55    5.65   556.6    4.4      51.866
2014   11       11     5   0    5.65   556.5    4.4      51.840
2014   11       11     5   6    5.64   556.5    4.4      51.814
2014   11       11     5  11    5.64   556.5    4.4      51.789
2014   11       11     5  17    5.63   556.5    4.4      51.764
2014   11       11     5  22    5.63   556.5    4.4      51.739
2014   11       11     5  28    5.63   556.5    4.4      51.714
2014   11       11     5  33    5.62   556.4    4.4      51.690
2014   11       11     5  39    5.62   556.4    4.4      51.666
2014   11       11     5  45    5.61   556.4    4.4      51.643
2014   11       11     5  50    5.61   556.4    4.4      51.620
2014   11       11     5  56    5.61   556.3    4.4      51.598
2014   11       11     6   1    5.60   556.3    4.4      51.576
2014   11       11     6   7    5.60   556.3    4.4      51.554
2014   11       11     6  12    5.59   556.3    4.4      51.532
2014   11       11     6  18    5.59   556.2    4.4      51.510
2014   11       11     6  23    5.59   556.2    4.4      51.488
2014   11       11     6  29    5.58   556.1    4.4      51.466
2014   11       11     6  35    5.58   556.1    4.4      51.444
2014   11       11     6  40    5.57   556.1    4.4      51.421
2014   11       11     6  46    5.57   556.0    4.4      51.398
2014   11       11     6  51    5.57   556.0    4.4      51.375
2014   11       11     6  57    5.56   555.9    4.3      51.350
2014   11       11     7   2    5.56   555.9    4.3      51.326
2014   11       11     7   8    5.55   555.9    4.3      51.300
2014   11       11     7  13    5.55   555.8    4.3      51.274
2014   11       11     7  19    5.55   555.8    4.3      51.247
2014   11       11     7  24    5.54   555.7    4.3      51.220
2014   11       11     7  30    5.54   555.7    4.3      51.192
2014   11       11     7  35    5.54   555.6    4.3      51.164
2014   11       11     7  41    5.53   555.6    4.3      51.134
2014   11       11     7  46    5.53   555.5    4.3      51.105
2014   11       11     7  52    5.52   555.5    4.3      51.074
2014   11       11     7  57    5.52   555.4    4.3      51.044
2014   11       11     8   3    5.52   555.4    4.3      51.012
2014   11       11     8   8    5.51   555.3    4.3      50.980
2014   11       11     8  14    5.51   555.3    4.3      50.947
2014   11       11     8  19    5.51   555.2    4.3      50.914
2014   11       11     8  25    5.50   555.2    4.3      50.881
2014   11       11     8  30    5.50   555.1    4.3      50.847
2014   11       11     8  36    5.50   555.1    4.3      50.813
2014   11       11     8  41    5.49   555.0    4.3      50.778
2014   11       11     8  47    5.49   554.9    4.3      50.743
2014   11       11     8  52    5.49   554.9    4.3      50.708
2014   11       11     8  58    5.48   554.8    4.3      50.672
2014   11       11     9   3    5.48   554.8    4.3      50.636
2014   11       11     9   8    5.48   554.7    4.3      50.600
2014   11       11     9  14    5.47   554.7    4.3      50.564
2014   11       11     9  19    5.47   554.6    4.3      50.527
2014   11       11     9  25    5.47   554.5    4.3      50.490
2014   11       11     9  30    5.46   554.5    4.3      50.453
2014   11       11     9  36    5.46   554.4    4.2      50.416
2014   11       11     9  41    5.46   554.3    4.2      50.379
2014   11       11     9  47    5.45   554.3    4.2      50.342
2014   11       11     9  52    5.45   554.2    4.2      50.304
2014   11       11     9  58    5.45   554.2    4.2      50.267
2014   11       11    10   3    5.44   554.1    4.2      50.229
2014   11       11    10   9    5.44   554.0    4.2      50.192
2014   11       11    10  14    5.43   554.0    4.2      50.154
2014   11       11    10  19    5.43   553.9    4.2      50.117
2014   11       11    10  25    5.43   553.8    4.2      50.079
2014   11       11    10  30    5.42   553.8    4.2      50.042
2014   11       11    10  36    5.42   553.7    4.2      50.004
2014   11       11    10  41    5.42   553.6    4.2      49.968
2014   11       11    10  47    5.41   553.6    4.2      49.930
2014   11       11    10  52    5.41   553.5    4.2      49.894
2014   11       11    10  58    5.41   553.4    4.2      49.857
2014   11       11    11   3    5.40   553.4    4.2      49.820
2014   11       11    11   9    5.40   553.3    4.2      49.784
2014   11       11    11  14    5.39   553.2    4.2      49.748
2014   11       11    11  20    5.39   553.2    4.2      49.712
2014   11       11    11  25    5.39   553.1    4.2      49.676
2014   11       11    11  31    5.38   553.0    4.2      49.640
2014   11       11    11  36    5.38   552.9    4.2      49.605
2014   11       11    11  42    5.37   552.9    4.2      49.570
2014   11       11    11  47    5.37   552.8    4.2      49.535
2014   11       11    11  53    5.37   552.7    4.2      49.500
2014   11       11    11  59    5.36   552.7    4.2      49.466
2014   11       11    12   4    5.36   552.6    4.2      49.431
2014   11       11    12  10    5.36   552.5    4.2      49.397
2014   11       11    12  15    5.35   552.4    4.2      49.363
2014   11       11    12  21    5.35   552.3    4.2      49.330
2014   11       11    12  26    5.34   552.3    4.2      49.296
2014   11       11    12  32    5.34   552.2    4.1      49.263
2014   11       11    12  37    5.34   552.1    4.1      49.229
2014   11       11    12  43    5.33   552.0    4.1      49.196
2014   11       11    12  48    5.33   551.9    4.1      49.163
2014   11       11    12  54    5.32   551.8    4.1      49.130
2014   11       11    12  59    5.32   551.8    4.1      49.098
2014   11       11    13   5    5.32   551.7    4.1      49.065
2014   11       11    13  11    5.31   551.6    4.1      49.032
2014   11       11    13  16    5.31   551.5    4.1      49.000
2014   11       11    13  22    5.30   551.4    4.1      48.968
2014   11       11    13  27    5.30   551.3    4.1      48.936
2014   11       11    13  33    5.30   551.2    4.1      48.903
2014   11       11    13  38    5.29   551.1    4.1      48.871
2014   11       11    13  44    5.29   551.0    4.1      48.839
2014   11       11    13  49    5.29   550.9    4.1      48.807
2014   11       11    13  55    5.28   550.8    4.1      48.775
2014   11       11    14   0    5.28   550.7    4.1      48.743
2014   11       11    14   6    5.27   550.6    4.1      48.711
2014   11       11    14  12    5.27   550.5    4.1      48.680
2014   11       11    14  17    5.27   550.4    4.1      48.648
2014   11       11    14  23    5.26   550.2    4.1      48.617
2014   11       11    14  28    5.26   550.1    4.1      48.584
2014   11       11    14  34    5.26   550.0    4.1      48.553
2014   11       11    14  39    5.25   549.9    4.1      48.520
2014   11       11    14  45    5.25   549.8    4.1      48.488
2014   11       11    14  50    5.25   549.7    4.1      48.455
2014   11       11    14  56    5.24   549.6    4.1      48.422
2014   11       11    15   1    5.24   549.5    4.1      48.389
2014   11       11    15   7    5.24   549.3    4.1      48.355
2014   11       11    15  12    5.23   549.2    4.1      48.321
2014   11       11    15  18    5.23   549.1    4.1      48.286
2014   11       11    15  23    5.23   549.0    4.1      48.251
2014   11       11    15  29    5.22   548.9    4.1      48.215
2014   11       11    15  34    5.22   548.8    4.1      48.179
2014   11       11    15  40    5.22   548.6    4.1      48.143
2014   11       11    15  45    5.21   548.5    4.1      48.106
2014   11       11    15  51    5.21   548.4    4.1      48.069
2014   11       11    15  56    5.21   548.3    4.1      48.031
2014   11       11    16   1    5.20   548.2    4.1      47.993
2014   11       11    16   7    5.20   548.0    4.1      47.955
2014   11       11    16  12    5.20   547.9    4.1      47.916
2014   11       11    16  18    5.19   547.8    4.1      47.877
2014   11       11    16  23    5.19   547.7    4.1      47.838
2014   11       11    16  29    5.19   547.5    4.1      47.799
2014   11       11    16  34    5.18   547.4    4.1      47.760
2014   11       11    16  40    5.18   547.3    4.1      47.720
2014   11       11    16  45    5.18   547.2    4.1      47.681
2014   11       11    16  51    5.17   547.0    4.1      47.641
2014   11       11    16  56    5.17   546.9    4.1      47.601
2014   11       11    17   2    5.17   546.8    4.1      47.560
2014   11       11    17   7    5.16   546.7    4.1      47.520
2014   11       11    17  12    5.16   546.5    4.0      47.479
2014   11       11    17  18    5.16   546.4    4.0      47.439
2014   11       11    17  23    5.15   546.3    4.0      47.398
2014   11       11    17  29    5.15   546.1    4.0      47.358
2014   11       11    17  34    5.15   546.0    4.0      47.317
2014   11       11    17  40    5.15   545.9    4.0      47.277
2014   11       11    17  45    5.14   545.7    4.0      47.237
2014   11       11    17  51    5.14   545.6    4.0      47.197
2014   11       11    17  56    5.14   545.5    4.0      47.156
2014   11       11    18   2    5.13   545.4    4.0      47.116
2014   11       11    18   7    5.13   545.2    4.0      47.076
2014   11       11    18  13    5.13   545.1    4.0      47.036
2014   11       11    18  18    5.12   545.0    4.0      46.996
2014   11       11    18  24    5.12   544.8    4.0      46.957
2014   11       11    18  29    5.12   544.7    4.0      46.917
2014   11       11    18  35    5.11   544.6    4.0      46.877
2014   11       11    18  40    5.11   544.4    4.0      46.837
2014   11       11    18  46    5.11   544.3    4.0      46.798
2014   11       11    18  51    5.10   544.1    4.0      46.759
2014   11       11    18  57    5.10   544.0    4.0      46.719
2014   11       11    19   2    5.10   543.9    4.0      46.680
2014   11       11    19   8    5.09   543.7    4.0      46.641
2014   11       11    19  13    5.09   543.6    4.0      46.602
2014   11       11    19  19    5.09   543.5    4.0      46.563
2014   11       11    19  24    5.08   543.3    4.0      46.524
2014   11       11    19  30    5.08   543.2    4.0      46.485
2014   11       11    19  36    5.08   543.0    4.0      46.446
2014   11       11    19  41    5.07   542.9    4.0      46.408
2014   11       11    19  47    5.07   542.8    4.0      46.369
2014   11       11    19  52    5.07   542.6    4.0      46.331
2014   11       11    19  58    5.07   542.5    4.0      46.292
2014   11       11    20   3    5.06   542.3    4.0      46.254
2014   11       11    20   9    5.06   542.2    4.0      46.216
2014   11       11    20  14    5.06   542.0    4.0      46.178
2014   11       11    20  20    5.05   541.9    4.0      46.140
2014   11       11    20  25    5.05   541.8    4.0      46.102
2014   11       11    20  31    5.05   541.6    4.0      46.065
2014   11       11    20  37    5.04   541.5    4.0      46.027
2014   11       11    20  42    5.04   541.3    4.0      45.990
2014   11       11    20  48    5.04   541.2    4.0      45.953
2014   11       11    20  53    5.03   541.0    4.0      45.916
2014   11       11    20  59    5.03   540.9    4.0      45.880
2014   11       11    21   4    5.03   540.7    4.0      45.843
2014   11       11    21  10    5.02   540.6    4.0      45.807
2014   11       11    21  15    5.02   540.4    4.0      45.771
2014   11       11    21  21    5.02   540.3    4.0      45.736
2014   11       11    21  26    5.02   540.1    4.0      45.700
2014   11       11    21  32    5.01   540.0    4.0      45.665
2014   11       11    21  37    5.01   539.8    4.0      45.630
2014   11       11    21  43    5.01   539.6    4.0      45.595
2014   11       11    21  49    5.00   539.5    4.0      45.560
2014   11       11    21  54    5.00   539.3    4.0      45.525
2014   11       11    22   0    5.00   539.2    4.0      45.490
2014   11       11    22   5    4.99   539.0    4.0      45.456
2014   11       11    22  11    4.99   538.9    4.0      45.421
2014   11       11    22  16    4.99   538.7    4.0      45.386
2014   11       11    22  22    4.99   538.6    4.0      45.350
2014   11       11    22  27    4.98   538.4    4.0      45.315
2014   11       11    22  33    4.98   538.3    4.0      45.279
2014   11       11    22  38    4.98   538.1    4.0      45.243
2014   11       11    22  44    4.97   537.9    4.0      45.207
2014   11       11    22  49    4.97   537.8    3.9      45.170
2014   11       11    22  54    4.97   537.6    3.9      45.133
2014   11       11    23   0    4.96   537.5    3.9      45.096
2014   11       11    23   5    4.96   537.3    3.9      45.058
2014   11       11    23  11    4.96   537.1    3.9      45.020
2014   11       11    23  16    4.96   537.0    3.9      44.982
2014   11       11    23  22    4.95   536.8    3.9      44.943
2014   11       11    23  27    4.95   536.7    3.9      44.904
2014   11       11    23  33    4.95   536.5    3.9      44.865
2014   11       11    23  38    4.94   536.3    3.9      44.825
2014   11       11    23  44    4.94   536.2    3.9      44.786
2014   11       11    23  49    4.94   536.0    3.9      44.746
2014   11       11    23  55    4.94   535.8    3.9      44.706
2014   11       12     0   0    4.93   535.6    3.9      44.666
2014   11       12     0   5    4.93   535.5    3.9      44.626
2014   11       12     0  11    4.93   535.3    3.9      44.585
2014   11       12     0  16    4.92   535.1    3.9      44.545
2014   11       12     0  22    4.92   535.0    3.9      44.505
2014   11       12     0  27    4.92   534.8    3.9      44.465
2014   11       12     0  33    4.92   534.6    3.9      44.424
2014   11       12     0  38    4.91   534.4    3.9      44.384
2014   11       12     0  44    4.91   534.3    3.9      44.344
2014   11       12     0  49    4.91   534.1    3.9      44.304
2014   11       12     0  55    4.91   533.9    3.9      44.264
2014   11       12     1   0    4.90   533.8    3.9      44.225
2014   11       12     1   6    4.90   533.6    3.9      44.185
2014   11       12     1  11    4.90   533.4    3.9      44.146
2014   11       12     1  17    4.89   533.2    3.9      44.107
2014   11       12     1  22    4.89   533.1    3.9      44.069
2014   11       12     1  28    4.89   532.9    3.9      44.030
2014   11       12     1  33    4.89   532.7    3.9      43.992
2014   11       12     1  39    4.88   532.5    3.9      43.954
2014   11       12     1  44    4.88   532.4    3.9      43.917
2014   11       12     1  50    4.88   532.2    3.9      43.879
2014   11       12     1  55    4.88   532.0    3.9      43.842
2014   11       12     2   1    4.87   531.8    3.9      43.805
2014   11       12     2   6    4.87   531.7    3.9      43.769
2014   11       12     2  12    4.87   531.5    3.9      43.733
2014   11       12     2  17    4.87   531.3    3.9      43.698
2014   11       12     2  23    4.86   531.1    3.9      43.662
2014   11       12     2  28    4.86   530.9    3.9      43.627
2014   11       12     2  34    4.86   530.8    3.9      43.592
2014   11       12     2  39    4.86   530.6    3.9      43.558
2014   11       12     2  45    4.85   530.4    3.9      43.523
2014   11       12     2  50    4.85   530.2    3.9      43.489
2014   11       12     2  56    4.85   530.1    3.9      43.454
2014   11       12     3   1    4.85   529.9    3.9      43.420
2014   11       12     3   7    4.84   529.7    3.9      43.386
2014   11       12     3  13    4.84   529.5    3.9      43.352
2014   11       12     3  18    4.84   529.3    3.9      43.317
2014   11       12     3  24    4.84   529.2    3.9      43.283
2014   11       12     3  29    4.83   529.0    3.9      43.248
2014   11       12     3  35    4.83   528.8    3.9      43.214
2014   11       12     3  40    4.83   528.6    3.9      43.179
2014   11       12     3  46    4.83   528.5    3.9      43.144
2014   11       12     3  51    4.82   528.3    3.9      43.109
2014   11       12     3  57    4.82   528.1    3.9      43.074
2014   11       12     4   2    4.82   527.9    3.9      43.038
2014   11       12     4   8    4.82   527.8    3.9      43.002
2014   11       12     4  14    4.81   527.6    3.9      42.966
2014   11       12     4  19    4.81   527.4    3.9      42.930
2014   11       12     4  25    4.81   527.2    3.9      42.893
2014   11       12     4  30    4.81   527.1    3.9      42.857
2014   11       12     4  36    4.80   526.9    3.9      42.819
2014   11       12     4  41    4.80   526.7    3.9      42.782
2014   11       12     4  47    4.80   526.5    3.9      42.745
2014   11       12     4  52    4.80   526.3    3.9      42.707
2014   11       12     4  58    4.79   526.2    3.9      42.669
2014   11       12     5   3    4.79   526.0    3.9      42.631
2014   11       12     5   9    4.79   525.8    3.9      42.592
2014   11       12     5  14    4.79   525.6    3.9      42.554
2014   11       12     5  20    4.78   525.4    3.9      42.515
2014   11       12     5  25    4.78   525.3    3.9      42.476
2014   11       12     5  31    4.78   525.1    3.9      42.436
2014   11       12     5  36    4.78   524.9    3.9      42.397
2014   11       12     5  42    4.77   524.7    3.9      42.357
2014   11       12     5  47    4.77   524.5    3.9      42.318
2014   11       12     5  53    4.77   524.3    3.9      42.277
2014   11       12     5  58    4.77   524.2    3.9      42.237
2014   11       12     6   4    4.76   524.0    3.9      42.196
2014   11       12     6   9    4.76   523.8    3.9      42.156
2014   11       12     6  15    4.76   523.6    3.9      42.114
2014   11       12     6  20    4.76   523.4    3.9      42.073
2014   11       12     6  26    4.75   523.2    3.9      42.031
2014   11       12     6  31    4.75   523.0    3.9      41.989
2014   11       12     6  37    4.75   522.9    3.9      41.947
2014   11       12     6  42    4.75   522.7    3.9      41.905
2014   11       12     6  48    4.74   522.5    3.9      41.862
2014   11       12     6  53    4.74   522.3    3.9      41.819
2014   11       12     6  59    4.74   522.1    3.9      41.776
2014   11       12     7   4    4.74   521.9    3.9      41.733
2014   11       12     7   9    4.73   521.7    3.9      41.689
2014   11       12     7  15    4.73   521.5    3.9      41.646
2014   11       12     7  20    4.73   521.3    3.9      41.602
2014   11       12     7  26    4.73   521.1    3.9      41.558
2014   11       12     7  31    4.72   520.9    3.9      41.513
2014   11       12     7  37    4.72   520.7    3.9      41.469
2014   11       12     7  42    4.72   520.5    3.9      41.424
2014   11       12     7  48    4.72   520.3    3.9      41.380
2014   11       12     7  53    4.71   520.1    3.9      41.335
2014   11       12     7  59    4.71   519.9    3.9      41.290
2014   11       12     8   4    4.71   519.7    3.9      41.245
2014   11       12     8  10    4.71   519.5    3.9      41.201
2014   11       12     8  15    4.71   519.3    3.9      41.157
2014   11       12     8  21    4.70   519.1    3.9      41.112
2014   11       12     8  26    4.70   518.9    3.9      41.068
2014   11       12     8  31    4.70   518.7    3.9      41.024
2014   11       12     8  37    4.70   518.5    3.9      40.980
2014   11       12     8  42    4.69   518.3    3.9      40.937
2014   11       12     8  48    4.69   518.1    3.9      40.894
2014   11       12     8  53    4.69   517.9    3.9      40.851
2014   11       12     8  59    4.69   517.7    3.9      40.808
2014   11       12     9   4    4.69   517.5    3.9      40.766
2014   11       12     9  10    4.68   517.3    3.9      40.724
2014   11       12     9  15    4.68   517.1    3.9      40.682
2014   11       12     9  21    4.68   516.9    3.9      40.641
2014   11       12     9  27    4.68   516.8    3.9      40.600
2014   11       12     9  32    4.68   516.6    3.9      40.559
2014   11       12     9  38    4.67   516.4    3.9      40.519
2014   11       12     9  43    4.67   516.2    3.9      40.480
2014   11       12     9  49    4.67   516.0    3.9      40.441
2014   11       12     9  54    4.67   515.8    3.9      40.402
2014   11       12    10   0    4.66   515.6    3.9      40.364
2014   11       12    10   5    4.66   515.4    3.9      40.327
2014   11       12    10  11    4.66   515.2    3.9      40.290
2014   11       12    10  16    4.66   515.0    3.9      40.253
2014   11       12    10  22    4.66   514.8    3.9      40.217
2014   11       12    10  27    4.65   514.6    3.9      40.180
2014   11       12    10  33    4.65   514.4    3.9      40.144
2014   11       12    10  38    4.65   514.2    3.9      40.108
2014   11       12    10  44    4.65   514.0    3.9      40.073
2014   11       12    10  50    4.64   513.8    3.9      40.037
2014   11       12    10  55    4.64   513.6    3.9      40.002
2014   11       12    11   1    4.64   513.4    3.9      39.966
2014   11       12    11   6    4.64   513.1    3.9      39.931
2014   11       12    11  12    4.64   512.9    3.9      39.894
2014   11       12    11  17    4.63   512.7    3.9      39.858
2014   11       12    11  23    4.63   512.5    3.9      39.822
2014   11       12    11  28    4.63   512.3    3.9      39.785
2014   11       12    11  34    4.63   512.1    3.9      39.748
2014   11       12    11  39    4.62   511.9    3.9      39.712
2014   11       12    11  45    4.62   511.7    3.9      39.674
2014   11       12    11  51    4.62   511.5    3.9      39.637
2014   11       12    11  56    4.62   511.3    3.9      39.599
2014   11       12    12   2    4.62   511.1    3.9      39.562
2014   11       12    12   7    4.61   510.9    3.9      39.523
2014   11       12    12  13    4.61   510.7    3.9      39.486
2014   11       12    12  18    4.61   510.5    3.9      39.447
2014   11       12    12  24    4.61   510.2    3.9      39.409
2014   11       12    12  29    4.60   510.0    3.9      39.371
2014   11       12    12  35    4.60   509.8    3.9      39.333
2014   11       12    12  40    4.60   509.6    3.9      39.294
2014   11       12    12  46    4.60   509.4    3.9      39.256
2014   11       12    12  51    4.60   509.2    3.9      39.218
2014   11       12    12  57    4.59   509.0    3.9      39.179
2014   11       12    13   2    4.59   508.7    3.9      39.141
2014   11       12    13   8    4.59   508.5    3.9      39.103
2014   11       12    13  13    4.59   508.3    3.9      39.064
2014   11       12    13  19    4.59   508.1    3.9      39.026
2014   11       12    13  24    4.58   507.9    3.9      38.989
2014   11       12    13  30    4.58   507.7    3.9      38.952
2014   11       12    13  35    4.58   507.4    3.9      38.915
2014   11       12    13  41    4.58   507.2    3.9      38.878
2014   11       12    13  46    4.58   507.0    3.9      38.842
2014   11       12    13  52    4.57   506.8    3.9      38.807
2014   11       12    13  57    4.57   506.6    3.9      38.772
2014   11       12    14   2    4.57   506.4    3.9      38.737
2014   11       12    14   8    4.57   506.2    3.9      38.703
2014   11       12    14  13    4.57   505.9    3.9      38.669
2014   11       12    14  19    4.56   505.7    3.9      38.634
2014   11       12    14  24    4.56   505.5    3.9      38.600
2014   11       12    14  30    4.56   505.3    3.9      38.566
2014   11       12    14  35    4.56   505.1    3.9      38.532
2014   11       12    14  41    4.56   504.9    3.9      38.498
2014   11       12    14  46    4.55   504.7    3.9      38.463
2014   11       12    14  52    4.55   504.5    3.9      38.428
2014   11       12    14  57    4.55   504.3    3.9      38.393
2014   11       12    15   3    4.55   504.1    3.9      38.357
2014   11       12    15   8    4.55   503.9    3.9      38.321
2014   11       12    15  13    4.55   503.6    3.9      38.284
2014   11       12    15  19    4.54   503.4    3.9      38.248
2014   11       12    15  24    4.54   503.2    3.9      38.210
2014   11       12    15  30    4.54   503.0    3.9      38.173
2014   11       12    15  35    4.54   502.8    3.9      38.135
2014   11       12    15  41    4.54   502.6    3.9      38.096
2014   11       12    15  46    4.53   502.4    3.9      38.057
2014   11       12    15  52    4.53   502.2    3.9      38.019
2014   11       12    15  57    4.53   502.0    3.9      37.979
2014   11       12    16   3    4.53   501.8    3.9      37.939
2014   11       12    16   8    4.53   501.6    3.9      37.898
2014   11       12    16  14    4.52   501.4    3.9      37.858
2014   11       12    16  19    4.52   501.1    3.9      37.817
2014   11       12    16  25    4.52   500.9    3.9      37.776
2014   11       12    16  30    4.52   500.7    3.9      37.734
2014   11       12    16  36    4.52   500.5    3.9      37.692
2014   11       12    16  41    4.51   500.3    3.9      37.649
2014   11       12    16  47    4.51   500.1    3.9      37.607
2014   11       12    16  52    4.51   499.9    3.9      37.563
2014   11       12    16  58    4.51   499.7    3.9      37.520
2014   11       12    17   3    4.51   499.4    3.9      37.476
2014   11       12    17   9    4.50   499.2    3.9      37.432
2014   11       12    17  15    4.50   499.0    3.9      37.388
2014   11       12    17  20    4.50   498.8    3.9      37.343
2014   11       12    17  26    4.50   498.6    3.9      37.298
2014   11       12    17  31    4.50   498.4    3.9      37.253
2014   11       12    17  37    4.49   498.1    3.9      37.207
2014   11       12    17  42    4.49   497.9    3.9      37.161
2014   11       12    17  48    4.49   497.7    3.9      37.115
2014   11       12    17  53    4.49   497.5    3.9      37.069
2014   11       12    17  59    4.49   497.2    3.9      37.022
2014   11       12    18   4    4.48   497.0    3.9      36.976
2014   11       12    18  10    4.48   496.8    3.9      36.929
2014   11       12    18  15    4.48   496.6    3.9      36.882
2014   11       12    18  21    4.48   496.3    3.9      36.835
2014   11       12    18  27    4.48   496.1    3.9      36.788
2014   11       12    18  32    4.47   495.9    3.9      36.741
2014   11       12    18  38    4.47   495.6    3.9      36.694
2014   11       12    18  43    4.47   495.4    3.9      36.647
2014   11       12    18  49    4.47   495.2    3.9      36.600
2014   11       12    18  54    4.47   494.9    3.9      36.553
2014   11       12    19   0    4.46   494.7    3.9      36.506
2014   11       12    19   5    4.46   494.5    3.9      36.460
2014   11       12    19  11    4.46   494.2    3.9      36.414
2014   11       12    19  16    4.46   494.0    3.9      36.367
2014   11       12    19  22    4.46   493.7    3.9      36.322
2014   11       12    19  27    4.45   493.5    3.9      36.276
2014   11       12    19  33    4.45   493.3    3.9      36.231
2014   11       12    19  39    4.45   493.0    3.9      36.186
2014   11       12    19  44    4.45   492.8    3.9      36.142
2014   11       12    19  50    4.45   492.5    3.9      36.097
2014   11       12    19  55    4.45   492.3    3.9      36.053
2014   11       12    20   1    4.44   492.0    3.9      36.009
2014   11       12    20   6    4.44   491.8    3.9      35.966
2014   11       12    20  12    4.44   491.5    3.9      35.923
2014   11       12    20  17    4.44   491.3    3.9      35.881
2014   11       12    20  23    4.44   491.0    3.9      35.839
2014   11       12    20  28    4.43   490.8    3.9      35.797
2014   11       12    20  34    4.43   490.5    3.9      35.756
2014   11       12    20  39    4.43   490.3    3.9      35.715
2014   11       12    20  45    4.43   490.0    3.9      35.675
2014   11       12    20  50    4.43   489.8    3.9      35.636
2014   11       12    20  55    4.43   489.5    3.9      35.597
2014   11       12    21   1    4.42   489.3    3.9      35.559
2014   11       12    21   6    4.42   489.0    3.9      35.523
2014   11       12    21  12    4.42   488.8    3.9      35.487
2014   11       12    21  17    4.42   488.5    3.9      35.453
2014   11       12    21  23    4.42   488.3    3.9      35.419
2014   11       12    21  28    4.42   488.0    3.9      35.386
2014   11       12    21  34    4.42   487.8    3.9      35.354
2014   11       12    21  39    4.41   487.5    3.9      35.322
2014   11       12    21  45    4.41   487.3    3.9      35.291
2014   11       12    21  50    4.41   487.0    3.9      35.261
2014   11       12    21  55    4.41   486.8    3.9      35.231
2014   11       12    22   1    4.41   486.6    3.9      35.202
2014   11       12    22   6    4.41   486.3    4.0      35.173
2014   11       12    22  12    4.41   486.1    4.0      35.143
2014   11       12    22  17    4.41   485.8    4.0      35.115
2014   11       12    22  23    4.40   485.6    4.0      35.085
2014   11       12    22  28    4.40   485.4    4.0      35.056
2014   11       12    22  34    4.40   485.1    4.0      35.027
2014   11       12    22  39    4.40   484.9    4.0      34.998
2014   11       12    22  45    4.40   484.7    4.0      34.969
2014   11       12    22  50    4.40   484.4    4.0      34.940
2014   11       12    22  56    4.40   484.2    4.0      34.910
2014   11       12    23   1    4.39   483.9    4.0      34.881
2014   11       12    23   7    4.39   483.7    4.0      34.851
2014   11       12    23  12    4.39   483.5    4.0      34.821
2014   11       12    23  18    4.39   483.2    4.0      34.790
2014   11       12    23  23    4.39   483.0    4.0      34.760
2014   11       12    23  29    4.39   482.7    4.0      34.728
2014   11       12    23  34    4.39   482.5    4.0      34.697
2014   11       12    23  40    4.38   482.3    4.0      34.666
2014   11       12    23  45    4.38   482.0    4.0      34.634
2014   11       12    23  51    4.38   481.8    4.0      34.601
2014   11       12    23  56    4.38   481.5    4.0      34.569
2014   11       13     0   2    4.38   481.3    4.0      34.536
