year    month   day   hour  minute  B_enl V_enl   n_enl       T_enl
[year] [month] [day] [hour][minute] [nT]  [km/s]  [cm-3]      [kK]
2014   11        3     0   2    5.52   434.0    6.1      38.660
2014   11        3     0   8    5.52   433.9    6.1      38.648
2014   11        3     0  14    5.52   433.7    6.1      38.637
2014   11        3     0  19    5.52   433.6    6.1      38.626
2014   11        3     0  25    5.52   433.5    6.1      38.615
2014   11        3     0  30    5.52   433.4    6.1      38.603
2014   11        3     0  36    5.52   433.3    6.1      38.592
2014   11        3     0  41    5.52   433.1    6.1      38.581
2014   11        3     0  47    5.52   433.0    6.1      38.569
2014   11        3     0  52    5.52   432.9    6.1      38.557
2014   11        3     0  58    5.52   432.8    6.1      38.546
2014   11        3     1   3    5.52   432.7    6.1      38.534
2014   11        3     1   9    5.52   432.5    6.1      38.523
2014   11        3     1  14    5.52   432.4    6.1      38.511
2014   11        3     1  20    5.52   432.3    6.1      38.499
2014   11        3     1  26    5.52   432.2    6.1      38.487
2014   11        3     1  31    5.52   432.1    6.1      38.474
2014   11        3     1  37    5.52   431.9    6.1      38.462
2014   11        3     1  42    5.52   431.8    6.2      38.450
2014   11        3     1  48    5.52   431.7    6.2      38.438
2014   11        3     1  53    5.52   431.6    6.2      38.425
2014   11        3     1  59    5.52   431.5    6.2      38.412
2014   11        3     2   4    5.53   431.3    6.2      38.400
2014   11        3     2  10    5.53   431.2    6.2      38.387
2014   11        3     2  15    5.53   431.1    6.2      38.374
2014   11        3     2  21    5.53   431.0    6.2      38.361
2014   11        3     2  27    5.53   430.9    6.2      38.348
2014   11        3     2  32    5.53   430.7    6.2      38.335
2014   11        3     2  38    5.53   430.6    6.2      38.322
2014   11        3     2  43    5.53   430.5    6.2      38.309
2014   11        3     2  49    5.53   430.4    6.2      38.295
2014   11        3     2  54    5.53   430.3    6.2      38.282
2014   11        3     3   0    5.53   430.1    6.2      38.269
2014   11        3     3   5    5.53   430.0    6.2      38.255
2014   11        3     3  11    5.53   429.9    6.2      38.242
2014   11        3     3  16    5.53   429.8    6.2      38.229
2014   11        3     3  22    5.53   429.6    6.2      38.215
2014   11        3     3  28    5.53   429.5    6.2      38.202
2014   11        3     3  33    5.53   429.4    6.2      38.189
2014   11        3     3  39    5.53   429.3    6.2      38.176
2014   11        3     3  44    5.54   429.1    6.2      38.164
2014   11        3     3  50    5.54   429.0    6.2      38.151
2014   11        3     3  55    5.54   428.9    6.2      38.139
2014   11        3     4   1    5.54   428.8    6.2      38.126
2014   11        3     4   6    5.54   428.6    6.2      38.114
2014   11        3     4  12    5.54   428.5    6.2      38.103
2014   11        3     4  17    5.54   428.4    6.2      38.092
2014   11        3     4  23    5.54   428.3    6.2      38.081
2014   11        3     4  28    5.54   428.1    6.3      38.070
2014   11        3     4  34    5.54   428.0    6.3      38.060
2014   11        3     4  40    5.55   427.9    6.3      38.050
2014   11        3     4  45    5.55   427.8    6.3      38.041
2014   11        3     4  51    5.55   427.7    6.3      38.032
2014   11        3     4  56    5.55   427.6    6.3      38.024
2014   11        3     5   2    5.55   427.4    6.3      38.017
2014   11        3     5   7    5.55   427.3    6.3      38.009
2014   11        3     5  13    5.55   427.2    6.3      38.002
2014   11        3     5  18    5.55   427.1    6.3      37.996
2014   11        3     5  24    5.56   427.0    6.3      37.990
2014   11        3     5  29    5.56   426.9    6.3      37.985
2014   11        3     5  35    5.56   426.8    6.3      37.981
2014   11        3     5  40    5.56   426.6    6.3      37.977
2014   11        3     5  46    5.56   426.5    6.3      37.973
2014   11        3     5  51    5.56   426.4    6.3      37.970
2014   11        3     5  57    5.57   426.3    6.3      37.967
2014   11        3     6   2    5.57   426.2    6.3      37.965
2014   11        3     6   8    5.57   426.1    6.4      37.963
2014   11        3     6  13    5.57   426.0    6.4      37.962
2014   11        3     6  19    5.57   425.9    6.4      37.961
2014   11        3     6  24    5.57   425.8    6.4      37.961
2014   11        3     6  30    5.58   425.7    6.4      37.961
2014   11        3     6  36    5.58   425.6    6.4      37.961
2014   11        3     6  41    5.58   425.5    6.4      37.962
2014   11        3     6  47    5.58   425.4    6.4      37.963
2014   11        3     6  52    5.58   425.3    6.4      37.964
2014   11        3     6  58    5.59   425.2    6.4      37.966
2014   11        3     7   3    5.59   425.1    6.4      37.968
2014   11        3     7   9    5.59   425.0    6.4      37.970
2014   11        3     7  14    5.59   424.9    6.4      37.973
2014   11        3     7  20    5.60   424.9    6.4      37.976
2014   11        3     7  25    5.60   424.8    6.4      37.979
2014   11        3     7  31    5.60   424.7    6.5      37.982
2014   11        3     7  36    5.60   424.6    6.5      37.986
2014   11        3     7  42    5.60   424.5    6.5      37.989
2014   11        3     7  47    5.61   424.4    6.5      37.993
2014   11        3     7  53    5.61   424.3    6.5      37.997
2014   11        3     7  59    5.61   424.2    6.5      38.002
2014   11        3     8   4    5.61   424.1    6.5      38.006
2014   11        3     8  10    5.61   424.1    6.5      38.011
2014   11        3     8  15    5.62   424.0    6.5      38.016
2014   11        3     8  21    5.62   423.9    6.5      38.020
2014   11        3     8  26    5.62   423.8    6.5      38.025
2014   11        3     8  32    5.62   423.7    6.5      38.031
2014   11        3     8  37    5.63   423.6    6.5      38.036
2014   11        3     8  43    5.63   423.6    6.5      38.041
2014   11        3     8  48    5.63   423.5    6.6      38.047
2014   11        3     8  54    5.63   423.4    6.6      38.053
2014   11        3     8  59    5.63   423.3    6.6      38.058
2014   11        3     9   5    5.64   423.2    6.6      38.064
2014   11        3     9  11    5.64   423.2    6.6      38.071
2014   11        3     9  16    5.64   423.1    6.6      38.077
2014   11        3     9  22    5.64   423.0    6.6      38.083
2014   11        3     9  27    5.65   422.9    6.6      38.090
2014   11        3     9  33    5.65   422.8    6.6      38.097
2014   11        3     9  38    5.65   422.8    6.6      38.104
2014   11        3     9  44    5.65   422.7    6.6      38.111
2014   11        3     9  49    5.66   422.6    6.6      38.118
2014   11        3     9  55    5.66   422.5    6.6      38.125
2014   11        3    10   0    5.66   422.5    6.6      38.133
2014   11        3    10   6    5.66   422.4    6.7      38.140
2014   11        3    10  12    5.67   422.3    6.7      38.148
2014   11        3    10  17    5.67   422.2    6.7      38.156
2014   11        3    10  23    5.67   422.2    6.7      38.164
2014   11        3    10  28    5.67   422.1    6.7      38.172
2014   11        3    10  34    5.67   422.0    6.7      38.181
2014   11        3    10  39    5.68   422.0    6.7      38.190
2014   11        3    10  45    5.68   421.9    6.7      38.199
2014   11        3    10  50    5.68   421.8    6.7      38.208
2014   11        3    10  56    5.69   421.7    6.7      38.217
2014   11        3    11   1    5.69   421.7    6.7      38.227
2014   11        3    11   7    5.69   421.6    6.7      38.236
2014   11        3    11  13    5.69   421.5    6.7      38.246
2014   11        3    11  18    5.70   421.5    6.7      38.256
2014   11        3    11  24    5.70   421.4    6.8      38.266
2014   11        3    11  29    5.70   421.3    6.8      38.276
2014   11        3    11  35    5.70   421.3    6.8      38.286
2014   11        3    11  40    5.71   421.2    6.8      38.296
2014   11        3    11  46    5.71   421.1    6.8      38.307
2014   11        3    11  51    5.71   421.1    6.8      38.317
2014   11        3    11  57    5.72   421.0    6.8      38.327
2014   11        3    12   2    5.72   420.9    6.8      38.338
2014   11        3    12   8    5.72   420.9    6.8      38.348
2014   11        3    12  13    5.72   420.8    6.8      38.358
2014   11        3    12  19    5.73   420.7    6.8      38.368
2014   11        3    12  24    5.73   420.7    6.8      38.379
2014   11        3    12  30    5.73   420.6    6.8      38.389
2014   11        3    12  36    5.74   420.6    6.8      38.399
2014   11        3    12  41    5.74   420.5    6.8      38.409
2014   11        3    12  47    5.74   420.4    6.9      38.419
2014   11        3    12  52    5.74   420.4    6.9      38.430
2014   11        3    12  58    5.75   420.3    6.9      38.440
2014   11        3    13   3    5.75   420.3    6.9      38.450
2014   11        3    13   9    5.75   420.2    6.9      38.460
2014   11        3    13  14    5.76   420.2    6.9      38.471
2014   11        3    13  20    5.76   420.1    6.9      38.481
2014   11        3    13  25    5.76   420.1    6.9      38.491
2014   11        3    13  31    5.77   420.0    6.9      38.501
2014   11        3    13  36    5.77   420.0    6.9      38.511
2014   11        3    13  42    5.77   419.9    6.9      38.522
2014   11        3    13  47    5.78   419.9    6.9      38.532
2014   11        3    13  53    5.78   419.8    6.9      38.542
2014   11        3    13  58    5.78   419.8    6.9      38.553
2014   11        3    14   4    5.78   419.7    7.0      38.563
2014   11        3    14   9    5.79   419.7    7.0      38.574
2014   11        3    14  15    5.79   419.6    7.0      38.584
2014   11        3    14  21    5.79   419.6    7.0      38.595
2014   11        3    14  26    5.80   419.5    7.0      38.605
2014   11        3    14  32    5.80   419.5    7.0      38.616
2014   11        3    14  37    5.80   419.4    7.0      38.627
2014   11        3    14  43    5.81   419.4    7.0      38.638
2014   11        3    14  48    5.81   419.3    7.0      38.648
2014   11        3    14  54    5.81   419.3    7.0      38.660
2014   11        3    14  59    5.82   419.3    7.0      38.671
2014   11        3    15   5    5.82   419.2    7.0      38.682
2014   11        3    15  10    5.82   419.2    7.0      38.694
2014   11        3    15  16    5.83   419.1    7.0      38.706
2014   11        3    15  21    5.83   419.1    7.1      38.718
2014   11        3    15  27    5.83   419.1    7.1      38.730
2014   11        3    15  32    5.83   419.0    7.1      38.742
2014   11        3    15  38    5.84   419.0    7.1      38.755
2014   11        3    15  44    5.84   418.9    7.1      38.768
2014   11        3    15  49    5.84   418.9    7.1      38.782
2014   11        3    15  55    5.85   418.9    7.1      38.795
2014   11        3    16   0    5.85   418.8    7.1      38.810
2014   11        3    16   6    5.85   418.8    7.1      38.825
2014   11        3    16  11    5.86   418.8    7.1      38.840
2014   11        3    16  17    5.86   418.8    7.1      38.856
2014   11        3    16  22    5.86   418.7    7.1      38.873
2014   11        3    16  28    5.87   418.7    7.1      38.890
2014   11        3    16  33    5.87   418.7    7.2      38.908
2014   11        3    16  39    5.87   418.6    7.2      38.927
2014   11        3    16  45    5.88   418.6    7.2      38.946
2014   11        3    16  50    5.88   418.6    7.2      38.965
2014   11        3    16  56    5.88   418.6    7.2      38.985
2014   11        3    17   1    5.89   418.6    7.2      39.005
2014   11        3    17   7    5.89   418.5    7.2      39.026
2014   11        3    17  12    5.89   418.5    7.2      39.047
2014   11        3    17  18    5.90   418.5    7.2      39.069
2014   11        3    17  23    5.90   418.5    7.2      39.091
2014   11        3    17  29    5.90   418.5    7.2      39.113
2014   11        3    17  34    5.91   418.4    7.2      39.136
2014   11        3    17  40    5.91   418.4    7.2      39.159
2014   11        3    17  46    5.91   418.4    7.3      39.182
2014   11        3    17  51    5.92   418.4    7.3      39.205
2014   11        3    17  57    5.92   418.4    7.3      39.228
2014   11        3    18   2    5.92   418.4    7.3      39.251
2014   11        3    18   8    5.93   418.3    7.3      39.275
2014   11        3    18  13    5.93   418.3    7.3      39.298
2014   11        3    18  19    5.93   418.3    7.3      39.322
2014   11        3    18  24    5.94   418.3    7.3      39.346
2014   11        3    18  30    5.94   418.3    7.3      39.370
2014   11        3    18  35    5.94   418.3    7.3      39.394
2014   11        3    18  41    5.95   418.3    7.3      39.417
2014   11        3    18  46    5.95   418.3    7.3      39.441
2014   11        3    18  52    5.95   418.3    7.3      39.464
2014   11        3    18  58    5.96   418.2    7.3      39.487
2014   11        3    19   3    5.96   418.2    7.3      39.510
2014   11        3    19   9    5.96   418.2    7.4      39.532
2014   11        3    19  14    5.97   418.2    7.4      39.553
2014   11        3    19  20    5.97   418.2    7.4      39.575
2014   11        3    19  25    5.97   418.2    7.4      39.595
2014   11        3    19  31    5.98   418.2    7.4      39.616
2014   11        3    19  36    5.98   418.2    7.4      39.635
2014   11        3    19  42    5.98   418.2    7.4      39.654
2014   11        3    19  47    5.99   418.2    7.4      39.673
2014   11        3    19  53    5.99   418.2    7.4      39.691
2014   11        3    19  58    5.99   418.2    7.4      39.708
2014   11        3    20   4    6.00   418.2    7.4      39.725
2014   11        3    20   9    6.00   418.2    7.4      39.741
2014   11        3    20  15    6.00   418.2    7.4      39.757
2014   11        3    20  20    6.01   418.1    7.4      39.773
2014   11        3    20  26    6.01   418.1    7.4      39.788
2014   11        3    20  31    6.01   418.1    7.4      39.803
2014   11        3    20  37    6.02   418.1    7.4      39.817
2014   11        3    20  42    6.02   418.1    7.4      39.831
2014   11        3    20  48    6.02   418.1    7.4      39.845
2014   11        3    20  54    6.02   418.1    7.5      39.858
2014   11        3    20  59    6.03   418.1    7.5      39.871
2014   11        3    21   5    6.03   418.1    7.5      39.884
2014   11        3    21  10    6.03   418.1    7.5      39.897
2014   11        3    21  16    6.04   418.1    7.5      39.909
2014   11        3    21  21    6.04   418.1    7.5      39.921
2014   11        3    21  26    6.04   418.1    7.5      39.933
2014   11        3    21  32    6.05   418.1    7.5      39.945
2014   11        3    21  37    6.05   418.0    7.5      39.957
2014   11        3    21  43    6.05   418.0    7.5      39.968
2014   11        3    21  48    6.06   418.0    7.5      39.980
2014   11        3    21  54    6.06   418.0    7.5      39.991
2014   11        3    21  59    6.06   418.0    7.5      40.002
2014   11        3    22   5    6.06   418.0    7.5      40.014
2014   11        3    22  10    6.07   418.0    7.5      40.025
2014   11        3    22  16    6.07   418.0    7.5      40.037
2014   11        3    22  21    6.07   418.0    7.5      40.048
2014   11        3    22  27    6.08   418.0    7.5      40.060
2014   11        3    22  32    6.08   418.0    7.5      40.071
2014   11        3    22  38    6.08   418.0    7.5      40.083
2014   11        3    22  43    6.09   417.9    7.5      40.095
2014   11        3    22  49    6.09   417.9    7.5      40.107
2014   11        3    22  54    6.09   417.9    7.5      40.120
2014   11        3    23   0    6.09   417.9    7.5      40.133
2014   11        3    23   5    6.10   417.9    7.6      40.146
2014   11        3    23  10    6.10   417.9    7.6      40.159
2014   11        3    23  16    6.10   417.9    7.6      40.173
2014   11        3    23  21    6.11   417.9    7.6      40.187
2014   11        3    23  27    6.11   417.9    7.6      40.202
2014   11        3    23  32    6.11   417.9    7.6      40.217
2014   11        3    23  38    6.12   417.9    7.6      40.233
2014   11        3    23  43    6.12   417.9    7.6      40.250
2014   11        3    23  49    6.12   417.9    7.6      40.268
2014   11        3    23  54    6.13   417.9    7.6      40.286
2014   11        4     0   0    6.13   417.9    7.6      40.305
2014   11        4     0   5    6.13   417.9    7.6      40.325
2014   11        4     0  10    6.14   417.9    7.6      40.345
2014   11        4     0  16    6.14   417.9    7.6      40.366
2014   11        4     0  21    6.14   417.9    7.6      40.388
2014   11        4     0  27    6.15   417.9    7.6      40.410
2014   11        4     0  32    6.15   417.9    7.6      40.432
2014   11        4     0  38    6.15   417.9    7.6      40.455
2014   11        4     0  43    6.15   417.9    7.7      40.477
2014   11        4     0  49    6.16   417.9    7.7      40.501
2014   11        4     0  54    6.16   417.9    7.7      40.525
2014   11        4     1   0    6.16   417.9    7.7      40.549
2014   11        4     1   5    6.17   417.9    7.7      40.573
2014   11        4     1  11    6.17   417.9    7.7      40.597
2014   11        4     1  16    6.17   418.0    7.7      40.621
2014   11        4     1  22    6.18   418.0    7.7      40.646
2014   11        4     1  28    6.18   418.0    7.7      40.672
2014   11        4     1  33    6.18   418.0    7.7      40.697
2014   11        4     1  39    6.19   418.0    7.7      40.724
2014   11        4     1  44    6.19   418.1    7.7      40.750
2014   11        4     1  50    6.19   418.1    7.7      40.777
2014   11        4     1  55    6.20   418.1    7.7      40.804
2014   11        4     2   1    6.20   418.1    7.7      40.831
2014   11        4     2   6    6.20   418.2    7.7      40.857
2014   11        4     2  12    6.21   418.2    7.7      40.884
2014   11        4     2  17    6.21   418.2    7.8      40.910
2014   11        4     2  23    6.21   418.3    7.8      40.936
2014   11        4     2  28    6.22   418.3    7.8      40.962
2014   11        4     2  34    6.22   418.3    7.8      40.988
2014   11        4     2  39    6.22   418.3    7.8      41.013
2014   11        4     2  45    6.23   418.4    7.8      41.037
2014   11        4     2  50    6.23   418.4    7.8      41.061
2014   11        4     2  56    6.23   418.4    7.8      41.084
2014   11        4     3   1    6.24   418.5    7.8      41.107
2014   11        4     3   7    6.24   418.5    7.8      41.129
2014   11        4     3  12    6.24   418.5    7.8      41.150
2014   11        4     3  18    6.25   418.6    7.8      41.170
2014   11        4     3  23    6.25   418.6    7.8      41.191
2014   11        4     3  29    6.25   418.6    7.8      41.210
2014   11        4     3  34    6.25   418.6    7.8      41.230
2014   11        4     3  40    6.26   418.7    7.8      41.248
2014   11        4     3  45    6.26   418.7    7.8      41.267
2014   11        4     3  51    6.26   418.7    7.8      41.285
2014   11        4     3  56    6.27   418.8    7.8      41.302
2014   11        4     4   2    6.27   418.8    7.8      41.320
2014   11        4     4   7    6.27   418.8    7.8      41.337
2014   11        4     4  13    6.28   418.9    7.8      41.353
2014   11        4     4  18    6.28   418.9    7.8      41.370
2014   11        4     4  24    6.28   418.9    7.8      41.386
2014   11        4     4  30    6.28   418.9    7.8      41.402
2014   11        4     4  35    6.29   419.0    7.9      41.417
2014   11        4     4  40    6.29   419.0    7.9      41.433
2014   11        4     4  46    6.29   419.0    7.9      41.449
2014   11        4     4  51    6.30   419.1    7.9      41.465
2014   11        4     4  57    6.30   419.1    7.9      41.481
2014   11        4     5   2    6.30   419.1    7.9      41.497
2014   11        4     5   8    6.31   419.2    7.9      41.513
2014   11        4     5  13    6.31   419.2    7.9      41.529
2014   11        4     5  19    6.31   419.2    7.9      41.545
2014   11        4     5  24    6.31   419.3    7.9      41.561
2014   11        4     5  30    6.32   419.3    7.9      41.577
2014   11        4     5  35    6.32   419.4    7.9      41.593
2014   11        4     5  41    6.32   419.4    7.9      41.609
2014   11        4     5  46    6.33   419.4    7.9      41.625
2014   11        4     5  52    6.33   419.5    7.9      41.641
2014   11        4     5  57    6.33   419.5    7.9      41.656
2014   11        4     6   3    6.33   419.5    7.9      41.672
2014   11        4     6   8    6.34   419.6    7.9      41.687
2014   11        4     6  13    6.34   419.6    7.9      41.703
2014   11        4     6  19    6.34   419.6    7.9      41.718
2014   11        4     6  24    6.35   419.7    7.9      41.734
2014   11        4     6  30    6.35   419.7    7.9      41.750
2014   11        4     6  35    6.35   419.7    7.9      41.766
2014   11        4     6  41    6.35   419.8    7.9      41.782
2014   11        4     6  46    6.36   419.8    7.9      41.798
2014   11        4     6  52    6.36   419.8    7.9      41.815
2014   11        4     6  57    6.36   419.9    7.9      41.831
2014   11        4     7   3    6.37   419.9    7.9      41.849
2014   11        4     7   8    6.37   419.9    7.9      41.867
2014   11        4     7  14    6.37   420.0    7.9      41.885
2014   11        4     7  19    6.37   420.0    8.0      41.903
2014   11        4     7  25    6.38   420.0    8.0      41.922
2014   11        4     7  30    6.38   420.1    8.0      41.941
2014   11        4     7  35    6.38   420.1    8.0      41.961
2014   11        4     7  41    6.39   420.1    8.0      41.980
2014   11        4     7  46    6.39   420.2    8.0      42.000
2014   11        4     7  52    6.39   420.2    8.0      42.020
2014   11        4     7  57    6.39   420.3    8.0      42.041
2014   11        4     8   3    6.40   420.3    8.0      42.061
2014   11        4     8   8    6.40   420.3    8.0      42.081
2014   11        4     8  14    6.40   420.4    8.0      42.102
2014   11        4     8  19    6.40   420.4    8.0      42.122
2014   11        4     8  25    6.41   420.5    8.0      42.142
2014   11        4     8  30    6.41   420.5    8.0      42.163
2014   11        4     8  36    6.41   420.6    8.0      42.183
2014   11        4     8  41    6.42   420.6    8.0      42.204
2014   11        4     8  47    6.42   420.6    8.0      42.225
2014   11        4     8  53    6.42   420.7    8.0      42.246
2014   11        4     8  58    6.42   420.7    8.0      42.267
2014   11        4     9   4    6.43   420.8    8.0      42.288
2014   11        4     9   9    6.43   420.8    8.0      42.308
2014   11        4     9  15    6.43   420.9    8.0      42.329
2014   11        4     9  20    6.44   420.9    8.0      42.350
2014   11        4     9  26    6.44   421.0    8.0      42.370
2014   11        4     9  31    6.44   421.1    8.0      42.390
2014   11        4     9  37    6.44   421.1    8.0      42.410
2014   11        4     9  42    6.45   421.2    8.0      42.430
2014   11        4     9  48    6.45   421.2    8.0      42.450
2014   11        4     9  53    6.45   421.3    8.0      42.469
2014   11        4     9  59    6.45   421.3    8.0      42.488
2014   11        4    10   4    6.46   421.4    8.0      42.507
2014   11        4    10  10    6.46   421.4    8.0      42.525
2014   11        4    10  15    6.46   421.5    8.0      42.543
2014   11        4    10  21    6.46   421.5    8.0      42.561
2014   11        4    10  26    6.47   421.6    8.0      42.578
2014   11        4    10  32    6.47   421.7    8.0      42.595
2014   11        4    10  37    6.47   421.7    8.1      42.612
2014   11        4    10  43    6.47   421.8    8.1      42.629
2014   11        4    10  48    6.48   421.8    8.1      42.645
2014   11        4    10  54    6.48   421.9    8.1      42.661
2014   11        4    10  59    6.48   421.9    8.1      42.678
2014   11        4    11   5    6.48   422.0    8.1      42.694
2014   11        4    11  10    6.49   422.0    8.1      42.709
2014   11        4    11  16    6.49   422.1    8.1      42.725
2014   11        4    11  22    6.49   422.2    8.1      42.741
2014   11        4    11  27    6.49   422.2    8.1      42.757
2014   11        4    11  33    6.50   422.3    8.1      42.772
2014   11        4    11  38    6.50   422.3    8.1      42.788
2014   11        4    11  44    6.50   422.4    8.1      42.803
2014   11        4    11  49    6.50   422.4    8.1      42.819
2014   11        4    11  55    6.51   422.5    8.1      42.835
2014   11        4    12   0    6.51   422.6    8.1      42.851
2014   11        4    12   6    6.51   422.6    8.1      42.868
2014   11        4    12  11    6.52   422.7    8.1      42.885
2014   11        4    12  17    6.52   422.8    8.1      42.902
2014   11        4    12  22    6.52   422.8    8.1      42.919
2014   11        4    12  28    6.52   422.9    8.1      42.937
2014   11        4    12  33    6.53   423.0    8.1      42.955
2014   11        4    12  39    6.53   423.0    8.1      42.973
2014   11        4    12  45    6.53   423.1    8.1      42.992
2014   11        4    12  50    6.53   423.2    8.1      43.011
2014   11        4    12  56    6.54   423.3    8.1      43.031
2014   11        4    13   1    6.54   423.3    8.1      43.051
2014   11        4    13   7    6.54   423.4    8.1      43.072
2014   11        4    13  12    6.54   423.5    8.1      43.093
2014   11        4    13  18    6.55   423.6    8.1      43.114
2014   11        4    13  23    6.55   423.6    8.1      43.136
2014   11        4    13  29    6.55   423.7    8.1      43.157
2014   11        4    13  34    6.55   423.8    8.1      43.179
2014   11        4    13  40    6.56   423.9    8.2      43.201
2014   11        4    13  45    6.56   423.9    8.2      43.224
2014   11        4    13  51    6.56   424.0    8.2      43.247
2014   11        4    13  57    6.56   424.1    8.2      43.271
2014   11        4    14   2    6.57   424.2    8.2      43.295
2014   11        4    14   8    6.57   424.3    8.2      43.319
2014   11        4    14  13    6.57   424.3    8.2      43.344
2014   11        4    14  19    6.57   424.4    8.2      43.368
2014   11        4    14  24    6.58   424.5    8.2      43.393
2014   11        4    14  30    6.58   424.6    8.2      43.417
2014   11        4    14  35    6.58   424.7    8.2      43.442
2014   11        4    14  41    6.58   424.8    8.2      43.467
2014   11        4    14  46    6.59   424.8    8.2      43.491
2014   11        4    14  52    6.59   424.9    8.2      43.515
2014   11        4    14  58    6.59   425.0    8.2      43.539
2014   11        4    15   3    6.59   425.1    8.2      43.563
2014   11        4    15   9    6.59   425.2    8.2      43.586
2014   11        4    15  14    6.60   425.3    8.2      43.608
2014   11        4    15  20    6.60   425.3    8.2      43.630
2014   11        4    15  25    6.60   425.4    8.2      43.651
2014   11        4    15  31    6.60   425.5    8.2      43.672
2014   11        4    15  36    6.60   425.6    8.2      43.692
2014   11        4    15  42    6.61   425.7    8.2      43.712
2014   11        4    15  47    6.61   425.8    8.2      43.731
2014   11        4    15  53    6.61   425.8    8.2      43.750
2014   11        4    15  58    6.61   425.9    8.2      43.768
2014   11        4    16   4    6.61   426.0    8.2      43.785
2014   11        4    16  10    6.62   426.1    8.2      43.802
2014   11        4    16  15    6.62   426.2    8.2      43.819
2014   11        4    16  21    6.62   426.3    8.2      43.834
2014   11        4    16  26    6.62   426.3    8.2      43.850
2014   11        4    16  32    6.62   426.4    8.2      43.865
2014   11        4    16  37    6.62   426.5    8.2      43.880
2014   11        4    16  43    6.63   426.6    8.2      43.894
2014   11        4    16  48    6.63   426.7    8.2      43.908
2014   11        4    16  54    6.63   426.7    8.2      43.922
2014   11        4    16  59    6.63   426.8    8.2      43.935
2014   11        4    17   5    6.63   426.9    8.2      43.947
2014   11        4    17  10    6.64   427.0    8.2      43.960
2014   11        4    17  16    6.64   427.1    8.2      43.972
2014   11        4    17  21    6.64   427.1    8.2      43.984
2014   11        4    17  27    6.64   427.2    8.2      43.996
2014   11        4    17  32    6.64   427.3    8.2      44.007
2014   11        4    17  38    6.64   427.4    8.2      44.018
2014   11        4    17  44    6.65   427.5    8.2      44.029
2014   11        4    17  49    6.65   427.5    8.2      44.040
2014   11        4    17  55    6.65   427.6    8.2      44.050
2014   11        4    18   0    6.65   427.7    8.2      44.061
2014   11        4    18   6    6.65   427.8    8.2      44.071
2014   11        4    18  11    6.65   427.9    8.2      44.081
2014   11        4    18  17    6.66   427.9    8.2      44.091
2014   11        4    18  22    6.66   428.0    8.2      44.101
2014   11        4    18  28    6.66   428.1    8.2      44.110
2014   11        4    18  33    6.66   428.2    8.2      44.120
2014   11        4    18  39    6.66   428.3    8.2      44.129
2014   11        4    18  44    6.66   428.3    8.2      44.138
2014   11        4    18  50    6.67   428.4    8.1      44.147
2014   11        4    18  55    6.67   428.5    8.1      44.156
2014   11        4    19   1    6.67   428.6    8.1      44.165
2014   11        4    19   6    6.67   428.6    8.1      44.174
2014   11        4    19  12    6.67   428.7    8.1      44.182
2014   11        4    19  17    6.67   428.8    8.1      44.191
2014   11        4    19  23    6.67   428.9    8.1      44.200
2014   11        4    19  29    6.68   429.0    8.1      44.209
2014   11        4    19  34    6.68   429.0    8.1      44.218
2014   11        4    19  40    6.68   429.1    8.1      44.227
2014   11        4    19  45    6.68   429.2    8.1      44.236
2014   11        4    19  51    6.68   429.3    8.1      44.245
2014   11        4    19  56    6.69   429.4    8.1      44.254
2014   11        4    20   2    6.69   429.4    8.1      44.264
2014   11        4    20   7    6.69   429.5    8.1      44.274
2014   11        4    20  13    6.69   429.6    8.1      44.285
2014   11        4    20  18    6.69   429.7    8.1      44.297
2014   11        4    20  24    6.69   429.8    8.2      44.309
2014   11        4    20  29    6.70   429.9    8.2      44.322
2014   11        4    20  35    6.70   429.9    8.2      44.336
2014   11        4    20  40    6.70   430.0    8.2      44.350
2014   11        4    20  46    6.70   430.1    8.2      44.365
2014   11        4    20  52    6.70   430.2    8.2      44.381
2014   11        4    20  57    6.71   430.3    8.2      44.398
2014   11        4    21   3    6.71   430.4    8.2      44.415
2014   11        4    21   8    6.71   430.4    8.2      44.434
2014   11        4    21  14    6.71   430.5    8.2      44.453
2014   11        4    21  19    6.71   430.6    8.2      44.474
2014   11        4    21  25    6.72   430.7    8.2      44.496
2014   11        4    21  30    6.72   430.8    8.2      44.520
2014   11        4    21  36    6.72   430.9    8.2      44.545
2014   11        4    21  41    6.72   431.0    8.2      44.571
2014   11        4    21  47    6.73   431.1    8.2      44.599
2014   11        4    21  52    6.73   431.2    8.2      44.627
2014   11        4    21  58    6.73   431.3    8.2      44.656
2014   11        4    22   4    6.73   431.4    8.2      44.686
2014   11        4    22   9    6.73   431.5    8.2      44.717
2014   11        4    22  15    6.74   431.6    8.2      44.748
2014   11        4    22  20    6.74   431.7    8.2      44.778
2014   11        4    22  26    6.74   431.8    8.2      44.809
2014   11        4    22  31    6.74   432.0    8.2      44.840
2014   11        4    22  37    6.74   432.1    8.2      44.870
2014   11        4    22  42    6.74   432.2    8.2      44.900
2014   11        4    22  48    6.75   432.3    8.2      44.929
2014   11        4    22  53    6.75   432.4    8.2      44.958
2014   11        4    22  59    6.75   432.5    8.2      44.985
2014   11        4    23   4    6.75   432.6    8.2      45.011
2014   11        4    23  10    6.75   432.7    8.2      45.037
2014   11        4    23  16    6.75   432.9    8.2      45.061
2014   11        4    23  21    6.75   433.0    8.2      45.084
2014   11        4    23  27    6.76   433.1    8.2      45.107
2014   11        4    23  32    6.76   433.2    8.2      45.129
2014   11        4    23  38    6.76   433.3    8.2      45.149
2014   11        4    23  43    6.76   433.4    8.2      45.169
2014   11        4    23  49    6.76   433.5    8.2      45.188
2014   11        4    23  54    6.76   433.6    8.2      45.206
2014   11        5     0   0    6.76   433.8    8.2      45.224
2014   11        5     0   5    6.77   433.9    8.2      45.241
2014   11        5     0  11    6.77   434.0    8.2      45.257
2014   11        5     0  16    6.77   434.1    8.2      45.273
2014   11        5     0  22    6.77   434.2    8.2      45.288
2014   11        5     0  27    6.77   434.3    8.2      45.302
2014   11        5     0  33    6.77   434.4    8.2      45.316
2014   11        5     0  38    6.77   434.5    8.2      45.330
2014   11        5     0  44    6.77   434.6    8.2      45.343
2014   11        5     0  50    6.77   434.8    8.2      45.355
2014   11        5     0  55    6.78   434.9    8.2      45.367
2014   11        5     1   1    6.78   435.0    8.2      45.378
2014   11        5     1   6    6.78   435.1    8.2      45.389
2014   11        5     1  12    6.78   435.2    8.2      45.400
2014   11        5     1  17    6.78   435.3    8.2      45.410
2014   11        5     1  23    6.78   435.4    8.2      45.420
2014   11        5     1  28    6.78   435.5    8.2      45.430
2014   11        5     1  34    6.78   435.6    8.2      45.439
2014   11        5     1  39    6.78   435.7    8.2      45.448
2014   11        5     1  45    6.78   435.9    8.2      45.456
2014   11        5     1  50    6.79   436.0    8.2      45.465
2014   11        5     1  56    6.79   436.1    8.2      45.472
2014   11        5     2   1    6.79   436.2    8.2      45.480
2014   11        5     2   7    6.79   436.3    8.2      45.488
2014   11        5     2  12    6.79   436.4    8.2      45.495
2014   11        5     2  18    6.79   436.5    8.2      45.502
2014   11        5     2  23    6.79   436.6    8.2      45.509
2014   11        5     2  29    6.79   436.7    8.1      45.515
2014   11        5     2  35    6.79   436.8    8.1      45.522
2014   11        5     2  40    6.80   436.9    8.1      45.528
2014   11        5     2  46    6.80   437.0    8.1      45.534
2014   11        5     2  51    6.80   437.1    8.1      45.540
2014   11        5     2  57    6.80   437.2    8.1      45.546
2014   11        5     3   2    6.80   437.3    8.1      45.552
2014   11        5     3   8    6.80   437.4    8.1      45.557
2014   11        5     3  13    6.80   437.5    8.1      45.563
2014   11        5     3  19    6.80   437.6    8.1      45.569
2014   11        5     3  24    6.80   437.7    8.1      45.575
2014   11        5     3  30    6.81   437.8    8.1      45.581
2014   11        5     3  35    6.81   437.9    8.1      45.588
2014   11        5     3  41    6.81   438.1    8.1      45.594
2014   11        5     3  46    6.81   438.2    8.1      45.601
2014   11        5     3  52    6.81   438.3    8.1      45.608
2014   11        5     3  57    6.81   438.4    8.1      45.616
2014   11        5     4   3    6.81   438.5    8.1      45.624
2014   11        5     4   9    6.82   438.6    8.1      45.633
2014   11        5     4  14    6.82   438.7    8.1      45.642
2014   11        5     4  20    6.82   438.8    8.1      45.652
2014   11        5     4  25    6.82   438.9    8.1      45.662
2014   11        5     4  31    6.82   439.0    8.1      45.674
2014   11        5     4  36    6.82   439.1    8.1      45.686
2014   11        5     4  42    6.82   439.2    8.1      45.700
2014   11        5     4  47    6.83   439.3    8.1      45.714
2014   11        5     4  53    6.83   439.4    8.1      45.731
2014   11        5     4  58    6.83   439.5    8.1      45.748
2014   11        5     5   4    6.83   439.6    8.1      45.767
2014   11        5     5   9    6.83   439.7    8.1      45.788
2014   11        5     5  15    6.84   439.8    8.1      45.809
2014   11        5     5  21    6.84   439.9    8.1      45.831
2014   11        5     5  26    6.84   440.0    8.1      45.854
2014   11        5     5  32    6.84   440.2    8.1      45.877
2014   11        5     5  37    6.84   440.3    8.1      45.901
2014   11        5     5  43    6.84   440.4    8.1      45.925
2014   11        5     5  48    6.85   440.5    8.1      45.949
2014   11        5     5  54    6.85   440.6    8.1      45.973
2014   11        5     5  59    6.85   440.8    8.1      45.996
2014   11        5     6   5    6.85   440.9    8.1      46.020
2014   11        5     6  10    6.85   441.0    8.1      46.043
2014   11        5     6  16    6.85   441.2    8.1      46.065
2014   11        5     6  21    6.85   441.3    8.1      46.087
2014   11        5     6  27    6.85   441.4    8.1      46.107
2014   11        5     6  33    6.86   441.5    8.1      46.127
2014   11        5     6  38    6.86   441.7    8.1      46.146
2014   11        5     6  44    6.86   441.8    8.1      46.165
2014   11        5     6  49    6.86   441.9    8.1      46.182
2014   11        5     6  55    6.86   442.1    8.1      46.199
2014   11        5     7   0    6.86   442.2    8.1      46.216
2014   11        5     7   6    6.86   442.3    8.1      46.232
2014   11        5     7  11    6.86   442.4    8.1      46.247
2014   11        5     7  17    6.86   442.6    8.1      46.262
2014   11        5     7  22    6.87   442.7    8.1      46.276
2014   11        5     7  28    6.87   442.8    8.1      46.290
2014   11        5     7  33    6.87   443.0    8.1      46.303
2014   11        5     7  39    6.87   443.1    8.1      46.316
2014   11        5     7  44    6.87   443.2    8.1      46.329
2014   11        5     7  50    6.87   443.3    8.1      46.341
2014   11        5     7  55    6.87   443.5    8.1      46.353
2014   11        5     8   1    6.87   443.6    8.1      46.365
2014   11        5     8   6    6.87   443.7    8.1      46.376
2014   11        5     8  12    6.87   443.9    8.1      46.388
2014   11        5     8  18    6.88   444.0    8.1      46.398
2014   11        5     8  23    6.88   444.1    8.1      46.409
2014   11        5     8  29    6.88   444.3    8.1      46.420
2014   11        5     8  34    6.88   444.4    8.1      46.430
2014   11        5     8  40    6.88   444.5    8.1      46.440
2014   11        5     8  45    6.88   444.6    8.1      46.450
2014   11        5     8  51    6.88   444.8    8.1      46.461
2014   11        5     8  56    6.88   444.9    8.1      46.471
2014   11        5     9   2    6.88   445.0    8.1      46.481
2014   11        5     9   7    6.88   445.2    8.0      46.490
2014   11        5     9  13    6.89   445.3    8.0      46.500
2014   11        5     9  18    6.89   445.4    8.0      46.511
2014   11        5     9  24    6.89   445.5    8.0      46.521
2014   11        5     9  29    6.89   445.7    8.0      46.531
2014   11        5     9  35    6.89   445.8    8.0      46.541
2014   11        5     9  40    6.89   445.9    8.0      46.552
2014   11        5     9  46    6.89   446.0    8.0      46.563
2014   11        5     9  51    6.89   446.2    8.0      46.573
2014   11        5     9  57    6.90   446.3    8.0      46.584
2014   11        5    10   2    6.90   446.4    8.0      46.595
2014   11        5    10   8    6.90   446.6    8.0      46.605
2014   11        5    10  14    6.90   446.7    8.0      46.616
2014   11        5    10  19    6.90   446.8    8.0      46.627
2014   11        5    10  25    6.90   447.0    8.0      46.637
2014   11        5    10  30    6.90   447.1    8.0      46.648
2014   11        5    10  36    6.90   447.2    8.0      46.659
2014   11        5    10  41    6.91   447.3    8.0      46.669
2014   11        5    10  47    6.91   447.5    8.0      46.679
2014   11        5    10  52    6.91   447.6    8.0      46.690
2014   11        5    10  58    6.91   447.7    8.0      46.700
2014   11        5    11   3    6.91   447.9    8.0      46.710
2014   11        5    11   9    6.91   448.0    8.0      46.720
2014   11        5    11  14    6.91   448.1    8.0      46.730
2014   11        5    11  20    6.91   448.3    8.0      46.740
2014   11        5    11  25    6.92   448.4    8.0      46.751
2014   11        5    11  31    6.92   448.5    8.0      46.761
2014   11        5    11  36    6.92   448.6    8.0      46.772
2014   11        5    11  42    6.92   448.8    8.0      46.783
2014   11        5    11  48    6.92   448.9    8.0      46.794
2014   11        5    11  53    6.92   449.1    8.0      46.805
2014   11        5    11  59    6.92   449.2    8.0      46.816
2014   11        5    12   4    6.92   449.3    7.9      46.827
2014   11        5    12  10    6.92   449.5    7.9      46.837
2014   11        5    12  15    6.93   449.6    7.9      46.848
2014   11        5    12  21    6.93   449.7    7.9      46.859
2014   11        5    12  26    6.93   449.9    7.9      46.869
2014   11        5    12  32    6.93   450.0    7.9      46.880
2014   11        5    12  37    6.93   450.1    7.9      46.890
2014   11        5    12  43    6.93   450.3    7.9      46.900
2014   11        5    12  48    6.93   450.4    7.9      46.910
2014   11        5    12  54    6.93   450.6    7.9      46.919
2014   11        5    12  59    6.94   450.7    7.9      46.928
2014   11        5    13   5    6.94   450.8    7.9      46.937
2014   11        5    13  11    6.94   451.0    7.9      46.946
2014   11        5    13  16    6.94   451.1    7.9      46.954
2014   11        5    13  22    6.94   451.3    7.9      46.962
2014   11        5    13  27    6.94   451.4    7.9      46.970
2014   11        5    13  33    6.94   451.5    7.9      46.978
2014   11        5    13  38    6.94   451.7    7.9      46.985
2014   11        5    13  44    6.94   451.8    7.9      46.993
2014   11        5    13  49    6.94   451.9    7.9      47.000
2014   11        5    13  55    6.94   452.1    7.9      47.007
2014   11        5    14   0    6.95   452.2    7.9      47.014
2014   11        5    14   6    6.95   452.3    7.9      47.021
2014   11        5    14  11    6.95   452.5    7.9      47.028
2014   11        5    14  17    6.95   452.6    7.9      47.036
2014   11        5    14  22    6.95   452.7    7.9      47.043
2014   11        5    14  28    6.95   452.9    7.9      47.050
2014   11        5    14  34    6.95   453.0    7.9      47.058
2014   11        5    14  39    6.95   453.2    7.8      47.066
2014   11        5    14  45    6.95   453.3    7.8      47.074
2014   11        5    14  50    6.95   453.4    7.8      47.083
2014   11        5    14  56    6.96   453.6    7.8      47.091
2014   11        5    15   1    6.96   453.7    7.8      47.100
2014   11        5    15   7    6.96   453.8    7.8      47.110
2014   11        5    15  12    6.96   454.0    7.8      47.120
2014   11        5    15  18    6.96   454.1    7.8      47.130
2014   11        5    15  23    6.96   454.3    7.8      47.141
2014   11        5    15  29    6.96   454.4    7.8      47.152
2014   11        5    15  34    6.96   454.5    7.8      47.164
2014   11        5    15  40    6.96   454.7    7.8      47.176
2014   11        5    15  45    6.96   454.8    7.8      47.188
2014   11        5    15  51    6.97   455.0    7.8      47.201
2014   11        5    15  56    6.97   455.1    7.8      47.215
2014   11        5    16   2    6.97   455.2    7.8      47.230
2014   11        5    16   7    6.97   455.4    7.8      47.246
2014   11        5    16  13    6.97   455.5    7.8      47.263
2014   11        5    16  18    6.97   455.7    7.8      47.281
2014   11        5    16  24    6.97   455.8    7.8      47.299
2014   11        5    16  29    6.97   456.0    7.8      47.318
2014   11        5    16  35    6.98   456.1    7.8      47.337
2014   11        5    16  41    6.98   456.3    7.8      47.357
2014   11        5    16  46    6.98   456.4    7.8      47.377
2014   11        5    16  52    6.98   456.5    7.8      47.397
2014   11        5    16  57    6.98   456.7    7.8      47.418
2014   11        5    17   3    6.98   456.8    7.8      47.439
2014   11        5    17   8    6.98   457.0    7.8      47.461
2014   11        5    17  14    6.99   457.1    7.8      47.482
2014   11        5    17  19    6.99   457.3    7.8      47.503
2014   11        5    17  25    6.99   457.4    7.8      47.525
2014   11        5    17  30    6.99   457.6    7.8      47.547
2014   11        5    17  36    6.99   457.7    7.8      47.569
2014   11        5    17  41    6.99   457.8    7.8      47.592
2014   11        5    17  47    6.99   458.0    7.8      47.615
2014   11        5    17  52    7.00   458.1    7.8      47.639
2014   11        5    17  58    7.00   458.3    7.8      47.663
2014   11        5    18   3    7.00   458.4    7.8      47.686
2014   11        5    18   9    7.00   458.6    7.8      47.710
2014   11        5    18  14    7.00   458.7    7.8      47.733
2014   11        5    18  20    7.00   458.9    7.8      47.756
2014   11        5    18  26    7.00   459.1    7.8      47.779
2014   11        5    18  31    7.01   459.2    7.8      47.803
2014   11        5    18  37    7.01   459.4    7.8      47.825
2014   11        5    18  42    7.01   459.5    7.7      47.848
2014   11        5    18  48    7.01   459.7    7.7      47.870
2014   11        5    18  53    7.01   459.8    7.7      47.891
2014   11        5    18  59    7.01   460.0    7.7      47.912
2014   11        5    19   4    7.01   460.1    7.7      47.932
2014   11        5    19  10    7.01   460.3    7.7      47.952
2014   11        5    19  15    7.02   460.4    7.7      47.972
2014   11        5    19  21    7.02   460.6    7.7      47.991
2014   11        5    19  26    7.02   460.8    7.7      48.010
2014   11        5    19  32    7.02   460.9    7.7      48.028
2014   11        5    19  37    7.02   461.1    7.7      48.046
2014   11        5    19  43    7.02   461.2    7.7      48.064
2014   11        5    19  48    7.02   461.4    7.7      48.082
2014   11        5    19  54    7.02   461.5    7.7      48.099
2014   11        5    19  59    7.03   461.7    7.7      48.116
2014   11        5    20   5    7.03   461.8    7.7      48.133
2014   11        5    20  10    7.03   462.0    7.7      48.150
2014   11        5    20  16    7.03   462.2    7.7      48.166
2014   11        5    20  22    7.03   462.3    7.7      48.182
2014   11        5    20  27    7.03   462.5    7.7      48.199
2014   11        5    20  33    7.03   462.6    7.7      48.215
2014   11        5    20  38    7.03   462.8    7.7      48.231
2014   11        5    20  44    7.03   462.9    7.7      48.247
2014   11        5    20  49    7.03   463.1    7.7      48.263
2014   11        5    20  55    7.04   463.2    7.7      48.279
2014   11        5    21   0    7.04   463.4    7.6      48.294
2014   11        5    21   6    7.04   463.5    7.6      48.310
2014   11        5    21  11    7.04   463.7    7.6      48.327
2014   11        5    21  17    7.04   463.8    7.6      48.343
2014   11        5    21  22    7.04   464.0    7.6      48.359
2014   11        5    21  28    7.04   464.2    7.6      48.375
2014   11        5    21  33    7.04   464.3    7.6      48.392
2014   11        5    21  39    7.05   464.5    7.6      48.408
2014   11        5    21  45    7.05   464.6    7.6      48.425
2014   11        5    21  50    7.05   464.8    7.6      48.443
2014   11        5    21  56    7.05   464.9    7.6      48.460
2014   11        5    22   1    7.05   465.1    7.6      48.478
2014   11        5    22   7    7.05   465.2    7.6      48.497
2014   11        5    22  12    7.05   465.4    7.6      48.516
2014   11        5    22  18    7.05   465.5    7.6      48.535
2014   11        5    22  23    7.06   465.7    7.6      48.556
2014   11        5    22  29    7.06   465.8    7.6      48.577
2014   11        5    22  34    7.06   466.0    7.6      48.598
2014   11        5    22  40    7.06   466.1    7.6      48.621
2014   11        5    22  45    7.06   466.3    7.6      48.645
2014   11        5    22  51    7.06   466.4    7.6      48.669
2014   11        5    22  56    7.06   466.6    7.6      48.694
2014   11        5    23   2    7.07   466.8    7.6      48.721
2014   11        5    23   7    7.07   466.9    7.6      48.748
2014   11        5    23  13    7.07   467.1    7.6      48.776
2014   11        5    23  18    7.07   467.2    7.6      48.805
2014   11        5    23  24    7.07   467.4    7.6      48.836
2014   11        5    23  29    7.07   467.6    7.6      48.868
2014   11        5    23  35    7.07   467.7    7.6      48.902
2014   11        5    23  40    7.08   467.9    7.6      48.937
2014   11        5    23  46    7.08   468.1    7.6      48.973
2014   11        5    23  52    7.08   468.3    7.6      49.010
2014   11        5    23  57    7.08   468.4    7.6      49.048
2014   11        6     0   3    7.08   468.6    7.6      49.087
2014   11        6     0   8    7.09   468.8    7.6      49.128
2014   11        6     0  14    7.09   469.0    7.6      49.169
2014   11        6     0  19    7.09   469.1    7.6      49.211
2014   11        6     0  25    7.09   469.3    7.6      49.254
2014   11        6     0  30    7.09   469.5    7.6      49.298
2014   11        6     0  36    7.09   469.7    7.6      49.341
2014   11        6     0  41    7.10   469.9    7.6      49.384
2014   11        6     0  47    7.10   470.0    7.6      49.427
2014   11        6     0  52    7.10   470.2    7.6      49.470
2014   11        6     0  58    7.10   470.4    7.6      49.513
2014   11        6     1   3    7.10   470.6    7.6      49.556
2014   11        6     1   9    7.11   470.7    7.6      49.599
2014   11        6     1  14    7.11   470.9    7.6      49.642
2014   11        6     1  20    7.11   471.1    7.6      49.684
2014   11        6     1  25    7.11   471.3    7.6      49.726
2014   11        6     1  31    7.11   471.5    7.6      49.769
2014   11        6     1  36    7.11   471.7    7.6      49.810
2014   11        6     1  42    7.11   471.8    7.6      49.852
2014   11        6     1  47    7.12   472.0    7.6      49.893
2014   11        6     1  53    7.12   472.2    7.6      49.934
2014   11        6     1  58    7.12   472.4    7.6      49.975
2014   11        6     2   4    7.12   472.6    7.6      50.015
2014   11        6     2  10    7.12   472.8    7.6      50.055
2014   11        6     2  15    7.12   473.0    7.5      50.095
2014   11        6     2  21    7.12   473.1    7.5      50.135
2014   11        6     2  26    7.13   473.3    7.5      50.174
2014   11        6     2  32    7.13   473.5    7.5      50.213
2014   11        6     2  37    7.13   473.7    7.5      50.251
2014   11        6     2  43    7.13   473.9    7.5      50.290
2014   11        6     2  48    7.13   474.1    7.5      50.328
2014   11        6     2  54    7.13   474.3    7.5      50.366
2014   11        6     2  59    7.13   474.5    7.5      50.404
2014   11        6     3   5    7.14   474.7    7.5      50.442
2014   11        6     3  10    7.14   474.9    7.5      50.479
2014   11        6     3  16    7.14   475.0    7.5      50.517
2014   11        6     3  21    7.14   475.2    7.5      50.556
2014   11        6     3  27    7.14   475.4    7.5      50.594
2014   11        6     3  32    7.14   475.6    7.5      50.634
2014   11        6     3  38    7.14   475.8    7.5      50.674
2014   11        6     3  43    7.14   476.0    7.5      50.714
2014   11        6     3  49    7.15   476.2    7.5      50.755
2014   11        6     3  54    7.15   476.4    7.5      50.796
2014   11        6     4   0    7.15   476.6    7.5      50.837
2014   11        6     4   6    7.15   476.9    7.5      50.879
2014   11        6     4  11    7.15   477.1    7.5      50.921
2014   11        6     4  17    7.15   477.3    7.5      50.963
2014   11        6     4  22    7.15   477.5    7.5      51.005
2014   11        6     4  28    7.16   477.7    7.5      51.047
2014   11        6     4  33    7.16   477.9    7.5      51.090
2014   11        6     4  39    7.16   478.1    7.5      51.133
2014   11        6     4  44    7.16   478.3    7.5      51.175
2014   11        6     4  50    7.16   478.5    7.5      51.218
2014   11        6     4  55    7.16   478.8    7.5      51.260
2014   11        6     5   1    7.17   479.0    7.5      51.303
2014   11        6     5   6    7.17   479.2    7.5      51.346
2014   11        6     5  12    7.17   479.4    7.5      51.389
2014   11        6     5  17    7.17   479.6    7.4      51.432
2014   11        6     5  23    7.17   479.9    7.4      51.476
2014   11        6     5  28    7.17   480.1    7.4      51.521
2014   11        6     5  34    7.18   480.3    7.4      51.566
2014   11        6     5  39    7.18   480.5    7.4      51.611
2014   11        6     5  45    7.18   480.8    7.4      51.657
2014   11        6     5  50    7.18   481.0    7.4      51.705
2014   11        6     5  56    7.19   481.2    7.4      51.753
2014   11        6     6   2    7.19   481.5    7.4      51.802
2014   11        6     6   7    7.19   481.7    7.4      51.852
2014   11        6     6  13    7.19   481.9    7.4      51.903
2014   11        6     6  18    7.20   482.2    7.4      51.956
2014   11        6     6  24    7.20   482.4    7.4      52.010
2014   11        6     6  29    7.20   482.7    7.4      52.065
2014   11        6     6  35    7.20   482.9    7.4      52.121
2014   11        6     6  40    7.21   483.2    7.4      52.178
2014   11        6     6  46    7.21   483.4    7.4      52.237
2014   11        6     6  51    7.21   483.7    7.4      52.297
2014   11        6     6  57    7.22   483.9    7.4      52.358
2014   11        6     7   2    7.22   484.2    7.4      52.421
2014   11        6     7   8    7.22   484.5    7.4      52.484
2014   11        6     7  13    7.23   484.7    7.4      52.548
2014   11        6     7  19    7.23   485.0    7.4      52.613
2014   11        6     7  24    7.24   485.3    7.4      52.679
2014   11        6     7  30    7.24   485.5    7.4      52.745
2014   11        6     7  35    7.24   485.8    7.4      52.812
2014   11        6     7  41    7.25   486.1    7.4      52.880
2014   11        6     7  46    7.25   486.4    7.4      52.949
2014   11        6     7  52    7.26   486.6    7.4      53.019
2014   11        6     7  57    7.26   486.9    7.4      53.090
2014   11        6     8   3    7.26   487.2    7.4      53.162
2014   11        6     8   9    7.27   487.5    7.4      53.235
2014   11        6     8  14    7.27   487.8    7.4      53.308
2014   11        6     8  20    7.28   488.1    7.4      53.382
2014   11        6     8  25    7.28   488.3    7.4      53.458
2014   11        6     8  31    7.29   488.6    7.4      53.535
2014   11        6     8  36    7.29   488.9    7.4      53.613
2014   11        6     8  42    7.30   489.2    7.4      53.693
2014   11        6     8  47    7.30   489.6    7.4      53.773
2014   11        6     8  53    7.31   489.9    7.4      53.855
2014   11        6     8  58    7.31   490.2    7.4      53.937
2014   11        6     9   4    7.32   490.5    7.4      54.018
2014   11        6     9   9    7.32   490.8    7.4      54.100
2014   11        6     9  15    7.33   491.2    7.4      54.181
2014   11        6     9  20    7.34   491.5    7.4      54.263
2014   11        6     9  26    7.34   491.8    7.4      54.343
2014   11        6     9  31    7.35   492.1    7.4      54.422
2014   11        6     9  37    7.35   492.5    7.4      54.500
2014   11        6     9  42    7.36   492.8    7.4      54.577
2014   11        6     9  48    7.36   493.1    7.4      54.652
2014   11        6     9  53    7.37   493.5    7.4      54.725
2014   11        6     9  59    7.37   493.8    7.4      54.798
2014   11        6    10   4    7.38   494.1    7.4      54.869
2014   11        6    10  10    7.38   494.4    7.4      54.939
2014   11        6    10  15    7.39   494.8    7.4      55.009
2014   11        6    10  21    7.39   495.1    7.4      55.076
2014   11        6    10  26    7.40   495.4    7.4      55.144
2014   11        6    10  32    7.40   495.7    7.4      55.210
2014   11        6    10  37    7.41   496.0    7.4      55.278
2014   11        6    10  43    7.41   496.3    7.4      55.346
2014   11        6    10  48    7.42   496.6    7.4      55.415
2014   11        6    10  54    7.42   496.9    7.4      55.484
2014   11        6    10  59    7.43   497.3    7.4      55.555
2014   11        6    11   5    7.43   497.6    7.4      55.626
2014   11        6    11  10    7.44   497.9    7.4      55.697
2014   11        6    11  16    7.44   498.2    7.4      55.769
2014   11        6    11  22    7.45   498.5    7.4      55.843
2014   11        6    11  27    7.45   498.8    7.4      55.919
2014   11        6    11  33    7.46   499.1    7.4      55.998
2014   11        6    11  38    7.47   499.4    7.4      56.078
2014   11        6    11  44    7.47   499.8    7.4      56.160
2014   11        6    11  49    7.48   500.1    7.4      56.242
2014   11        6    11  55    7.48   500.4    7.4      56.325
2014   11        6    12   0    7.49   500.8    7.4      56.407
2014   11        6    12   6    7.49   501.1    7.4      56.489
2014   11        6    12  11    7.50   501.5    7.4      56.569
2014   11        6    12  17    7.50   501.8    7.4      56.649
2014   11        6    12  22    7.50   502.2    7.3      56.728
2014   11        6    12  28    7.51   502.5    7.3      56.804
2014   11        6    12  33    7.51   502.9    7.3      56.877
2014   11        6    12  39    7.51   503.3    7.3      56.946
2014   11        6    12  44    7.52   503.6    7.3      57.012
2014   11        6    12  50    7.52   504.0    7.3      57.075
2014   11        6    12  55    7.52   504.3    7.3      57.134
2014   11        6    13   1    7.52   504.7    7.3      57.190
2014   11        6    13   6    7.52   505.0    7.3      57.243
2014   11        6    13  12    7.53   505.4    7.3      57.292
2014   11        6    13  18    7.53   505.7    7.3      57.339
2014   11        6    13  23    7.53   506.0    7.3      57.383
2014   11        6    13  29    7.53   506.4    7.3      57.425
2014   11        6    13  34    7.53   506.7    7.2      57.464
2014   11        6    13  40    7.53   507.0    7.2      57.501
2014   11        6    13  45    7.53   507.3    7.2      57.538
2014   11        6    13  51    7.53   507.6    7.2      57.575
2014   11        6    13  56    7.53   508.0    7.2      57.614
2014   11        6    14   2    7.53   508.3    7.2      57.653
2014   11        6    14   7    7.53   508.6    7.2      57.694
2014   11        6    14  13    7.53   508.9    7.2      57.736
2014   11        6    14  18    7.53   509.2    7.2      57.778
2014   11        6    14  24    7.52   509.6    7.2      57.820
2014   11        6    14  29    7.52   509.9    7.1      57.862
2014   11        6    14  35    7.52   510.3    7.1      57.904
2014   11        6    14  40    7.52   510.6    7.1      57.947
2014   11        6    14  46    7.52   511.0    7.1      57.987
2014   11        6    14  51    7.51   511.3    7.1      58.024
2014   11        6    14  57    7.51   511.6    7.1      58.057
2014   11        6    15   2    7.51   512.0    7.1      58.087
2014   11        6    15   8    7.50   512.3    7.1      58.114
2014   11        6    15  13    7.50   512.6    7.0      58.137
2014   11        6    15  19    7.49   512.9    7.0      58.156
2014   11        6    15  24    7.49   513.3    7.0      58.173
2014   11        6    15  30    7.48   513.6    7.0      58.186
2014   11        6    15  35    7.47   513.9    7.0      58.197
2014   11        6    15  41    7.47   514.2    6.9      58.205
2014   11        6    15  47    7.46   514.5    6.9      58.210
2014   11        6    15  52    7.45   514.7    6.9      58.213
2014   11        6    15  58    7.45   515.0    6.9      58.214
2014   11        6    16   3    7.44   515.3    6.9      58.215
2014   11        6    16   9    7.43   515.6    6.9      58.214
2014   11        6    16  14    7.43   515.8    6.8      58.212
2014   11        6    16  20    7.42   516.1    6.8      58.208
2014   11        6    16  25    7.41   516.4    6.8      58.203
2014   11        6    16  30    7.40   516.7    6.8      58.198
2014   11        6    16  36    7.40   516.9    6.8      58.193
2014   11        6    16  41    7.39   517.2    6.8      58.186
2014   11        6    16  47    7.38   517.5    6.7      58.179
2014   11        6    16  52    7.37   517.8    6.7      58.173
2014   11        6    16  58    7.36   518.1    6.7      58.167
2014   11        6    17   3    7.36   518.4    6.7      58.160
2014   11        6    17   9    7.35   518.7    6.7      58.151
2014   11        6    17  14    7.34   519.0    6.7      58.143
2014   11        6    17  20    7.33   519.2    6.6      58.136
2014   11        6    17  26    7.32   519.5    6.6      58.126
2014   11        6    17  31    7.31   519.8    6.6      58.114
2014   11        6    17  37    7.30   520.1    6.6      58.100
2014   11        6    17  42    7.29   520.3    6.6      58.085
2014   11        6    17  48    7.28   520.6    6.5      58.069
2014   11        6    17  53    7.27   520.8    6.5      58.052
2014   11        6    17  59    7.26   521.1    6.5      58.034
2014   11        6    18   4    7.25   521.3    6.5      58.016
2014   11        6    18  10    7.23   521.5    6.5      57.997
2014   11        6    18  15    7.22   521.7    6.4      57.980
2014   11        6    18  21    7.21   521.9    6.4      57.962
2014   11        6    18  26    7.20   522.1    6.4      57.945
2014   11        6    18  32    7.19   522.3    6.4      57.928
2014   11        6    18  37    7.18   522.5    6.4      57.913
2014   11        6    18  43    7.17   522.7    6.4      57.898
2014   11        6    18  48    7.16   522.9    6.3      57.885
2014   11        6    18  54    7.15   523.1    6.3      57.872
2014   11        6    18  59    7.14   523.2    6.3      57.860
2014   11        6    19   5    7.13   523.4    6.3      57.848
2014   11        6    19  10    7.12   523.6    6.3      57.838
2014   11        6    19  16    7.11   523.8    6.3      57.829
2014   11        6    19  21    7.10   523.9    6.2      57.823
2014   11        6    19  27    7.09   524.1    6.2      57.819
2014   11        6    19  33    7.08   524.3    6.2      57.818
2014   11        6    19  38    7.07   524.5    6.2      57.819
2014   11        6    19  44    7.06   524.6    6.2      57.824
2014   11        6    19  49    7.05   524.8    6.2      57.834
2014   11        6    19  55    7.04   525.0    6.2      57.849
2014   11        6    20   0    7.03   525.2    6.2      57.868
2014   11        6    20   6    7.02   525.5    6.1      57.892
2014   11        6    20  11    7.01   525.7    6.1      57.918
2014   11        6    20  17    7.00   525.9    6.1      57.948
2014   11        6    20  22    6.99   526.1    6.1      57.981
2014   11        6    20  28    6.98   526.4    6.1      58.014
2014   11        6    20  33    6.97   526.6    6.1      58.046
2014   11        6    20  39    6.96   526.8    6.1      58.077
2014   11        6    20  44    6.95   527.1    6.1      58.107
2014   11        6    20  50    6.94   527.3    6.0      58.135
2014   11        6    20  55    6.93   527.5    6.0      58.161
2014   11        6    21   1    6.92   527.7    6.0      58.185
2014   11        6    21   6    6.91   527.9    6.0      58.206
2014   11        6    21  12    6.90   528.1    6.0      58.225
2014   11        6    21  17    6.89   528.3    6.0      58.242
2014   11        6    21  23    6.88   528.4    6.0      58.256
2014   11        6    21  28    6.87   528.6    5.9      58.269
2014   11        6    21  34    6.86   528.8    5.9      58.280
2014   11        6    21  39    6.84   528.9    5.9      58.290
2014   11        6    21  45    6.83   529.1    5.9      58.299
2014   11        6    21  51    6.82   529.2    5.9      58.309
2014   11        6    21  56    6.81   529.3    5.9      58.318
2014   11        6    22   2    6.80   529.5    5.9      58.327
2014   11        6    22   7    6.79   529.6    5.9      58.337
2014   11        6    22  13    6.78   529.7    5.9      58.346
2014   11        6    22  18    6.77   529.8    5.8      58.356
2014   11        6    22  24    6.76   530.0    5.8      58.368
2014   11        6    22  29    6.75   530.1    5.8      58.381
2014   11        6    22  35    6.74   530.2    5.8      58.396
2014   11        6    22  40    6.73   530.3    5.8      58.414
2014   11        6    22  46    6.72   530.4    5.8      58.435
2014   11        6    22  51    6.71   530.5    5.8      58.457
2014   11        6    22  57    6.70   530.6    5.8      58.481
2014   11        6    23   2    6.69   530.8    5.8      58.506
2014   11        6    23   8    6.69   530.9    5.8      58.533
2014   11        6    23  13    6.68   531.0    5.8      58.561
2014   11        6    23  19    6.67   531.1    5.8      58.590
2014   11        6    23  24    6.66   531.3    5.7      58.620
2014   11        6    23  30    6.65   531.4    5.7      58.649
2014   11        6    23  35    6.64   531.5    5.7      58.679
2014   11        6    23  41    6.63   531.7    5.7      58.709
2014   11        6    23  46    6.62   531.8    5.7      58.738
2014   11        6    23  52    6.61   531.9    5.7      58.766
2014   11        6    23  57    6.60   532.1    5.7      58.791
2014   11        7     0   3    6.60   532.2    5.7      58.814
2014   11        7     0   8    6.59   532.4    5.7      58.834
2014   11        7     0  14    6.58   532.5    5.7      58.852
2014   11        7     0  19    6.57   532.6    5.7      58.866
2014   11        7     0  24    6.56   532.8    5.7      58.877
2014   11        7     0  30    6.55   532.9    5.7      58.885
2014   11        7     0  35    6.54   533.0    5.7      58.889
2014   11        7     0  41    6.53   533.1    5.7      58.890
2014   11        7     0  46    6.52   533.3    5.6      58.887
2014   11        7     0  52    6.52   533.4    5.6      58.880
2014   11        7     0  58    6.51   533.5    5.6      58.869
2014   11        7     1   3    6.50   533.6    5.6      58.854
2014   11        7     1   9    6.49   533.7    5.6      58.836
2014   11        7     1  14    6.48   533.8    5.6      58.814
2014   11        7     1  20    6.47   533.9    5.6      58.789
2014   11        7     1  25    6.46   534.0    5.6      58.762
2014   11        7     1  31    6.45   534.2    5.6      58.731
2014   11        7     1  36    6.45   534.3    5.6      58.697
2014   11        7     1  42    6.44   534.4    5.6      58.661
2014   11        7     1  47    6.43   534.5    5.5      58.622
2014   11        7     1  53    6.42   534.6    5.5      58.581
2014   11        7     1  58    6.41   534.7    5.5      58.537
2014   11        7     2   4    6.40   534.8    5.5      58.491
2014   11        7     2   9    6.40   534.8    5.5      58.442
2014   11        7     2  15    6.39   534.9    5.5      58.391
2014   11        7     2  20    6.38   535.0    5.5      58.338
2014   11        7     2  26    6.37   535.1    5.5      58.282
2014   11        7     2  31    6.36   535.2    5.5      58.223
2014   11        7     2  37    6.36   535.3    5.5      58.162
2014   11        7     2  42    6.35   535.4    5.4      58.099
2014   11        7     2  48    6.34   535.5    5.4      58.033
2014   11        7     2  53    6.33   535.5    5.4      57.965
2014   11        7     2  59    6.32   535.6    5.4      57.895
2014   11        7     3   4    6.32   535.7    5.4      57.823
2014   11        7     3  10    6.31   535.8    5.4      57.748
2014   11        7     3  16    6.30   535.8    5.4      57.672
2014   11        7     3  21    6.29   535.9    5.4      57.593
2014   11        7     3  27    6.29   535.9    5.4      57.513
2014   11        7     3  32    6.28   536.0    5.4      57.431
2014   11        7     3  38    6.27   536.1    5.4      57.348
2014   11        7     3  43    6.26   536.1    5.3      57.263
2014   11        7     3  49    6.26   536.2    5.3      57.176
2014   11        7     3  54    6.25   536.2    5.3      57.088
2014   11        7     4   0    6.24   536.3    5.3      56.999
2014   11        7     4   5    6.23   536.3    5.3      56.908
2014   11        7     4  11    6.23   536.4    5.3      56.816
2014   11        7     4  16    6.22   536.4    5.3      56.724
2014   11        7     4  22    6.21   536.5    5.3      56.630
2014   11        7     4  27    6.21   536.5    5.3      56.535
2014   11        7     4  33    6.20   536.6    5.3      56.440
2014   11        7     4  38    6.19   536.6    5.3      56.344
2014   11        7     4  44    6.18   536.7    5.3      56.248
2014   11        7     4  49    6.18   536.7    5.2      56.151
2014   11        7     4  55    6.17   536.7    5.2      56.055
2014   11        7     5   0    6.16   536.8    5.2      55.959
2014   11        7     5   6    6.16   536.8    5.2      55.863
2014   11        7     5  11    6.15   536.8    5.2      55.768
2014   11        7     5  17    6.14   536.9    5.2      55.673
2014   11        7     5  22    6.13   536.9    5.2      55.580
2014   11        7     5  28    6.13   536.9    5.2      55.487
2014   11        7     5  33    6.12   536.9    5.2      55.395
2014   11        7     5  39    6.11   536.9    5.2      55.305
2014   11        7     5  44    6.11   536.9    5.2      55.214
2014   11        7     5  50    6.10   536.9    5.2      55.125
2014   11        7     5  55    6.09   536.9    5.2      55.035
2014   11        7     6   1    6.09   536.9    5.2      54.946
2014   11        7     6   6    6.08   536.9    5.2      54.856
2014   11        7     6  12    6.07   536.9    5.2      54.767
2014   11        7     6  17    6.07   536.8    5.2      54.677
2014   11        7     6  23    6.06   536.8    5.1      54.586
2014   11        7     6  28    6.05   536.8    5.1      54.494
2014   11        7     6  34    6.05   536.7    5.1      54.403
2014   11        7     6  39    6.04   536.7    5.1      54.311
2014   11        7     6  45    6.03   536.6    5.1      54.220
2014   11        7     6  50    6.03   536.6    5.1      54.129
2014   11        7     6  56    6.02   536.5    5.1      54.039
2014   11        7     7   1    6.01   536.4    5.1      53.948
2014   11        7     7   7    6.01   536.4    5.1      53.860
2014   11        7     7  12    6.00   536.3    5.1      53.771
2014   11        7     7  18    6.00   536.3    5.1      53.682
2014   11        7     7  23    5.99   536.2    5.1      53.594
2014   11        7     7  29    5.99   536.1    5.1      53.510
2014   11        7     7  34    5.98   536.1    5.1      53.427
2014   11        7     7  40    5.98   536.0    5.1      53.346
2014   11        7     7  45    5.97   536.0    5.1      53.268
2014   11        7     7  51    5.96   535.9    5.1      53.193
2014   11        7     7  56    5.96   535.9    5.1      53.118
2014   11        7     8   2    5.95   535.8    5.1      53.046
2014   11        7     8   7    5.95   535.8    5.1      52.974
2014   11        7     8  13    5.94   535.7    5.1      52.903
2014   11        7     8  18    5.94   535.7    5.1      52.833
2014   11        7     8  24    5.93   535.6    5.1      52.765
2014   11        7     8  29    5.93   535.6    5.1      52.698
2014   11        7     8  35    5.92   535.6    5.1      52.632
2014   11        7     8  40    5.92   535.5    5.1      52.567
2014   11        7     8  46    5.91   535.5    5.1      52.502
2014   11        7     8  51    5.91   535.4    5.1      52.437
2014   11        7     8  57    5.90   535.4    5.1      52.372
2014   11        7     9   2    5.90   535.3    5.1      52.306
2014   11        7     9   8    5.89   535.3    5.1      52.241
2014   11        7     9  13    5.89   535.2    5.1      52.176
2014   11        7     9  19    5.88   535.1    5.1      52.111
2014   11        7     9  24    5.88   535.1    5.1      52.047
2014   11        7     9  30    5.87   535.0    5.1      51.981
2014   11        7     9  35    5.87   534.9    5.1      51.916
2014   11        7     9  41    5.86   534.9    5.1      51.851
2014   11        7     9  46    5.86   534.8    5.1      51.785
2014   11        7     9  52    5.85   534.7    5.1      51.719
2014   11        7     9  58    5.85   534.6    5.1      51.654
2014   11        7    10   3    5.84   534.6    5.1      51.588
2014   11        7    10   9    5.84   534.5    5.1      51.522
2014   11        7    10  14    5.83   534.4    5.1      51.457
2014   11        7    10  20    5.83   534.3    5.1      51.392
2014   11        7    10  25    5.82   534.2    5.1      51.329
2014   11        7    10  31    5.82   534.1    5.1      51.265
2014   11        7    10  36    5.82   534.0    5.1      51.202
2014   11        7    10  42    5.81   533.9    5.1      51.141
2014   11        7    10  47    5.81   533.8    5.1      51.082
2014   11        7    10  53    5.80   533.7    5.1      51.024
2014   11        7    10  58    5.80   533.7    5.1      50.968
2014   11        7    11   4    5.80   533.6    5.1      50.913
2014   11        7    11   9    5.79   533.5    5.1      50.860
2014   11        7    11  15    5.79   533.4    5.1      50.807
2014   11        7    11  20    5.78   533.3    5.1      50.755
2014   11        7    11  26    5.78   533.3    5.1      50.702
2014   11        7    11  31    5.78   533.2    5.1      50.650
2014   11        7    11  37    5.77   533.1    5.1      50.598
2014   11        7    11  42    5.77   533.1    5.1      50.545
2014   11        7    11  48    5.77   533.0    5.1      50.492
2014   11        7    11  53    5.76   533.0    5.1      50.439
2014   11        7    11  59    5.76   532.9    5.0      50.385
2014   11        7    12   4    5.76   532.9    5.0      50.329
2014   11        7    12  10    5.75   532.8    5.0      50.272
2014   11        7    12  15    5.75   532.7    5.0      50.214
2014   11        7    12  21    5.75   532.7    5.0      50.155
2014   11        7    12  26    5.74   532.6    5.0      50.094
2014   11        7    12  32    5.74   532.6    5.0      50.033
2014   11        7    12  38    5.74   532.5    5.0      49.971
2014   11        7    12  43    5.73   532.5    5.0      49.908
2014   11        7    12  49    5.73   532.4    5.0      49.844
2014   11        7    12  54    5.73   532.4    5.0      49.779
2014   11        7    13   0    5.72   532.3    5.0      49.715
2014   11        7    13   5    5.72   532.3    5.0      49.649
2014   11        7    13  11    5.72   532.3    5.0      49.583
2014   11        7    13  16    5.71   532.2    5.0      49.516
2014   11        7    13  21    5.71   532.2    5.0      49.449
2014   11        7    13  27    5.71   532.1    5.0      49.382
2014   11        7    13  32    5.70   532.1    5.0      49.314
2014   11        7    13  38    5.70   532.0    5.0      49.246
2014   11        7    13  43    5.70   532.0    5.0      49.178
2014   11        7    13  49    5.69   531.9    4.9      49.109
2014   11        7    13  54    5.69   531.9    4.9      49.041
2014   11        7    14   0    5.69   531.8    4.9      48.972
2014   11        7    14   5    5.69   531.8    4.9      48.904
2014   11        7    14  11    5.68   531.7    4.9      48.834
2014   11        7    14  16    5.68   531.7    4.9      48.766
2014   11        7    14  22    5.68   531.6    4.9      48.696
2014   11        7    14  27    5.67   531.6    4.9      48.627
2014   11        7    14  33    5.67   531.5    4.9      48.558
2014   11        7    14  38    5.67   531.5    4.9      48.489
2014   11        7    14  44    5.66   531.4    4.9      48.419
2014   11        7    14  49    5.66   531.4    4.9      48.350
2014   11        7    14  55    5.66   531.3    4.9      48.281
2014   11        7    15   0    5.66   531.2    4.9      48.212
2014   11        7    15   6    5.65   531.2    4.9      48.142
2014   11        7    15  11    5.65   531.1    4.9      48.074
2014   11        7    15  17    5.65   531.1    4.8      48.004
2014   11        7    15  22    5.64   531.0    4.8      47.935
2014   11        7    15  28    5.64   530.9    4.8      47.867
2014   11        7    15  33    5.64   530.9    4.8      47.798
2014   11        7    15  39    5.63   530.8    4.8      47.730
2014   11        7    15  44    5.63   530.8    4.8      47.663
2014   11        7    15  50    5.63   530.7    4.8      47.595
2014   11        7    15  55    5.63   530.6    4.8      47.529
2014   11        7    16   1    5.62   530.5    4.8      47.462
2014   11        7    16   6    5.62   530.5    4.8      47.397
2014   11        7    16  12    5.62   530.4    4.8      47.331
2014   11        7    16  17    5.62   530.3    4.8      47.267
2014   11        7    16  23    5.61   530.3    4.8      47.203
2014   11        7    16  28    5.61   530.2    4.8      47.139
2014   11        7    16  34    5.61   530.1    4.8      47.077
2014   11        7    16  39    5.61   530.0    4.8      47.014
2014   11        7    16  45    5.60   530.0    4.8      46.953
2014   11        7    16  50    5.60   529.9    4.8      46.894
2014   11        7    16  56    5.60   529.8    4.8      46.835
2014   11        7    17   1    5.60   529.7    4.8      46.778
2014   11        7    17   7    5.59   529.6    4.7      46.722
2014   11        7    17  12    5.59   529.6    4.7      46.667
2014   11        7    17  18    5.59   529.5    4.7      46.613
2014   11        7    17  23    5.59   529.4    4.7      46.560
2014   11        7    17  29    5.59   529.3    4.7      46.508
2014   11        7    17  34    5.58   529.2    4.7      46.457
2014   11        7    17  40    5.58   529.2    4.7      46.406
2014   11        7    17  45    5.58   529.1    4.7      46.356
2014   11        7    17  51    5.58   529.0    4.7      46.307
2014   11        7    17  56    5.57   528.9    4.7      46.259
2014   11        7    18   2    5.57   528.8    4.7      46.211
2014   11        7    18   8    5.57   528.8    4.7      46.164
2014   11        7    18  13    5.57   528.7    4.7      46.116
2014   11        7    18  19    5.57   528.6    4.7      46.070
2014   11        7    18  24    5.56   528.5    4.7      46.023
2014   11        7    18  30    5.56   528.4    4.7      45.977
2014   11        7    18  35    5.56   528.3    4.7      45.931
2014   11        7    18  41    5.56   528.2    4.7      45.886
2014   11        7    18  46    5.56   528.1    4.7      45.840
2014   11        7    18  52    5.55   528.1    4.7      45.796
2014   11        7    18  57    5.55   528.0    4.7      45.752
2014   11        7    19   3    5.55   527.9    4.7      45.708
2014   11        7    19   8    5.55   527.8    4.7      45.664
2014   11        7    19  14    5.54   527.7    4.7      45.621
2014   11        7    19  19    5.54   527.6    4.7      45.578
2014   11        7    19  25    5.54   527.5    4.7      45.536
2014   11        7    19  30    5.54   527.4    4.7      45.494
2014   11        7    19  36    5.54   527.3    4.7      45.453
2014   11        7    19  41    5.53   527.2    4.7      45.412
2014   11        7    19  47    5.53   527.0    4.7      45.372
2014   11        7    19  52    5.53   526.9    4.7      45.331
2014   11        7    19  58    5.53   526.8    4.7      45.292
2014   11        7    20   3    5.53   526.7    4.7      45.252
2014   11        7    20   9    5.53   526.6    4.7      45.213
2014   11        7    20  14    5.52   526.5    4.7      45.174
2014   11        7    20  20    5.52   526.4    4.7      45.136
2014   11        7    20  25    5.52   526.3    4.7      45.097
2014   11        7    20  31    5.52   526.2    4.7      45.060
2014   11        7    20  36    5.52   526.0    4.7      45.023
2014   11        7    20  42    5.51   525.9    4.7      44.986
2014   11        7    20  47    5.51   525.8    4.7      44.949
2014   11        7    20  53    5.51   525.7    4.7      44.913
2014   11        7    20  58    5.51   525.6    4.7      44.876
2014   11        7    21   4    5.51   525.5    4.7      44.839
2014   11        7    21   9    5.51   525.3    4.7      44.803
2014   11        7    21  15    5.51   525.2    4.7      44.766
2014   11        7    21  20    5.50   525.1    4.7      44.729
2014   11        7    21  26    5.50   525.0    4.7      44.692
2014   11        7    21  31    5.50   524.9    4.7      44.655
2014   11        7    21  36    5.50   524.8    4.7      44.618
2014   11        7    21  42    5.50   524.6    4.7      44.580
2014   11        7    21  47    5.50   524.5    4.7      44.542
2014   11        7    21  53    5.50   524.4    4.7      44.504
2014   11        7    21  58    5.49   524.3    4.7      44.466
2014   11        7    22   4    5.49   524.2    4.7      44.427
2014   11        7    22   9    5.49   524.0    4.6      44.388
2014   11        7    22  15    5.49   523.9    4.6      44.349
2014   11        7    22  20    5.49   523.8    4.6      44.310
2014   11        7    22  26    5.49   523.7    4.6      44.271
2014   11        7    22  31    5.49   523.5    4.6      44.232
2014   11        7    22  37    5.49   523.4    4.6      44.192
2014   11        7    22  42    5.49   523.3    4.6      44.153
2014   11        7    22  48    5.48   523.2    4.6      44.114
2014   11        7    22  53    5.48   523.0    4.6      44.074
2014   11        7    22  59    5.48   522.9    4.6      44.035
2014   11        7    23   4    5.48   522.8    4.6      43.996
2014   11        7    23  10    5.48   522.7    4.6      43.957
2014   11        7    23  15    5.48   522.5    4.6      43.918
2014   11        7    23  21    5.48   522.4    4.6      43.879
2014   11        7    23  26    5.48   522.3    4.6      43.840
2014   11        7    23  32    5.48   522.2    4.6      43.801
2014   11        7    23  37    5.47   522.0    4.6      43.762
2014   11        7    23  43    5.47   521.9    4.6      43.724
2014   11        7    23  48    5.47   521.8    4.6      43.685
2014   11        7    23  54    5.47   521.6    4.6      43.647
2014   11        7    23  59    5.47   521.5    4.6      43.608
2014   11        8     0   5    5.47   521.4    4.6      43.570
2014   11        8     0  10    5.47   521.2    4.6      43.532
2014   11        8     0  16    5.47   521.1    4.6      43.493
2014   11        8     0  21    5.47   521.0    4.6      43.455
2014   11        8     0  27    5.47   520.8    4.6      43.417
2014   11        8     0  32    5.46   520.7    4.6      43.379
2014   11        8     0  38    5.46   520.6    4.6      43.340
2014   11        8     0  43    5.46   520.4    4.6      43.302
2014   11        8     0  49    5.46   520.3    4.6      43.264
2014   11        8     0  54    5.46   520.2    4.6      43.226
2014   11        8     1   0    5.46   520.0    4.6      43.188
2014   11        8     1   5    5.46   519.9    4.6      43.150
2014   11        8     1  11    5.46   519.7    4.6      43.112
2014   11        8     1  17    5.46   519.6    4.6      43.074
2014   11        8     1  22    5.46   519.5    4.6      43.036
2014   11        8     1  28    5.46   519.3    4.6      42.999
2014   11        8     1  33    5.45   519.2    4.6      42.961
2014   11        8     1  39    5.45   519.0    4.6      42.924
2014   11        8     1  44    5.45   518.9    4.6      42.887
2014   11        8     1  50    5.45   518.8    4.6      42.850
2014   11        8     1  55    5.45   518.6    4.6      42.814
2014   11        8     2   1    5.45   518.5    4.6      42.778
2014   11        8     2   6    5.45   518.3    4.6      42.742
2014   11        8     2  12    5.45   518.2    4.6      42.706
2014   11        8     2  17    5.45   518.1    4.6      42.671
2014   11        8     2  23    5.45   517.9    4.6      42.636
2014   11        8     2  28    5.45   517.8    4.6      42.602
2014   11        8     2  34    5.45   517.6    4.6      42.568
2014   11        8     2  39    5.44   517.5    4.6      42.534
2014   11        8     2  45    5.44   517.4    4.6      42.501
2014   11        8     2  50    5.44   517.2    4.6      42.468
2014   11        8     2  56    5.44   517.1    4.6      42.436
2014   11        8     3   1    5.44   516.9    4.6      42.404
2014   11        8     3   7    5.44   516.8    4.6      42.373
2014   11        8     3  12    5.44   516.7    4.6      42.342
2014   11        8     3  18    5.44   516.5    4.6      42.312
2014   11        8     3  23    5.44   516.4    4.6      42.282
2014   11        8     3  29    5.44   516.2    4.6      42.254
2014   11        8     3  34    5.44   516.1    4.6      42.226
2014   11        8     3  40    5.44   516.0    4.6      42.199
2014   11        8     3  45    5.44   515.8    4.6      42.173
2014   11        8     3  51    5.44   515.7    4.6      42.147
2014   11        8     3  56    5.44   515.5    4.6      42.121
2014   11        8     4   2    5.44   515.4    4.6      42.096
2014   11        8     4   7    5.43   515.3    4.6      42.072
2014   11        8     4  13    5.43   515.1    4.6      42.048
2014   11        8     4  18    5.43   515.0    4.6      42.024
2014   11        8     4  24    5.43   514.8    4.6      42.001
2014   11        8     4  29    5.43   514.7    4.6      41.978
2014   11        8     4  34    5.43   514.5    4.6      41.955
2014   11        8     4  40    5.43   514.4    4.6      41.932
2014   11        8     4  45    5.43   514.3    4.6      41.910
2014   11        8     4  51    5.43   514.1    4.6      41.887
2014   11        8     4  56    5.43   514.0    4.6      41.865
2014   11        8     5   2    5.43   513.8    4.6      41.843
2014   11        8     5   7    5.43   513.7    4.6      41.821
2014   11        8     5  13    5.43   513.5    4.6      41.799
2014   11        8     5  18    5.43   513.4    4.6      41.777
2014   11        8     5  24    5.43   513.2    4.6      41.755
2014   11        8     5  29    5.43   513.1    4.6      41.734
2014   11        8     5  35    5.43   512.9    4.6      41.712
2014   11        8     5  40    5.43   512.8    4.6      41.691
2014   11        8     5  45    5.43   512.6    4.6      41.670
2014   11        8     5  51    5.43   512.5    4.6      41.649
2014   11        8     5  56    5.43   512.3    4.6      41.628
2014   11        8     6   2    5.43   512.2    4.6      41.607
2014   11        8     6   7    5.43   512.0    4.6      41.586
2014   11        8     6  13    5.43   511.9    4.6      41.566
2014   11        8     6  18    5.43   511.7    4.6      41.545
2014   11        8     6  24    5.43   511.6    4.6      41.525
2014   11        8     6  29    5.43   511.4    4.6      41.505
2014   11        8     6  35    5.43   511.2    4.6      41.486
2014   11        8     6  40    5.43   511.1    4.6      41.466
2014   11        8     6  46    5.43   510.9    4.6      41.447
2014   11        8     6  51    5.43   510.8    4.7      41.428
2014   11        8     6  57    5.43   510.6    4.7      41.410
2014   11        8     7   2    5.43   510.4    4.7      41.392
2014   11        8     7   8    5.43   510.3    4.7      41.374
2014   11        8     7  13    5.43   510.1    4.7      41.356
2014   11        8     7  19    5.43   509.9    4.7      41.339
2014   11        8     7  25    5.43   509.8    4.7      41.323
2014   11        8     7  30    5.43   509.6    4.7      41.307
2014   11        8     7  36    5.43   509.5    4.7      41.291
2014   11        8     7  41    5.43   509.3    4.7      41.276
2014   11        8     7  47    5.43   509.1    4.7      41.262
2014   11        8     7  52    5.43   509.0    4.7      41.248
2014   11        8     7  58    5.43   508.8    4.7      41.235
2014   11        8     8   3    5.43   508.6    4.7      41.223
2014   11        8     8   9    5.43   508.5    4.7      41.211
2014   11        8     8  14    5.43   508.3    4.7      41.200
2014   11        8     8  20    5.43   508.2    4.7      41.190
2014   11        8     8  25    5.43   508.0    4.7      41.179
2014   11        8     8  31    5.43   507.8    4.7      41.169
2014   11        8     8  36    5.43   507.7    4.7      41.159
2014   11        8     8  42    5.44   507.5    4.7      41.150
2014   11        8     8  47    5.44   507.4    4.7      41.140
2014   11        8     8  53    5.44   507.2    4.7      41.130
2014   11        8     8  58    5.44   507.1    4.7      41.120
2014   11        8     9   4    5.44   506.9    4.7      41.111
2014   11        8     9   9    5.44   506.8    4.7      41.101
2014   11        8     9  15    5.44   506.6    4.7      41.090
2014   11        8     9  20    5.44   506.4    4.7      41.080
2014   11        8     9  26    5.44   506.3    4.7      41.070
2014   11        8     9  31    5.44   506.1    4.7      41.060
2014   11        8     9  37    5.44   506.0    4.7      41.050
2014   11        8     9  42    5.45   505.8    4.7      41.039
2014   11        8     9  48    5.45   505.7    4.7      41.029
2014   11        8     9  53    5.45   505.5    4.7      41.020
2014   11        8     9  59    5.45   505.4    4.7      41.011
2014   11        8    10   4    5.45   505.2    4.7      41.002
2014   11        8    10  10    5.45   505.1    4.8      40.995
2014   11        8    10  15    5.45   504.9    4.8      40.987
2014   11        8    10  21    5.45   504.8    4.8      40.980
2014   11        8    10  26    5.46   504.6    4.8      40.973
2014   11        8    10  32    5.46   504.5    4.8      40.967
2014   11        8    10  37    5.46   504.3    4.8      40.960
2014   11        8    10  43    5.46   504.2    4.8      40.954
2014   11        8    10  48    5.46   504.1    4.8      40.948
2014   11        8    10  54    5.46   503.9    4.8      40.941
2014   11        8    10  59    5.46   503.8    4.8      40.935
2014   11        8    11   5    5.47   503.7    4.8      40.929
2014   11        8    11  10    5.47   503.5    4.8      40.923
2014   11        8    11  16    5.47   503.4    4.8      40.916
2014   11        8    11  21    5.47   503.3    4.8      40.909
2014   11        8    11  27    5.47   503.1    4.8      40.902
2014   11        8    11  32    5.47   503.0    4.8      40.895
2014   11        8    11  38    5.47   502.9    4.8      40.887
2014   11        8    11  43    5.48   502.8    4.8      40.879
2014   11        8    11  49    5.48   502.6    4.8      40.871
2014   11        8    11  54    5.48   502.5    4.8      40.864
2014   11        8    11  59    5.48   502.4    4.8      40.855
2014   11        8    12   5    5.48   502.3    4.8      40.847
2014   11        8    12  10    5.48   502.1    4.8      40.839
2014   11        8    12  16    5.49   502.0    4.8      40.831
2014   11        8    12  21    5.49   501.9    4.8      40.823
2014   11        8    12  27    5.49   501.8    4.8      40.815
2014   11        8    12  32    5.49   501.7    4.8      40.807
2014   11        8    12  38    5.49   501.5    4.8      40.800
2014   11        8    12  43    5.50   501.4    4.9      40.792
2014   11        8    12  49    5.50   501.3    4.9      40.785
2014   11        8    12  54    5.50   501.2    4.9      40.778
2014   11        8    12  59    5.50   501.1    4.9      40.771
2014   11        8    13   5    5.50   500.9    4.9      40.764
2014   11        8    13  10    5.51   500.8    4.9      40.758
2014   11        8    13  16    5.51   500.7    4.9      40.752
2014   11        8    13  21    5.51   500.6    4.9      40.746
2014   11        8    13  27    5.51   500.5    4.9      40.741
2014   11        8    13  32    5.51   500.4    4.9      40.736
2014   11        8    13  38    5.52   500.3    4.9      40.732
2014   11        8    13  43    5.52   500.1    4.9      40.728
2014   11        8    13  49    5.52   500.0    4.9      40.724
2014   11        8    13  54    5.52   499.9    4.9      40.722
2014   11        8    14   0    5.53   499.8    4.9      40.719
2014   11        8    14   5    5.53   499.7    4.9      40.717
2014   11        8    14  11    5.53   499.6    4.9      40.716
2014   11        8    14  16    5.53   499.5    4.9      40.716
2014   11        8    14  22    5.54   499.4    4.9      40.716
2014   11        8    14  27    5.54   499.3    4.9      40.718
2014   11        8    14  33    5.54   499.2    4.9      40.720
2014   11        8    14  38    5.54   499.1    4.9      40.724
2014   11        8    14  44    5.55   499.0    4.9      40.729
2014   11        8    14  49    5.55   498.9    5.0      40.734
2014   11        8    14  55    5.55   498.8    5.0      40.741
2014   11        8    15   0    5.55   498.7    5.0      40.748
2014   11        8    15   6    5.56   498.6    5.0      40.756
2014   11        8    15  11    5.56   498.5    5.0      40.764
2014   11        8    15  17    5.56   498.4    5.0      40.774
2014   11        8    15  22    5.56   498.3    5.0      40.784
2014   11        8    15  28    5.57   498.2    5.0      40.794
2014   11        8    15  33    5.57   498.1    5.0      40.805
2014   11        8    15  39    5.57   498.0    5.0      40.816
2014   11        8    15  45    5.57   497.9    5.0      40.827
2014   11        8    15  50    5.58   497.8    5.0      40.838
2014   11        8    15  56    5.58   497.8    5.0      40.850
2014   11        8    16   1    5.58   497.7    5.0      40.862
2014   11        8    16   7    5.59   497.6    5.0      40.875
2014   11        8    16  12    5.59   497.5    5.0      40.889
2014   11        8    16  18    5.59   497.4    5.0      40.903
2014   11        8    16  23    5.60   497.3    5.0      40.917
2014   11        8    16  29    5.60   497.2    5.1      40.931
2014   11        8    16  34    5.60   497.2    5.1      40.946
2014   11        8    16  40    5.60   497.1    5.1      40.961
2014   11        8    16  45    5.61   497.0    5.1      40.977
2014   11        8    16  51    5.61   496.9    5.1      40.992
2014   11        8    16  56    5.61   496.8    5.1      41.009
2014   11        8    17   2    5.62   496.7    5.1      41.025
2014   11        8    17   7    5.62   496.7    5.1      41.041
2014   11        8    17  13    5.62   496.6    5.1      41.058
2014   11        8    17  18    5.63   496.5    5.1      41.076
2014   11        8    17  24    5.63   496.4    5.1      41.095
2014   11        8    17  29    5.63   496.3    5.1      41.114
2014   11        8    17  35    5.64   496.3    5.1      41.135
2014   11        8    17  40    5.64   496.2    5.1      41.156
2014   11        8    17  46    5.65   496.1    5.1      41.178
2014   11        8    17  51    5.65   496.1    5.2      41.200
2014   11        8    17  57    5.65   496.0    5.2      41.223
2014   11        8    18   2    5.66   495.9    5.2      41.245
2014   11        8    18   8    5.66   495.9    5.2      41.267
2014   11        8    18  13    5.66   495.8    5.2      41.290
2014   11        8    18  19    5.67   495.8    5.2      41.312
2014   11        8    18  24    5.67   495.7    5.2      41.335
2014   11        8    18  30    5.67   495.7    5.2      41.357
2014   11        8    18  35    5.68   495.6    5.2      41.378
2014   11        8    18  41    5.68   495.5    5.2      41.398
2014   11        8    18  46    5.69   495.5    5.2      41.418
2014   11        8    18  52    5.69   495.4    5.2      41.437
2014   11        8    18  57    5.69   495.4    5.2      41.456
2014   11        8    19   2    5.70   495.3    5.2      41.473
2014   11        8    19   8    5.70   495.3    5.2      41.490
2014   11        8    19  13    5.70   495.2    5.2      41.507
2014   11        8    19  19    5.71   495.2    5.2      41.523
2014   11        8    19  24    5.71   495.2    5.2      41.539
2014   11        8    19  30    5.72   495.1    5.3      41.555
2014   11        8    19  35    5.72   495.1    5.3      41.570
2014   11        8    19  41    5.72   495.0    5.3      41.585
2014   11        8    19  46    5.73   495.0    5.3      41.600
2014   11        8    19  52    5.73   494.9    5.3      41.614
2014   11        8    19  57    5.74   494.9    5.3      41.629
2014   11        8    20   2    5.74   494.9    5.3      41.643
2014   11        8    20   8    5.74   494.8    5.3      41.658
2014   11        8    20  13    5.75   494.8    5.3      41.673
2014   11        8    20  19    5.75   494.7    5.3      41.688
2014   11        8    20  24    5.75   494.7    5.3      41.703
2014   11        8    20  30    5.76   494.7    5.3      41.718
2014   11        8    20  35    5.76   494.6    5.3      41.733
2014   11        8    20  41    5.77   494.6    5.3      41.750
2014   11        8    20  46    5.77   494.6    5.3      41.767
2014   11        8    20  52    5.78   494.6    5.3      41.785
2014   11        8    20  57    5.78   494.5    5.3      41.804
2014   11        8    21   3    5.78   494.5    5.3      41.824
2014   11        8    21   8    5.79   494.5    5.3      41.844
2014   11        8    21  14    5.79   494.5    5.3      41.865
2014   11        8    21  19    5.80   494.5    5.4      41.887
2014   11        8    21  25    5.80   494.5    5.4      41.908
2014   11        8    21  30    5.81   494.4    5.4      41.931
2014   11        8    21  36    5.81   494.4    5.4      41.954
2014   11        8    21  41    5.81   494.4    5.4      41.978
2014   11        8    21  47    5.82   494.4    5.4      42.002
2014   11        8    21  52    5.82   494.4    5.4      42.028
2014   11        8    21  58    5.83   494.4    5.4      42.054
2014   11        8    22   3    5.83   494.5    5.4      42.080
2014   11        8    22   9    5.84   494.5    5.4      42.107
2014   11        8    22  14    5.84   494.5    5.4      42.135
2014   11        8    22  20    5.85   494.5    5.4      42.162
2014   11        8    22  25    5.85   494.5    5.4      42.191
2014   11        8    22  31    5.85   494.5    5.4      42.219
2014   11        8    22  36    5.86   494.5    5.4      42.248
2014   11        8    22  42    5.86   494.6    5.4      42.277
2014   11        8    22  47    5.87   494.6    5.4      42.306
2014   11        8    22  53    5.87   494.6    5.4      42.336
2014   11        8    22  58    5.88   494.6    5.5      42.365
2014   11        8    23   4    5.88   494.6    5.5      42.395
2014   11        8    23   9    5.88   494.7    5.5      42.424
2014   11        8    23  15    5.89   494.7    5.5      42.453
2014   11        8    23  21    5.89   494.7    5.5      42.483
2014   11        8    23  26    5.90   494.7    5.5      42.512
2014   11        8    23  32    5.90   494.8    5.5      42.542
2014   11        8    23  37    5.91   494.8    5.5      42.571
2014   11        8    23  43    5.91   494.8    5.5      42.601
2014   11        8    23  48    5.92   494.8    5.5      42.631
2014   11        8    23  54    5.92   494.9    5.5      42.661
2014   11        8    23  59    5.92   494.9    5.5      42.691
2014   11        9     0   5    5.93   494.9    5.5      42.722
2014   11        9     0  10    5.93   495.0    5.5      42.753
2014   11        9     0  16    5.94   495.0    5.5      42.785
2014   11        9     0  21    5.94   495.1    5.5      42.817
2014   11        9     0  27    5.95   495.1    5.5      42.850
2014   11        9     0  32    5.95   495.1    5.5      42.883
2014   11        9     0  38    5.95   495.2    5.5      42.917
2014   11        9     0  43    5.96   495.2    5.6      42.950
2014   11        9     0  49    5.96   495.3    5.6      42.984
2014   11        9     0  54    5.97   495.3    5.6      43.019
2014   11        9     1   0    5.97   495.4    5.6      43.053
2014   11        9     1   5    5.98   495.4    5.6      43.088
2014   11        9     1  11    5.98   495.5    5.6      43.123
2014   11        9     1  16    5.98   495.5    5.6      43.158
2014   11        9     1  22    5.99   495.6    5.6      43.193
2014   11        9     1  27    5.99   495.6    5.6      43.228
2014   11        9     1  33    6.00   495.7    5.6      43.263
2014   11        9     1  38    6.00   495.7    5.6      43.297
2014   11        9     1  44    6.01   495.8    5.6      43.332
2014   11        9     1  49    6.01   495.8    5.6      43.367
2014   11        9     1  55    6.01   495.9    5.6      43.403
2014   11        9     2   0    6.02   495.9    5.6      43.438
2014   11        9     2   5    6.02   496.0    5.6      43.473
2014   11        9     2  11    6.03   496.0    5.6      43.509
2014   11        9     2  16    6.03   496.1    5.6      43.545
2014   11        9     2  22    6.03   496.1    5.6      43.582
2014   11        9     2  27    6.04   496.2    5.6      43.619
2014   11        9     2  33    6.04   496.3    5.6      43.656
2014   11        9     2  38    6.05   496.3    5.7      43.694
2014   11        9     2  44    6.05   496.4    5.7      43.733
2014   11        9     2  49    6.06   496.4    5.7      43.771
2014   11        9     2  55    6.06   496.5    5.7      43.810
2014   11        9     3   0    6.06   496.6    5.7      43.848
2014   11        9     3   5    6.07   496.6    5.7      43.886
2014   11        9     3  11    6.07   496.7    5.7      43.925
2014   11        9     3  16    6.08   496.8    5.7      43.963
2014   11        9     3  22    6.08   496.9    5.7      44.002
2014   11        9     3  27    6.09   496.9    5.7      44.040
2014   11        9     3  33    6.09   497.0    5.7      44.078
2014   11        9     3  38    6.09   497.1    5.7      44.115
2014   11        9     3  44    6.10   497.1    5.7      44.152
2014   11        9     3  49    6.10   497.2    5.7      44.188
2014   11        9     3  55    6.11   497.3    5.7      44.225
2014   11        9     4   0    6.11   497.4    5.7      44.261
2014   11        9     4   6    6.12   497.5    5.7      44.298
2014   11        9     4  11    6.12   497.5    5.7      44.335
2014   11        9     4  17    6.13   497.6    5.7      44.373
2014   11        9     4  22    6.13   497.7    5.7      44.410
2014   11        9     4  28    6.13   497.8    5.7      44.449
2014   11        9     4  33    6.14   497.9    5.7      44.487
2014   11        9     4  39    6.14   498.0    5.7      44.526
2014   11        9     4  44    6.15   498.1    5.7      44.564
2014   11        9     4  50    6.15   498.2    5.8      44.604
2014   11        9     4  55    6.16   498.3    5.8      44.644
2014   11        9     5   1    6.16   498.4    5.8      44.685
2014   11        9     5   6    6.17   498.5    5.8      44.727
2014   11        9     5  12    6.17   498.6    5.8      44.769
2014   11        9     5  17    6.18   498.7    5.8      44.811
2014   11        9     5  23    6.18   498.8    5.8      44.853
2014   11        9     5  28    6.18   498.9    5.8      44.895
2014   11        9     5  34    6.19   499.1    5.8      44.937
2014   11        9     5  39    6.19   499.2    5.8      44.978
2014   11        9     5  45    6.20   499.3    5.8      45.019
2014   11        9     5  50    6.20   499.4    5.8      45.061
2014   11        9     5  56    6.21   499.6    5.8      45.102
2014   11        9     6   1    6.21   499.7    5.8      45.142
2014   11        9     6   7    6.21   499.8    5.8      45.181
2014   11        9     6  12    6.22   499.9    5.8      45.221
2014   11        9     6  18    6.22   500.1    5.8      45.259
2014   11        9     6  23    6.23   500.2    5.8      45.298
2014   11        9     6  29    6.23   500.3    5.8      45.336
2014   11        9     6  34    6.24   500.5    5.8      45.375
2014   11        9     6  40    6.24   500.6    5.8      45.413
2014   11        9     6  45    6.24   500.7    5.8      45.451
2014   11        9     6  51    6.25   500.9    5.8      45.489
2014   11        9     6  56    6.25   501.0    5.8      45.526
2014   11        9     7   2    6.26   501.2    5.8      45.564
2014   11        9     7   8    6.26   501.3    5.8      45.601
2014   11        9     7  13    6.26   501.4    5.8      45.638
2014   11        9     7  19    6.27   501.6    5.8      45.675
2014   11        9     7  24    6.27   501.7    5.8      45.711
2014   11        9     7  30    6.28   501.9    5.8      45.748
2014   11        9     7  35    6.28   502.0    5.8      45.783
2014   11        9     7  41    6.28   502.1    5.8      45.819
2014   11        9     7  46    6.29   502.3    5.8      45.854
2014   11        9     7  52    6.29   502.4    5.8      45.889
2014   11        9     7  57    6.29   502.6    5.8      45.924
2014   11        9     8   3    6.30   502.7    5.8      45.959
2014   11        9     8   8    6.30   502.8    5.8      45.993
2014   11        9     8  14    6.30   503.0    5.8      46.028
2014   11        9     8  19    6.31   503.1    5.8      46.062
2014   11        9     8  25    6.31   503.2    5.8      46.097
2014   11        9     8  30    6.32   503.4    5.8      46.132
2014   11        9     8  36    6.32   503.5    5.8      46.167
2014   11        9     8  41    6.32   503.6    5.8      46.203
2014   11        9     8  47    6.33   503.8    5.8      46.238
2014   11        9     8  52    6.33   503.9    5.8      46.275
2014   11        9     8  58    6.33   504.0    5.8      46.311
2014   11        9     9   3    6.34   504.2    5.8      46.349
2014   11        9     9   8    6.34   504.3    5.8      46.387
2014   11        9     9  14    6.34   504.5    5.8      46.425
2014   11        9     9  19    6.35   504.6    5.8      46.465
2014   11        9     9  25    6.35   504.7    5.8      46.505
2014   11        9     9  30    6.36   504.9    5.8      46.546
2014   11        9     9  36    6.36   505.0    5.8      46.588
2014   11        9     9  41    6.36   505.1    5.8      46.631
2014   11        9     9  47    6.37   505.3    5.8      46.676
2014   11        9     9  52    6.37   505.4    5.8      46.722
2014   11        9     9  58    6.37   505.5    5.8      46.769
2014   11        9    10   3    6.38   505.7    5.8      46.817
2014   11        9    10   9    6.38   505.8    5.8      46.866
2014   11        9    10  14    6.39   506.0    5.9      46.916
2014   11        9    10  19    6.39   506.1    5.9      46.968
2014   11        9    10  25    6.39   506.2    5.9      47.020
2014   11        9    10  30    6.40   506.4    5.9      47.073
2014   11        9    10  36    6.40   506.5    5.9      47.126
2014   11        9    10  41    6.41   506.7    5.9      47.181
2014   11        9    10  47    6.41   506.8    5.9      47.236
2014   11        9    10  52    6.41   507.0    5.9      47.291
2014   11        9    10  58    6.42   507.1    5.9      47.345
2014   11        9    11   3    6.42   507.3    5.9      47.399
2014   11        9    11   9    6.42   507.4    5.9      47.452
2014   11        9    11  14    6.43   507.6    5.9      47.506
2014   11        9    11  20    6.43   507.7    5.9      47.559
2014   11        9    11  25    6.43   507.9    5.9      47.611
2014   11        9    11  31    6.44   508.0    5.9      47.663
2014   11        9    11  36    6.44   508.2    5.9      47.714
2014   11        9    11  42    6.45   508.4    5.9      47.765
2014   11        9    11  47    6.45   508.5    5.9      47.815
2014   11        9    11  53    6.45   508.6    5.9      47.865
2014   11        9    11  58    6.46   508.8    5.9      47.914
2014   11        9    12   4    6.46   509.0    5.9      47.964
2014   11        9    12   9    6.46   509.1    5.9      48.014
2014   11        9    12  15    6.47   509.3    5.9      48.065
2014   11        9    12  20    6.47   509.4    5.9      48.117
2014   11        9    12  26    6.48   509.6    5.9      48.170
2014   11        9    12  31    6.48   509.7    5.9      48.223
2014   11        9    12  37    6.48   509.9    5.9      48.276
2014   11        9    12  42    6.49   510.1    5.9      48.331
2014   11        9    12  48    6.49   510.2    5.9      48.387
2014   11        9    12  53    6.49   510.4    5.9      48.444
2014   11        9    12  59    6.50   510.6    5.9      48.503
2014   11        9    13   4    6.50   510.8    5.9      48.563
2014   11        9    13  10    6.51   510.9    5.9      48.624
2014   11        9    13  15    6.51   511.1    5.9      48.685
2014   11        9    13  21    6.51   511.3    5.9      48.747
2014   11        9    13  26    6.52   511.5    5.9      48.809
2014   11        9    13  32    6.52   511.7    5.9      48.871
2014   11        9    13  37    6.53   511.9    5.9      48.933
2014   11        9    13  43    6.53   512.1    5.9      48.994
2014   11        9    13  48    6.53   512.3    5.9      49.056
2014   11        9    13  54    6.54   512.5    5.9      49.116
2014   11        9    13  59    6.54   512.7    6.0      49.175
2014   11        9    14   5    6.54   513.0    6.0      49.233
2014   11        9    14  10    6.55   513.2    6.0      49.289
2014   11        9    14  16    6.55   513.4    6.0      49.344
2014   11        9    14  21    6.55   513.6    5.9      49.398
2014   11        9    14  27    6.56   513.8    5.9      49.451
2014   11        9    14  32    6.56   514.0    5.9      49.503
2014   11        9    14  38    6.56   514.3    5.9      49.553
2014   11        9    14  44    6.57   514.5    5.9      49.603
2014   11        9    14  49    6.57   514.7    5.9      49.652
2014   11        9    14  55    6.57   514.9    5.9      49.700
2014   11        9    15   0    6.58   515.1    5.9      49.747
2014   11        9    15   6    6.58   515.3    5.9      49.793
2014   11        9    15  11    6.58   515.6    5.9      49.839
2014   11        9    15  17    6.58   515.8    5.9      49.885
2014   11        9    15  22    6.59   516.0    5.9      49.930
2014   11        9    15  28    6.59   516.2    5.9      49.974
2014   11        9    15  33    6.59   516.4    5.9      50.018
2014   11        9    15  39    6.60   516.6    5.9      50.062
2014   11        9    15  44    6.60   516.9    5.9      50.106
2014   11        9    15  50    6.60   517.1    5.9      50.149
2014   11        9    15  55    6.60   517.3    5.9      50.193
2014   11        9    16   0    6.61   517.5    5.9      50.236
2014   11        9    16   6    6.61   517.7    5.9      50.280
2014   11        9    16  11    6.61   517.9    5.9      50.324
2014   11        9    16  17    6.62   518.2    5.9      50.368
2014   11        9    16  22    6.62   518.4    5.9      50.413
2014   11        9    16  28    6.62   518.6    5.9      50.458
2014   11        9    16  33    6.63   518.8    5.9      50.505
2014   11        9    16  39    6.63   519.0    5.9      50.552
2014   11        9    16  44    6.63   519.2    5.9      50.601
2014   11        9    16  50    6.64   519.5    5.9      50.651
2014   11        9    16  55    6.64   519.7    5.9      50.704
2014   11        9    17   1    6.64   519.9    5.9      50.760
2014   11        9    17   6    6.65   520.1    5.9      50.819
2014   11        9    17  12    6.65   520.4    5.9      50.881
2014   11        9    17  17    6.65   520.6    5.9      50.946
2014   11        9    17  22    6.66   520.9    5.9      51.012
2014   11        9    17  28    6.66   521.1    5.9      51.081
2014   11        9    17  33    6.66   521.3    5.9      51.151
2014   11        9    17  39    6.67   521.6    5.9      51.223
2014   11        9    17  44    6.67   521.8    5.9      51.297
2014   11        9    17  50    6.67   522.1    5.9      51.372
2014   11        9    17  55    6.67   522.4    5.9      51.448
2014   11        9    18   1    6.68   522.6    5.9      51.524
2014   11        9    18   6    6.68   522.9    5.9      51.599
2014   11        9    18  12    6.68   523.1    5.9      51.674
2014   11        9    18  17    6.69   523.4    5.9      51.748
2014   11        9    18  23    6.69   523.6    5.9      51.822
2014   11        9    18  28    6.69   523.9    5.9      51.894
2014   11        9    18  33    6.69   524.1    5.9      51.966
2014   11        9    18  39    6.70   524.4    5.9      52.037
2014   11        9    18  44    6.70   524.6    5.9      52.108
2014   11        9    18  50    6.70   524.9    5.9      52.177
2014   11        9    18  55    6.70   525.1    5.9      52.246
2014   11        9    19   1    6.71   525.4    5.9      52.314
2014   11        9    19   6    6.71   525.6    5.9      52.381
2014   11        9    19  12    6.71   525.9    5.9      52.447
2014   11        9    19  17    6.72   526.1    5.9      52.513
2014   11        9    19  23    6.72   526.4    5.9      52.579
2014   11        9    19  28    6.72   526.6    5.9      52.644
2014   11        9    19  34    6.72   526.9    5.9      52.709
2014   11        9    19  40    6.73   527.1    5.9      52.773
2014   11        9    19  45    6.73   527.4    5.9      52.836
2014   11        9    19  51    6.73   527.6    5.9      52.900
2014   11        9    19  56    6.73   527.9    5.9      52.964
2014   11        9    20   2    6.74   528.1    5.9      53.029
2014   11        9    20   7    6.74   528.3    5.9      53.095
2014   11        9    20  13    6.74   528.6    5.9      53.162
2014   11        9    20  18    6.74   528.8    5.9      53.229
2014   11        9    20  24    6.75   529.1    5.9      53.298
2014   11        9    20  29    6.75   529.4    5.9      53.366
2014   11        9    20  35    6.75   529.6    5.9      53.435
2014   11        9    20  40    6.75   529.9    5.9      53.504
2014   11        9    20  46    6.76   530.1    5.9      53.572
2014   11        9    20  51    6.76   530.4    5.9      53.640
2014   11        9    20  57    6.76   530.7    5.9      53.707
2014   11        9    21   2    6.77   531.0    5.9      53.774
2014   11        9    21   8    6.77   531.3    5.9      53.840
2014   11        9    21  13    6.77   531.6    5.9      53.904
2014   11        9    21  19    6.77   531.8    5.9      53.966
2014   11        9    21  24    6.77   532.1    5.9      54.026
2014   11        9    21  30    6.78   532.4    5.9      54.085
2014   11        9    21  35    6.78   532.7    5.9      54.142
2014   11        9    21  41    6.78   533.0    5.9      54.198
2014   11        9    21  46    6.78   533.3    5.9      54.253
2014   11        9    21  52    6.78   533.6    5.9      54.306
2014   11        9    21  57    6.79   533.9    5.8      54.358
2014   11        9    22   3    6.79   534.2    5.8      54.409
2014   11        9    22   8    6.79   534.5    5.8      54.459
2014   11        9    22  14    6.79   534.8    5.8      54.508
2014   11        9    22  19    6.79   535.1    5.8      54.556
2014   11        9    22  25    6.79   535.4    5.8      54.603
2014   11        9    22  30    6.80   535.7    5.8      54.650
2014   11        9    22  36    6.80   536.0    5.8      54.696
2014   11        9    22  41    6.80   536.3    5.8      54.741
2014   11        9    22  47    6.80   536.6    5.8      54.786
2014   11        9    22  52    6.80   536.9    5.8      54.830
2014   11        9    22  58    6.80   537.2    5.8      54.874
2014   11        9    23   3    6.80   537.5    5.8      54.916
2014   11        9    23   9    6.80   537.8    5.8      54.959
2014   11        9    23  14    6.81   538.1    5.8      55.001
2014   11        9    23  20    6.81   538.4    5.8      55.043
2014   11        9    23  25    6.81   538.7    5.8      55.085
2014   11        9    23  31    6.81   539.0    5.8      55.127
2014   11        9    23  36    6.81   539.3    5.8      55.168
2014   11        9    23  42    6.81   539.7    5.8      55.210
2014   11        9    23  47    6.81   540.0    5.7      55.251
2014   11        9    23  53    6.81   540.3    5.7      55.294
2014   11        9    23  58    6.81   540.5    5.7      55.336
2014   11       10     0   4    6.81   540.8    5.7      55.379
2014   11       10     0   9    6.81   541.1    5.7      55.423
2014   11       10     0  15    6.81   541.4    5.7      55.470
2014   11       10     0  20    6.82   541.8    5.7      55.518
2014   11       10     0  26    6.82   542.1    5.7      55.569
2014   11       10     0  31    6.82   542.4    5.7      55.623
2014   11       10     0  36    6.82   542.7    5.7      55.679
2014   11       10     0  42    6.82   543.0    5.7      55.737
2014   11       10     0  47    6.82   543.3    5.7      55.797
2014   11       10     0  53    6.82   543.7    5.7      55.858
2014   11       10     0  58    6.82   544.0    5.7      55.919
2014   11       10     1   4    6.82   544.3    5.7      55.981
2014   11       10     1   9    6.82   544.7    5.7      56.043
2014   11       10     1  15    6.82   545.0    5.7      56.105
2014   11       10     1  20    6.82   545.3    5.7      56.167
2014   11       10     1  25    6.82   545.7    5.7      56.227
2014   11       10     1  31    6.82   546.0    5.7      56.286
2014   11       10     1  36    6.82   546.3    5.7      56.343
2014   11       10     1  42    6.82   546.7    5.6      56.398
2014   11       10     1  47    6.82   547.0    5.6      56.451
2014   11       10     1  53    6.82   547.3    5.6      56.503
2014   11       10     1  58    6.81   547.7    5.6      56.552
2014   11       10     2   4    6.81   548.0    5.6      56.601
2014   11       10     2   9    6.81   548.3    5.6      56.648
2014   11       10     2  15    6.81   548.7    5.6      56.693
2014   11       10     2  20    6.81   549.0    5.6      56.737
2014   11       10     2  26    6.81   549.4    5.6      56.780
2014   11       10     2  31    6.81   549.7    5.6      56.821
2014   11       10     2  37    6.81   550.1    5.6      56.861
2014   11       10     2  42    6.81   550.4    5.6      56.899
2014   11       10     2  48    6.80   550.7    5.5      56.935
2014   11       10     2  53    6.80   551.1    5.5      56.970
2014   11       10     2  59    6.80   551.4    5.5      57.004
2014   11       10     3   4    6.80   551.7    5.5      57.037
2014   11       10     3  10    6.80   552.0    5.5      57.069
2014   11       10     3  15    6.80   552.3    5.5      57.099
2014   11       10     3  21    6.79   552.6    5.5      57.129
2014   11       10     3  26    6.79   552.9    5.5      57.159
2014   11       10     3  32    6.79   553.2    5.5      57.188
2014   11       10     3  38    6.79   553.5    5.5      57.218
2014   11       10     3  43    6.79   553.8    5.5      57.247
2014   11       10     3  49    6.79   554.2    5.4      57.277
2014   11       10     3  54    6.78   554.5    5.4      57.307
2014   11       10     4   0    6.78   554.8    5.4      57.336
2014   11       10     4   5    6.78   555.1    5.4      57.365
2014   11       10     4  11    6.78   555.4    5.4      57.394
2014   11       10     4  16    6.78   555.7    5.4      57.421
2014   11       10     4  22    6.77   556.0    5.4      57.448
2014   11       10     4  27    6.77   556.3    5.4      57.474
2014   11       10     4  33    6.77   556.6    5.4      57.498
2014   11       10     4  38    6.77   556.9    5.4      57.522
2014   11       10     4  44    6.77   557.3    5.4      57.544
2014   11       10     4  49    6.76   557.6    5.4      57.565
2014   11       10     4  55    6.76   557.9    5.3      57.585
2014   11       10     5   0    6.76   558.2    5.3      57.603
2014   11       10     5   6    6.76   558.4    5.3      57.619
2014   11       10     5  11    6.75   558.7    5.3      57.634
2014   11       10     5  17    6.75   559.0    5.3      57.649
2014   11       10     5  22    6.75   559.3    5.3      57.663
2014   11       10     5  28    6.75   559.6    5.3      57.676
2014   11       10     5  33    6.74   559.8    5.3      57.689
2014   11       10     5  39    6.74   560.1    5.3      57.703
2014   11       10     5  44    6.74   560.4    5.3      57.718
2014   11       10     5  50    6.73   560.7    5.3      57.733
2014   11       10     5  55    6.73   561.0    5.2      57.748
2014   11       10     6   1    6.73   561.2    5.2      57.763
2014   11       10     6   6    6.72   561.5    5.2      57.778
2014   11       10     6  12    6.72   561.8    5.2      57.792
2014   11       10     6  17    6.72   562.1    5.2      57.806
2014   11       10     6  23    6.72   562.4    5.2      57.820
2014   11       10     6  28    6.71   562.7    5.2      57.832
2014   11       10     6  34    6.71   563.0    5.2      57.844
2014   11       10     6  39    6.71   563.3    5.2      57.854
2014   11       10     6  45    6.70   563.6    5.2      57.862
2014   11       10     6  50    6.70   563.9    5.2      57.869
2014   11       10     6  56    6.69   564.2    5.1      57.875
2014   11       10     7   1    6.69   564.5    5.1      57.880
2014   11       10     7   7    6.69   564.8    5.1      57.883
2014   11       10     7  12    6.68   565.0    5.1      57.887
2014   11       10     7  18    6.68   565.3    5.1      57.889
2014   11       10     7  23    6.67   565.6    5.1      57.891
2014   11       10     7  29    6.67   565.8    5.1      57.893
2014   11       10     7  34    6.67   566.1    5.1      57.893
2014   11       10     7  39    6.66   566.4    5.1      57.894
2014   11       10     7  45    6.66   566.6    5.1      57.893
2014   11       10     7  50    6.65   566.9    5.0      57.892
2014   11       10     7  56    6.65   567.1    5.0      57.891
2014   11       10     8   1    6.64   567.4    5.0      57.889
2014   11       10     8   7    6.64   567.6    5.0      57.887
2014   11       10     8  12    6.64   567.9    5.0      57.884
2014   11       10     8  18    6.63   568.1    5.0      57.881
2014   11       10     8  23    6.63   568.4    5.0      57.878
2014   11       10     8  29    6.62   568.6    5.0      57.873
2014   11       10     8  34    6.62   568.9    5.0      57.869
2014   11       10     8  39    6.61   569.1    5.0      57.863
2014   11       10     8  45    6.61   569.3    5.0      57.857
2014   11       10     8  50    6.60   569.6    4.9      57.850
2014   11       10     8  56    6.60   569.8    4.9      57.843
2014   11       10     9   1    6.59   570.0    4.9      57.835
2014   11       10     9   7    6.59   570.2    4.9      57.827
2014   11       10     9  12    6.58   570.5    4.9      57.818
2014   11       10     9  18    6.58   570.7    4.9      57.810
2014   11       10     9  23    6.57   570.9    4.9      57.802
2014   11       10     9  29    6.57   571.1    4.9      57.794
2014   11       10     9  34    6.56   571.4    4.9      57.785
2014   11       10     9  40    6.56   571.6    4.9      57.777
2014   11       10     9  45    6.55   571.8    4.9      57.768
2014   11       10     9  51    6.55   572.0    4.9      57.758
2014   11       10     9  56    6.54   572.2    4.9      57.749
2014   11       10    10   2    6.54   572.4    4.8      57.741
2014   11       10    10   7    6.53   572.6    4.8      57.734
2014   11       10    10  13    6.53   572.8    4.8      57.728
2014   11       10    10  18    6.52   573.0    4.8      57.722
2014   11       10    10  24    6.52   573.1    4.8      57.717
2014   11       10    10  29    6.51   573.3    4.8      57.711
2014   11       10    10  35    6.51   573.5    4.8      57.707
2014   11       10    10  40    6.50   573.6    4.8      57.702
2014   11       10    10  46    6.50   573.8    4.8      57.699
2014   11       10    10  51    6.49   574.0    4.8      57.696
2014   11       10    10  57    6.49   574.1    4.8      57.693
2014   11       10    11   2    6.48   574.3    4.8      57.691
2014   11       10    11   8    6.48   574.5    4.8      57.689
2014   11       10    11  13    6.47   574.7    4.8      57.687
2014   11       10    11  19    6.47   574.9    4.8      57.683
2014   11       10    11  25    6.46   575.0    4.7      57.678
2014   11       10    11  30    6.46   575.2    4.7      57.672
2014   11       10    11  36    6.45   575.4    4.7      57.664
2014   11       10    11  41    6.45   575.6    4.7      57.655
2014   11       10    11  47    6.44   575.7    4.7      57.645
2014   11       10    11  52    6.44   575.9    4.7      57.634
2014   11       10    11  58    6.43   576.1    4.7      57.621
2014   11       10    12   3    6.43   576.3    4.7      57.606
2014   11       10    12   9    6.42   576.4    4.7      57.590
2014   11       10    12  14    6.42   576.6    4.7      57.572
2014   11       10    12  20    6.41   576.7    4.7      57.553
2014   11       10    12  25    6.41   576.9    4.7      57.533
2014   11       10    12  31    6.40   577.0    4.7      57.511
2014   11       10    12  36    6.39   577.1    4.6      57.490
2014   11       10    12  42    6.39   577.3    4.6      57.468
2014   11       10    12  47    6.38   577.4    4.6      57.448
2014   11       10    12  53    6.38   577.5    4.6      57.428
2014   11       10    12  58    6.37   577.7    4.6      57.408
2014   11       10    13   4    6.37   577.8    4.6      57.389
2014   11       10    13   9    6.36   578.0    4.6      57.370
2014   11       10    13  15    6.36   578.1    4.6      57.351
2014   11       10    13  20    6.35   578.3    4.6      57.332
2014   11       10    13  26    6.34   578.4    4.6      57.313
2014   11       10    13  31    6.34   578.6    4.6      57.293
2014   11       10    13  37    6.33   578.7    4.6      57.272
2014   11       10    13  42    6.33   578.9    4.6      57.250
2014   11       10    13  48    6.32   579.0    4.5      57.226
2014   11       10    13  53    6.32   579.2    4.5      57.202
2014   11       10    13  59    6.31   579.3    4.5      57.175
2014   11       10    14   4    6.30   579.5    4.5      57.147
2014   11       10    14  10    6.30   579.6    4.5      57.117
2014   11       10    14  15    6.29   579.8    4.5      57.087
2014   11       10    14  21    6.29   579.9    4.5      57.056
2014   11       10    14  26    6.28   580.0    4.5      57.025
2014   11       10    14  32    6.28   580.1    4.5      56.992
2014   11       10    14  37    6.27   580.3    4.5      56.959
2014   11       10    14  42    6.26   580.4    4.5      56.925
2014   11       10    14  48    6.26   580.5    4.5      56.890
2014   11       10    14  53    6.25   580.6    4.5      56.855
2014   11       10    14  59    6.25   580.7    4.4      56.819
2014   11       10    15   4    6.24   580.8    4.4      56.782
2014   11       10    15  10    6.23   580.9    4.4      56.746
2014   11       10    15  15    6.23   581.0    4.4      56.709
2014   11       10    15  21    6.22   581.1    4.4      56.672
2014   11       10    15  26    6.22   581.2    4.4      56.634
2014   11       10    15  32    6.21   581.3    4.4      56.597
2014   11       10    15  37    6.20   581.4    4.4      56.559
2014   11       10    15  42    6.20   581.5    4.4      56.522
2014   11       10    15  48    6.19   581.5    4.4      56.484
2014   11       10    15  53    6.19   581.6    4.4      56.447
2014   11       10    15  59    6.18   581.7    4.4      56.410
2014   11       10    16   4    6.18   581.7    4.4      56.374
2014   11       10    16  10    6.17   581.8    4.4      56.337
2014   11       10    16  15    6.17   581.8    4.4      56.302
2014   11       10    16  21    6.16   581.9    4.4      56.267
2014   11       10    16  26    6.15   581.9    4.3      56.234
2014   11       10    16  32    6.15   582.0    4.3      56.201
2014   11       10    16  37    6.14   582.0    4.3      56.170
2014   11       10    16  43    6.14   582.0    4.3      56.140
2014   11       10    16  48    6.13   582.1    4.3      56.111
2014   11       10    16  54    6.13   582.1    4.3      56.084
2014   11       10    16  59    6.12   582.1    4.3      56.058
2014   11       10    17   5    6.12   582.1    4.3      56.035
2014   11       10    17  10    6.11   582.1    4.3      56.013
2014   11       10    17  16    6.11   582.2    4.3      55.993
2014   11       10    17  21    6.10   582.2    4.3      55.975
2014   11       10    17  27    6.10   582.2    4.3      55.960
2014   11       10    17  32    6.09   582.2    4.3      55.947
2014   11       10    17  38    6.09   582.2    4.3      55.935
2014   11       10    17  43    6.08   582.2    4.3      55.925
2014   11       10    17  49    6.08   582.2    4.3      55.916
2014   11       10    17  54    6.07   582.3    4.3      55.908
2014   11       10    18   0    6.07   582.3    4.3      55.900
2014   11       10    18   5    6.06   582.3    4.3      55.892
2014   11       10    18  11    6.06   582.3    4.3      55.883
2014   11       10    18  16    6.05   582.3    4.3      55.876
2014   11       10    18  22    6.05   582.3    4.3      55.868
2014   11       10    18  27    6.05   582.4    4.3      55.859
2014   11       10    18  33    6.04   582.4    4.3      55.849
2014   11       10    18  38    6.04   582.4    4.3      55.837
2014   11       10    18  44    6.03   582.4    4.3      55.825
2014   11       10    18  49    6.03   582.4    4.3      55.812
2014   11       10    18  55    6.02   582.5    4.3      55.799
2014   11       10    19   0    6.02   582.5    4.3      55.784
2014   11       10    19   6    6.01   582.5    4.3      55.769
2014   11       10    19  12    6.01   582.5    4.3      55.753
2014   11       10    19  17    6.01   582.5    4.2      55.737
2014   11       10    19  23    6.00   582.6    4.2      55.720
2014   11       10    19  28    6.00   582.6    4.2      55.702
2014   11       10    19  34    5.99   582.6    4.2      55.684
2014   11       10    19  39    5.99   582.6    4.2      55.666
2014   11       10    19  45    5.98   582.7    4.2      55.647
2014   11       10    19  50    5.98   582.7    4.2      55.627
2014   11       10    19  56    5.98   582.7    4.2      55.607
2014   11       10    20   1    5.97   582.7    4.2      55.586
2014   11       10    20   7    5.97   582.8    4.2      55.565
2014   11       10    20  12    5.96   582.8    4.2      55.543
2014   11       10    20  18    5.96   582.8    4.2      55.521
2014   11       10    20  23    5.95   582.8    4.2      55.498
2014   11       10    20  29    5.95   582.9    4.2      55.474
2014   11       10    20  34    5.94   582.9    4.2      55.449
2014   11       10    20  40    5.94   582.9    4.2      55.424
2014   11       10    20  45    5.93   582.9    4.2      55.398
2014   11       10    20  51    5.93   582.9    4.2      55.371
2014   11       10    20  56    5.92   583.0    4.2      55.344
2014   11       10    21   2    5.92   583.0    4.2      55.316
2014   11       10    21   7    5.91   583.0    4.2      55.287
2014   11       10    21  13    5.91   583.0    4.2      55.257
2014   11       10    21  18    5.91   583.0    4.2      55.227
2014   11       10    21  24    5.90   583.0    4.2      55.196
2014   11       10    21  29    5.90   583.1    4.2      55.165
2014   11       10    21  34    5.89   583.1    4.2      55.133
2014   11       10    21  40    5.89   583.1    4.1      55.100
2014   11       10    21  45    5.88   583.1    4.1      55.067
2014   11       10    21  51    5.88   583.1    4.1      55.033
2014   11       10    21  56    5.87   583.1    4.1      54.999
2014   11       10    22   2    5.87   583.1    4.1      54.964
2014   11       10    22   7    5.86   583.1    4.1      54.928
2014   11       10    22  13    5.86   583.1    4.1      54.892
2014   11       10    22  18    5.85   583.1    4.1      54.856
2014   11       10    22  24    5.85   583.1    4.1      54.818
2014   11       10    22  29    5.84   583.1    4.1      54.781
2014   11       10    22  35    5.84   583.1    4.1      54.742
2014   11       10    22  40    5.83   583.1    4.1      54.704
2014   11       10    22  45    5.83   583.1    4.1      54.665
2014   11       10    22  51    5.82   583.1    4.1      54.626
2014   11       10    22  56    5.82   583.1    4.1      54.586
2014   11       10    23   2    5.82   583.1    4.1      54.546
2014   11       10    23   7    5.81   583.1    4.1      54.505
2014   11       10    23  13    5.81   583.0    4.1      54.465
2014   11       10    23  18    5.80   583.0    4.1      54.424
2014   11       10    23  24    5.80   583.0    4.1      54.383
2014   11       10    23  29    5.79   583.0    4.1      54.343
2014   11       10    23  35    5.79   582.9    4.1      54.302
2014   11       10    23  40    5.78   582.9    4.1      54.261
2014   11       10    23  46    5.78   582.9    4.0      54.221
2014   11       10    23  51    5.77   582.9    4.0      54.180
2014   11       10    23  57    5.77   582.8    4.0      54.140
2014   11       11     0   2    5.76   582.8    4.0      54.100
2014   11       11     0   8    5.76   582.7    4.0      54.060
2014   11       11     0  13    5.76   582.7    4.0      54.020
2014   11       11     0  19    5.75   582.7    4.0      53.981
2014   11       11     0  24    5.75   582.6    4.0      53.942
2014   11       11     0  30    5.74   582.6    4.0      53.903
2014   11       11     0  35    5.74   582.5    4.0      53.865
2014   11       11     0  41    5.73   582.5    4.0      53.827
2014   11       11     0  46    5.73   582.4    4.0      53.789
2014   11       11     0  52    5.73   582.4    4.0      53.751
2014   11       11     0  57    5.72   582.3    4.0      53.714
2014   11       11     1   3    5.72   582.3    4.0      53.676
2014   11       11     1   8    5.71   582.2    4.0      53.639
2014   11       11     1  14    5.71   582.1    4.0      53.602
2014   11       11     1  19    5.71   582.1    4.0      53.565
2014   11       11     1  25    5.70   582.0    4.0      53.529
2014   11       11     1  30    5.70   582.0    4.0      53.492
2014   11       11     1  36    5.69   581.9    4.0      53.456
2014   11       11     1  41    5.69   581.8    4.0      53.420
2014   11       11     1  47    5.69   581.7    4.0      53.385
2014   11       11     1  52    5.68   581.7    4.0      53.350
2014   11       11     1  58    5.68   581.6    4.0      53.316
2014   11       11     2   3    5.68   581.5    4.0      53.281
2014   11       11     2   9    5.67   581.5    4.0      53.248
2014   11       11     2  14    5.67   581.4    4.0      53.215
2014   11       11     2  20    5.66   581.3    4.0      53.183
2014   11       11     2  25    5.66   581.2    4.0      53.151
2014   11       11     2  31    5.66   581.2    3.9      53.121
2014   11       11     2  36    5.65   581.1    3.9      53.090
2014   11       11     2  42    5.65   581.0    3.9      53.061
2014   11       11     2  48    5.65   580.9    3.9      53.032
2014   11       11     2  53    5.64   580.9    3.9      53.005
2014   11       11     2  59    5.64   580.8    3.9      52.979
2014   11       11     3   4    5.63   580.7    3.9      52.953
2014   11       11     3  10    5.63   580.6    3.9      52.928
2014   11       11     3  15    5.63   580.6    3.9      52.904
2014   11       11     3  21    5.62   580.5    3.9      52.880
2014   11       11     3  26    5.62   580.4    3.9      52.857
2014   11       11     3  32    5.62   580.4    3.9      52.833
2014   11       11     3  37    5.61   580.3    3.9      52.810
2014   11       11     3  43    5.61   580.2    3.9      52.787
2014   11       11     3  48    5.60   580.2    3.9      52.764
2014   11       11     3  54    5.60   580.1    3.9      52.740
2014   11       11     3  59    5.60   580.0    3.9      52.716
2014   11       11     4   5    5.59   579.9    3.9      52.691
2014   11       11     4  10    5.59   579.9    3.9      52.666
2014   11       11     4  16    5.58   579.8    3.9      52.639
2014   11       11     4  21    5.58   579.7    3.9      52.613
2014   11       11     4  27    5.58   579.6    3.9      52.586
2014   11       11     4  32    5.57   579.6    3.9      52.557
2014   11       11     4  37    5.57   579.5    3.9      52.528
2014   11       11     4  43    5.56   579.4    3.9      52.498
2014   11       11     4  48    5.56   579.4    3.9      52.468
2014   11       11     4  54    5.56   579.3    3.9      52.436
2014   11       11     4  59    5.55   579.2    3.9      52.403
2014   11       11     5   5    5.55   579.1    3.9      52.370
2014   11       11     5  10    5.55   579.0    3.9      52.336
2014   11       11     5  16    5.54   579.0    3.9      52.301
2014   11       11     5  21    5.54   578.9    3.9      52.265
2014   11       11     5  27    5.53   578.8    3.9      52.228
2014   11       11     5  32    5.53   578.7    3.9      52.191
2014   11       11     5  38    5.53   578.6    3.9      52.153
2014   11       11     5  43    5.52   578.5    3.9      52.114
2014   11       11     5  48    5.52   578.5    3.9      52.075
2014   11       11     5  54    5.51   578.4    3.9      52.034
2014   11       11     5  59    5.51   578.3    3.9      51.994
2014   11       11     6   5    5.51   578.2    3.9      51.952
2014   11       11     6  10    5.50   578.1    3.9      51.910
2014   11       11     6  16    5.50   578.0    3.9      51.867
2014   11       11     6  21    5.49   577.9    3.9      51.824
2014   11       11     6  27    5.49   577.8    3.8      51.780
2014   11       11     6  32    5.49   577.7    3.8      51.735
2014   11       11     6  38    5.48   577.6    3.8      51.690
2014   11       11     6  43    5.48   577.5    3.8      51.644
2014   11       11     6  49    5.47   577.4    3.8      51.598
2014   11       11     6  54    5.47   577.3    3.8      51.551
2014   11       11     7   0    5.47   577.2    3.8      51.504
2014   11       11     7   5    5.46   577.1    3.8      51.457
2014   11       11     7  10    5.46   577.0    3.8      51.409
2014   11       11     7  16    5.46   576.9    3.8      51.361
2014   11       11     7  21    5.45   576.8    3.8      51.312
2014   11       11     7  27    5.45   576.7    3.8      51.264
2014   11       11     7  32    5.45   576.6    3.8      51.215
2014   11       11     7  38    5.44   576.5    3.8      51.166
2014   11       11     7  43    5.44   576.3    3.8      51.117
2014   11       11     7  49    5.44   576.2    3.8      51.068
2014   11       11     7  55    5.43   576.1    3.8      51.019
2014   11       11     8   0    5.43   576.0    3.8      50.969
2014   11       11     8   6    5.43   575.9    3.8      50.920
2014   11       11     8  11    5.42   575.8    3.8      50.871
2014   11       11     8  17    5.42   575.6    3.8      50.822
2014   11       11     8  22    5.42   575.5    3.8      50.774
2014   11       11     8  28    5.41   575.4    3.8      50.725
2014   11       11     8  33    5.41   575.3    3.8      50.677
2014   11       11     8  39    5.41   575.2    3.8      50.629
2014   11       11     8  44    5.40   575.0    3.8      50.581
2014   11       11     8  50    5.40   574.9    3.8      50.534
2014   11       11     8  55    5.40   574.8    3.8      50.487
2014   11       11     9   1    5.39   574.6    3.8      50.441
2014   11       11     9   6    5.39   574.5    3.8      50.395
2014   11       11     9  12    5.39   574.4    3.8      50.349
2014   11       11     9  17    5.38   574.3    3.8      50.305
2014   11       11     9  23    5.38   574.1    3.8      50.261
2014   11       11     9  28    5.38   574.0    3.8      50.217
2014   11       11     9  34    5.37   573.9    3.8      50.174
2014   11       11     9  39    5.37   573.7    3.8      50.132
2014   11       11     9  45    5.37   573.6    3.8      50.091
2014   11       11     9  50    5.36   573.5    3.8      50.050
2014   11       11     9  56    5.36   573.3    3.8      50.011
2014   11       11    10   1    5.36   573.2    3.8      49.972
2014   11       11    10   7    5.35   573.0    3.8      49.933
2014   11       11    10  12    5.35   572.9    3.8      49.895
2014   11       11    10  18    5.35   572.8    3.8      49.858
2014   11       11    10  23    5.34   572.6    3.8      49.823
2014   11       11    10  29    5.34   572.5    3.8      49.788
2014   11       11    10  34    5.34   572.4    3.8      49.754
2014   11       11    10  40    5.33   572.2    3.8      49.720
2014   11       11    10  45    5.33   572.1    3.8      49.687
2014   11       11    10  51    5.33   571.9    3.8      49.655
2014   11       11    10  56    5.32   571.8    3.8      49.623
2014   11       11    11   2    5.32   571.7    3.8      49.592
2014   11       11    11   7    5.32   571.5    3.8      49.560
2014   11       11    11  13    5.31   571.4    3.8      49.529
2014   11       11    11  18    5.31   571.2    3.8      49.498
2014   11       11    11  24    5.31   571.1    3.8      49.468
2014   11       11    11  29    5.30   571.0    3.8      49.437
2014   11       11    11  35    5.30   570.8    3.8      49.406
2014   11       11    11  40    5.30   570.7    3.7      49.375
2014   11       11    11  46    5.29   570.5    3.7      49.344
2014   11       11    11  51    5.29   570.4    3.7      49.312
2014   11       11    11  57    5.29   570.2    3.7      49.281
2014   11       11    12   2    5.28   570.1    3.7      49.249
2014   11       11    12   8    5.28   570.0    3.7      49.217
2014   11       11    12  13    5.28   569.8    3.7      49.184
2014   11       11    12  19    5.27   569.7    3.7      49.151
2014   11       11    12  24    5.27   569.5    3.7      49.118
2014   11       11    12  30    5.27   569.4    3.7      49.084
2014   11       11    12  35    5.26   569.2    3.7      49.050
2014   11       11    12  41    5.26   569.1    3.7      49.016
2014   11       11    12  46    5.26   568.9    3.7      48.981
2014   11       11    12  51    5.25   568.8    3.7      48.946
2014   11       11    12  57    5.25   568.6    3.7      48.911
2014   11       11    13   2    5.25   568.4    3.7      48.875
2014   11       11    13   8    5.25   568.3    3.7      48.839
2014   11       11    13  13    5.24   568.1    3.7      48.802
2014   11       11    13  19    5.24   568.0    3.7      48.766
2014   11       11    13  24    5.24   567.8    3.7      48.728
2014   11       11    13  30    5.23   567.6    3.7      48.691
2014   11       11    13  35    5.23   567.5    3.7      48.653
2014   11       11    13  41    5.23   567.3    3.7      48.615
2014   11       11    13  46    5.23   567.1    3.7      48.577
2014   11       11    13  51    5.22   567.0    3.7      48.538
2014   11       11    13  57    5.22   566.8    3.7      48.498
2014   11       11    14   2    5.22   566.6    3.7      48.459
2014   11       11    14   8    5.21   566.5    3.7      48.418
2014   11       11    14  13    5.21   566.3    3.7      48.378
2014   11       11    14  19    5.21   566.1    3.7      48.336
2014   11       11    14  24    5.21   566.0    3.7      48.295
2014   11       11    14  30    5.20   565.8    3.7      48.253
2014   11       11    14  35    5.20   565.6    3.7      48.211
2014   11       11    14  41    5.20   565.5    3.7      48.168
2014   11       11    14  46    5.20   565.3    3.7      48.125
2014   11       11    14  52    5.19   565.1    3.7      48.081
2014   11       11    14  57    5.19   565.0    3.7      48.038
2014   11       11    15   3    5.19   564.8    3.7      47.993
2014   11       11    15   8    5.19   564.6    3.7      47.949
2014   11       11    15  14    5.18   564.5    3.7      47.905
2014   11       11    15  19    5.18   564.3    3.7      47.860
2014   11       11    15  25    5.18   564.2    3.7      47.816
2014   11       11    15  30    5.18   564.0    3.7      47.771
2014   11       11    15  36    5.17   563.8    3.7      47.725
2014   11       11    15  41    5.17   563.7    3.7      47.680
2014   11       11    15  47    5.17   563.5    3.7      47.635
2014   11       11    15  53    5.17   563.4    3.7      47.589
2014   11       11    15  58    5.16   563.2    3.7      47.543
2014   11       11    16   4    5.16   563.0    3.7      47.498
2014   11       11    16   9    5.16   562.9    3.7      47.452
2014   11       11    16  15    5.16   562.7    3.7      47.406
2014   11       11    16  20    5.15   562.6    3.7      47.359
2014   11       11    16  26    5.15   562.4    3.7      47.313
2014   11       11    16  31    5.15   562.3    3.7      47.266
2014   11       11    16  37    5.15   562.1    3.7      47.219
2014   11       11    16  42    5.14   562.0    3.7      47.172
2014   11       11    16  48    5.14   561.8    3.7      47.126
2014   11       11    16  53    5.14   561.6    3.7      47.078
2014   11       11    16  59    5.13   561.5    3.7      47.032
2014   11       11    17   4    5.13   561.3    3.7      46.984
2014   11       11    17  10    5.13   561.2    3.7      46.937
2014   11       11    17  15    5.13   561.0    3.7      46.889
2014   11       11    17  21    5.12   560.8    3.7      46.842
2014   11       11    17  26    5.12   560.7    3.7      46.794
2014   11       11    17  32    5.12   560.5    3.7      46.746
2014   11       11    17  37    5.11   560.3    3.7      46.698
2014   11       11    17  43    5.11   560.2    3.7      46.651
2014   11       11    17  48    5.11   560.0    3.7      46.602
2014   11       11    17  54    5.11   559.8    3.7      46.554
2014   11       11    17  59    5.10   559.7    3.7      46.506
2014   11       11    18   5    5.10   559.5    3.7      46.458
2014   11       11    18  10    5.10   559.3    3.7      46.410
2014   11       11    18  16    5.09   559.1    3.7      46.363
2014   11       11    18  21    5.09   558.9    3.7      46.315
2014   11       11    18  27    5.09   558.8    3.7      46.268
2014   11       11    18  32    5.09   558.6    3.7      46.222
2014   11       11    18  38    5.08   558.4    3.7      46.176
2014   11       11    18  43    5.08   558.2    3.7      46.130
2014   11       11    18  49    5.08   558.0    3.7      46.086
2014   11       11    18  54    5.07   557.8    3.7      46.042
2014   11       11    19   0    5.07   557.6    3.7      46.000
2014   11       11    19   5    5.07   557.5    3.7      45.959
2014   11       11    19  11    5.07   557.3    3.7      45.919
2014   11       11    19  16    5.06   557.1    3.7      45.880
2014   11       11    19  22    5.06   556.9    3.7      45.843
2014   11       11    19  27    5.06   556.7    3.7      45.806
2014   11       11    19  33    5.06   556.5    3.7      45.772
2014   11       11    19  38    5.05   556.3    3.7      45.739
2014   11       11    19  44    5.05   556.1    3.7      45.708
2014   11       11    19  49    5.05   555.9    3.7      45.679
2014   11       11    19  54    5.05   555.7    3.7      45.651
2014   11       11    20   0    5.04   555.5    3.7      45.625
2014   11       11    20   5    5.04   555.3    3.7      45.601
2014   11       11    20  11    5.04   555.1    3.7      45.579
2014   11       11    20  16    5.04   554.9    3.7      45.560
2014   11       11    20  22    5.03   554.7    3.7      45.543
2014   11       11    20  27    5.03   554.5    3.7      45.527
2014   11       11    20  33    5.03   554.3    3.7      45.513
2014   11       11    20  38    5.03   554.1    3.7      45.499
2014   11       11    20  44    5.03   553.9    3.7      45.485
2014   11       11    20  49    5.02   553.7    3.7      45.472
2014   11       11    20  54    5.02   553.6    3.7      45.459
2014   11       11    21   0    5.02   553.4    3.7      45.445
2014   11       11    21   5    5.02   553.2    3.7      45.431
2014   11       11    21  11    5.02   553.0    3.7      45.416
2014   11       11    21  16    5.01   552.8    3.7      45.399
2014   11       11    21  22    5.01   552.6    3.7      45.381
2014   11       11    21  27    5.01   552.4    3.7      45.361
2014   11       11    21  33    5.01   552.2    3.7      45.339
2014   11       11    21  38    5.01   552.0    3.7      45.315
2014   11       11    21  44    5.00   551.8    3.7      45.290
2014   11       11    21  49    5.00   551.7    3.7      45.262
2014   11       11    21  55    5.00   551.5    3.7      45.233
2014   11       11    22   0    5.00   551.3    3.7      45.202
2014   11       11    22   6    5.00   551.1    3.7      45.170
2014   11       11    22  11    4.99   550.9    3.7      45.136
2014   11       11    22  17    4.99   550.8    3.7      45.100
2014   11       11    22  22    4.99   550.6    3.7      45.062
2014   11       11    22  28    4.99   550.4    3.7      45.023
2014   11       11    22  33    4.98   550.2    3.7      44.982
2014   11       11    22  39    4.98   550.1    3.7      44.941
2014   11       11    22  44    4.98   549.9    3.7      44.897
2014   11       11    22  50    4.98   549.7    3.7      44.853
2014   11       11    22  55    4.98   549.5    3.7      44.807
2014   11       11    23   1    4.97   549.3    3.7      44.760
2014   11       11    23   6    4.97   549.2    3.7      44.712
2014   11       11    23  12    4.97   549.0    3.7      44.663
2014   11       11    23  17    4.97   548.8    3.7      44.612
2014   11       11    23  23    4.96   548.6    3.7      44.562
2014   11       11    23  28    4.96   548.4    3.7      44.510
2014   11       11    23  34    4.96   548.3    3.7      44.458
2014   11       11    23  39    4.96   548.1    3.7      44.404
2014   11       11    23  45    4.95   547.9    3.7      44.351
2014   11       11    23  51    4.95   547.7    3.7      44.296
2014   11       11    23  56    4.95   547.5    3.7      44.241
2014   11       12     0   2    4.95   547.3    3.7      44.186
2014   11       12     0   7    4.94   547.1    3.7      44.130
2014   11       12     0  13    4.94   546.9    3.7      44.074
2014   11       12     0  18    4.94   546.7    3.7      44.017
2014   11       12     0  24    4.94   546.5    3.7      43.961
2014   11       12     0  29    4.93   546.3    3.7      43.904
2014   11       12     0  35    4.93   546.2    3.7      43.846
2014   11       12     0  40    4.93   546.0    3.6      43.789
2014   11       12     0  46    4.93   545.8    3.6      43.731
2014   11       12     0  51    4.92   545.6    3.6      43.674
2014   11       12     0  57    4.92   545.4    3.6      43.616
2014   11       12     1   2    4.92   545.2    3.6      43.558
2014   11       12     1   8    4.92   545.0    3.6      43.499
2014   11       12     1  13    4.92   544.8    3.6      43.441
2014   11       12     1  19    4.91   544.6    3.6      43.382
2014   11       12     1  24    4.91   544.3    3.6      43.323
2014   11       12     1  30    4.91   544.1    3.6      43.264
2014   11       12     1  35    4.91   543.9    3.6      43.206
2014   11       12     1  41    4.90   543.7    3.6      43.148
2014   11       12     1  46    4.90   543.5    3.6      43.090
2014   11       12     1  52    4.90   543.3    3.6      43.032
2014   11       12     1  57    4.90   543.1    3.6      42.974
2014   11       12     2   3    4.90   542.9    3.6      42.917
2014   11       12     2   8    4.89   542.7    3.6      42.862
2014   11       12     2  14    4.89   542.4    3.6      42.806
2014   11       12     2  19    4.89   542.2    3.6      42.752
2014   11       12     2  25    4.89   542.0    3.6      42.699
2014   11       12     2  30    4.89   541.8    3.6      42.647
2014   11       12     2  36    4.88   541.6    3.6      42.596
2014   11       12     2  41    4.88   541.4    3.6      42.547
2014   11       12     2  47    4.88   541.2    3.6      42.500
2014   11       12     2  52    4.88   540.9    3.6      42.454
2014   11       12     2  57    4.88   540.7    3.6      42.410
2014   11       12     3   3    4.87   540.5    3.6      42.369
2014   11       12     3   8    4.87   540.3    3.6      42.329
2014   11       12     3  14    4.87   540.1    3.6      42.291
2014   11       12     3  19    4.87   539.9    3.6      42.256
2014   11       12     3  25    4.87   539.7    3.6      42.222
2014   11       12     3  30    4.87   539.5    3.6      42.191
2014   11       12     3  36    4.86   539.3    3.6      42.163
2014   11       12     3  41    4.86   539.1    3.6      42.138
2014   11       12     3  47    4.86   538.9    3.6      42.116
2014   11       12     3  52    4.86   538.7    3.6      42.097
2014   11       12     3  57    4.86   538.5    3.6      42.079
2014   11       12     4   3    4.85   538.3    3.6      42.063
2014   11       12     4   8    4.85   538.1    3.6      42.049
2014   11       12     4  14    4.85   537.9    3.6      42.036
2014   11       12     4  19    4.85   537.7    3.6      42.023
2014   11       12     4  25    4.85   537.4    3.6      42.010
2014   11       12     4  30    4.85   537.2    3.6      41.997
2014   11       12     4  36    4.84   537.0    3.6      41.985
2014   11       12     4  41    4.84   536.8    3.6      41.972
2014   11       12     4  47    4.84   536.6    3.6      41.958
2014   11       12     4  52    4.84   536.4    3.7      41.942
2014   11       12     4  58    4.84   536.2    3.7      41.925
2014   11       12     5   3    4.83   536.0    3.7      41.907
2014   11       12     5   9    4.83   535.8    3.7      41.888
2014   11       12     5  14    4.83   535.6    3.7      41.867
2014   11       12     5  20    4.83   535.4    3.7      41.845
2014   11       12     5  25    4.83   535.2    3.7      41.821
2014   11       12     5  31    4.82   535.0    3.7      41.796
2014   11       12     5  36    4.82   534.8    3.7      41.770
2014   11       12     5  42    4.82   534.6    3.7      41.743
2014   11       12     5  47    4.82   534.4    3.7      41.714
2014   11       12     5  53    4.82   534.2    3.7      41.684
2014   11       12     5  58    4.81   533.9    3.7      41.653
2014   11       12     6   4    4.81   533.7    3.7      41.620
2014   11       12     6   9    4.81   533.5    3.7      41.587
2014   11       12     6  15    4.81   533.3    3.7      41.552
2014   11       12     6  20    4.80   533.1    3.7      41.516
2014   11       12     6  26    4.80   532.8    3.7      41.479
2014   11       12     6  31    4.80   532.6    3.7      41.441
2014   11       12     6  37    4.80   532.4    3.7      41.403
2014   11       12     6  42    4.80   532.1    3.7      41.363
2014   11       12     6  48    4.79   531.9    3.7      41.323
2014   11       12     6  53    4.79   531.7    3.7      41.282
2014   11       12     6  59    4.79   531.4    3.7      41.241
2014   11       12     7   4    4.79   531.2    3.7      41.200
2014   11       12     7  10    4.78   530.9    3.7      41.158
2014   11       12     7  15    4.78   530.7    3.7      41.117
2014   11       12     7  21    4.78   530.4    3.7      41.075
2014   11       12     7  26    4.78   530.2    3.7      41.034
2014   11       12     7  32    4.78   529.9    3.7      40.993
2014   11       12     7  38    4.78   529.7    3.7      40.955
2014   11       12     7  43    4.77   529.4    3.7      40.916
2014   11       12     7  49    4.77   529.2    3.7      40.880
2014   11       12     7  54    4.77   529.0    3.7      40.843
2014   11       12     8   0    4.77   528.7    3.7      40.809
2014   11       12     8   5    4.77   528.5    3.7      40.774
2014   11       12     8  11    4.77   528.2    3.7      40.740
2014   11       12     8  16    4.76   528.0    3.7      40.706
2014   11       12     8  22    4.76   527.8    3.7      40.673
2014   11       12     8  27    4.76   527.5    3.7      40.640
2014   11       12     8  33    4.76   527.3    3.7      40.608
2014   11       12     8  38    4.76   527.1    3.7      40.575
2014   11       12     8  44    4.76   526.9    3.7      40.542
2014   11       12     8  49    4.75   526.6    3.7      40.508
2014   11       12     8  55    4.75   526.4    3.7      40.474
2014   11       12     9   0    4.75   526.2    3.7      40.438
2014   11       12     9   6    4.75   526.0    3.7      40.403
2014   11       12     9  11    4.75   525.8    3.7      40.367
2014   11       12     9  17    4.75   525.5    3.7      40.330
2014   11       12     9  22    4.75   525.3    3.7      40.293
2014   11       12     9  28    4.74   525.1    3.7      40.255
2014   11       12     9  33    4.74   524.9    3.7      40.217
2014   11       12     9  39    4.74   524.7    3.7      40.179
2014   11       12     9  44    4.74   524.5    3.7      40.139
2014   11       12     9  49    4.74   524.2    3.7      40.100
2014   11       12     9  55    4.74   524.0    3.7      40.060
2014   11       12    10   0    4.73   523.8    3.7      40.019
2014   11       12    10   6    4.73   523.6    3.7      39.978
2014   11       12    10  11    4.73   523.4    3.7      39.937
2014   11       12    10  17    4.73   523.2    3.7      39.896
2014   11       12    10  22    4.73   523.0    3.7      39.854
2014   11       12    10  28    4.73   522.7    3.7      39.812
2014   11       12    10  33    4.72   522.5    3.7      39.770
2014   11       12    10  39    4.72   522.3    3.7      39.727
2014   11       12    10  44    4.72   522.1    3.7      39.684
2014   11       12    10  50    4.72   521.9    3.7      39.641
2014   11       12    10  55    4.72   521.7    3.7      39.599
2014   11       12    11   0    4.72   521.4    3.7      39.555
2014   11       12    11   6    4.71   521.2    3.7      39.513
2014   11       12    11  11    4.71   521.0    3.7      39.469
2014   11       12    11  17    4.71   520.8    3.7      39.426
2014   11       12    11  22    4.71   520.6    3.7      39.383
2014   11       12    11  28    4.71   520.3    3.7      39.340
2014   11       12    11  33    4.71   520.1    3.7      39.297
2014   11       12    11  39    4.70   519.9    3.7      39.254
2014   11       12    11  44    4.70   519.7    3.7      39.212
2014   11       12    11  50    4.70   519.4    3.7      39.169
2014   11       12    11  55    4.70   519.2    3.7      39.127
2014   11       12    12   1    4.70   519.0    3.7      39.085
2014   11       12    12   6    4.69   518.7    3.7      39.043
2014   11       12    12  12    4.69   518.5    3.7      39.002
2014   11       12    12  17    4.69   518.3    3.7      38.960
2014   11       12    12  23    4.69   518.0    3.7      38.920
2014   11       12    12  28    4.69   517.8    3.7      38.879
2014   11       12    12  34    4.69   517.6    3.7      38.839
2014   11       12    12  39    4.68   517.3    3.7      38.798
2014   11       12    12  45    4.68   517.1    3.7      38.758
2014   11       12    12  50    4.68   516.8    3.7      38.719
2014   11       12    12  56    4.68   516.6    3.7      38.679
2014   11       12    13   1    4.68   516.4    3.7      38.640
2014   11       12    13   7    4.67   516.1    3.7      38.601
2014   11       12    13  12    4.67   515.9    3.7      38.562
2014   11       12    13  18    4.67   515.6    3.7      38.522
2014   11       12    13  23    4.67   515.4    3.7      38.483
2014   11       12    13  29    4.67   515.1    3.7      38.444
2014   11       12    13  34    4.67   514.8    3.7      38.404
2014   11       12    13  40    4.66   514.6    3.7      38.365
2014   11       12    13  45    4.66   514.3    3.7      38.325
2014   11       12    13  51    4.66   514.1    3.7      38.286
2014   11       12    13  56    4.66   513.8    3.7      38.246
2014   11       12    14   2    4.66   513.5    3.7      38.206
2014   11       12    14   7    4.66   513.3    3.7      38.167
2014   11       12    14  13    4.65   513.0    3.7      38.127
2014   11       12    14  18    4.65   512.7    3.7      38.087
2014   11       12    14  24    4.65   512.4    3.7      38.048
2014   11       12    14  29    4.65   512.1    3.7      38.010
2014   11       12    14  35    4.65   511.9    3.7      37.971
2014   11       12    14  40    4.65   511.6    3.7      37.934
2014   11       12    14  46    4.65   511.3    3.7      37.898
2014   11       12    14  51    4.64   511.0    3.7      37.864
2014   11       12    14  57    4.64   510.7    3.7      37.832
2014   11       12    15   2    4.64   510.5    3.7      37.802
2014   11       12    15   8    4.64   510.2    3.7      37.773
2014   11       12    15  13    4.64   509.9    3.7      37.747
2014   11       12    15  19    4.64   509.6    3.7      37.722
2014   11       12    15  24    4.64   509.4    3.7      37.698
2014   11       12    15  30    4.64   509.1    3.7      37.676
2014   11       12    15  36    4.64   508.9    3.7      37.654
2014   11       12    15  41    4.64   508.6    3.7      37.634
2014   11       12    15  47    4.64   508.4    3.8      37.615
2014   11       12    15  52    4.64   508.1    3.8      37.597
2014   11       12    15  58    4.63   507.9    3.8      37.579
2014   11       12    16   3    4.63   507.6    3.8      37.562
2014   11       12    16   9    4.63   507.4    3.8      37.544
2014   11       12    16  14    4.63   507.2    3.8      37.526
2014   11       12    16  20    4.63   506.9    3.8      37.508
2014   11       12    16  25    4.63   506.7    3.8      37.489
2014   11       12    16  31    4.63   506.5    3.8      37.471
2014   11       12    16  36    4.63   506.2    3.8      37.452
2014   11       12    16  41    4.63   506.0    3.8      37.433
2014   11       12    16  47    4.63   505.7    3.8      37.414
2014   11       12    16  52    4.63   505.5    3.8      37.394
2014   11       12    16  58    4.62   505.3    3.8      37.374
2014   11       12    17   3    4.62   505.0    3.8      37.354
2014   11       12    17   9    4.62   504.8    3.8      37.333
2014   11       12    17  14    4.62   504.6    3.8      37.311
2014   11       12    17  20    4.62   504.3    3.8      37.289
2014   11       12    17  25    4.62   504.1    3.8      37.267
2014   11       12    17  31    4.62   503.8    3.8      37.244
2014   11       12    17  36    4.62   503.6    3.8      37.220
2014   11       12    17  42    4.61   503.4    3.8      37.196
2014   11       12    17  47    4.61   503.1    3.8      37.172
2014   11       12    17  53    4.61   502.9    3.8      37.147
2014   11       12    17  58    4.61   502.6    3.8      37.121
2014   11       12    18   3    4.61   502.4    3.8      37.095
2014   11       12    18   9    4.61   502.1    3.8      37.068
2014   11       12    18  14    4.61   501.9    3.8      37.041
2014   11       12    18  20    4.60   501.6    3.8      37.013
2014   11       12    18  25    4.60   501.4    3.8      36.985
2014   11       12    18  31    4.60   501.1    3.8      36.956
2014   11       12    18  36    4.60   500.9    3.8      36.928
2014   11       12    18  42    4.60   500.6    3.8      36.898
2014   11       12    18  47    4.60   500.3    3.9      36.869
2014   11       12    18  53    4.60   500.1    3.9      36.839
2014   11       12    18  58    4.60   499.8    3.9      36.810
2014   11       12    19   4    4.59   499.6    3.9      36.779
2014   11       12    19   9    4.59   499.3    3.9      36.749
2014   11       12    19  14    4.59   499.1    3.9      36.719
2014   11       12    19  20    4.59   498.8    3.9      36.688
2014   11       12    19  25    4.59   498.5    3.9      36.657
2014   11       12    19  31    4.59   498.3    3.9      36.626
2014   11       12    19  36    4.59   498.0    3.9      36.595
2014   11       12    19  42    4.59   497.8    3.9      36.563
2014   11       12    19  47    4.59   497.5    3.9      36.531
2014   11       12    19  53    4.59   497.3    3.9      36.499
2014   11       12    19  58    4.58   497.0    3.9      36.466
2014   11       12    20   4    4.58   496.7    3.9      36.432
2014   11       12    20   9    4.58   496.5    3.9      36.399
2014   11       12    20  15    4.58   496.2    3.9      36.364
2014   11       12    20  20    4.58   496.0    3.9      36.330
2014   11       12    20  26    4.58   495.7    3.9      36.294
2014   11       12    20  31    4.58   495.5    3.9      36.259
2014   11       12    20  37    4.58   495.2    3.9      36.222
2014   11       12    20  43    4.58   494.9    3.9      36.185
2014   11       12    20  48    4.58   494.7    3.9      36.148
2014   11       12    20  54    4.58   494.4    3.9      36.110
2014   11       12    20  59    4.58   494.2    3.9      36.072
2014   11       12    21   5    4.58   493.9    3.9      36.033
2014   11       12    21  10    4.57   493.6    3.9      35.994
2014   11       12    21  16    4.57   493.4    3.9      35.954
2014   11       12    21  21    4.57   493.1    3.9      35.914
2014   11       12    21  27    4.57   492.9    3.9      35.874
2014   11       12    21  32    4.57   492.6    3.9      35.833
2014   11       12    21  38    4.57   492.3    3.9      35.792
2014   11       12    21  43    4.57   492.1    3.9      35.751
2014   11       12    21  49    4.57   491.8    3.9      35.710
2014   11       12    21  54    4.57   491.5    3.9      35.669
2014   11       12    22   0    4.57   491.3    3.9      35.628
2014   11       12    22   5    4.57   491.0    3.9      35.587
2014   11       12    22  11    4.57   490.7    3.9      35.546
2014   11       12    22  16    4.57   490.5    3.9      35.506
2014   11       12    22  22    4.57   490.2    3.9      35.466
2014   11       12    22  27    4.57   489.9    3.9      35.426
2014   11       12    22  33    4.57   489.7    3.9      35.387
2014   11       12    22  38    4.57   489.4    3.9      35.349
2014   11       12    22  44    4.57   489.2    3.9      35.311
2014   11       12    22  49    4.57   488.9    3.9      35.274
2014   11       12    22  55    4.57   488.6    3.9      35.237
2014   11       12    23   0    4.57   488.4    3.9      35.202
2014   11       12    23   6    4.57   488.1    3.9      35.167
2014   11       12    23  11    4.57   487.9    3.9      35.133
2014   11       12    23  17    4.57   487.6    3.9      35.099
2014   11       12    23  22    4.57   487.4    3.9      35.066
2014   11       12    23  28    4.57   487.2    3.9      35.033
2014   11       12    23  33    4.57   486.9    3.9      35.002
2014   11       12    23  39    4.57   486.7    3.9      34.970
2014   11       12    23  44    4.57   486.4    3.9      34.940
2014   11       12    23  50    4.57   486.2    4.0      34.909
2014   11       12    23  55    4.57   485.9    4.0      34.880
2014   11       13     0   1    4.57   485.7    4.0      34.850
