year    month   day   hour  minute  B_enl V_enl   n_enl       T_enl
[year] [month] [day] [hour][minute] [nT]  [km/s]  [cm-3]      [kK]
2013    4        6     0   4    4.18   384.4    9.1      34.020
2013    4        6     0  11    4.17   384.5    9.1      33.991
2013    4        6     0  17    4.16   384.6    9.1      33.961
2013    4        6     0  24    4.16   384.6    9.0      33.929
2013    4        6     0  31    4.15   384.7    9.0      33.895
2013    4        6     0  38    4.15   384.7    9.0      33.861
2013    4        6     0  45    4.14   384.8    9.0      33.825
2013    4        6     0  52    4.13   384.8    9.0      33.789
2013    4        6     0  59    4.13   384.9    9.0      33.753
2013    4        6     1   6    4.12   384.9    8.9      33.716
2013    4        6     1  13    4.11   385.0    8.9      33.679
2013    4        6     1  19    4.11   385.0    8.9      33.641
2013    4        6     1  26    4.10   385.0    8.9      33.603
2013    4        6     1  33    4.10   385.1    8.9      33.565
2013    4        6     1  40    4.09   385.1    8.9      33.526
2013    4        6     1  47    4.08   385.2    8.8      33.487
2013    4        6     1  54    4.08   385.2    8.8      33.447
2013    4        6     2   1    4.07   385.2    8.8      33.407
2013    4        6     2   8    4.07   385.3    8.8      33.366
2013    4        6     2  15    4.06   385.3    8.8      33.325
2013    4        6     2  21    4.05   385.3    8.7      33.284
2013    4        6     2  28    4.05   385.4    8.7      33.242
2013    4        6     2  35    4.04   385.4    8.7      33.200
2013    4        6     2  42    4.04   385.4    8.7      33.157
2013    4        6     2  49    4.03   385.5    8.7      33.114
2013    4        6     2  56    4.02   385.5    8.7      33.071
2013    4        6     3   3    4.02   385.5    8.6      33.027
2013    4        6     3  10    4.01   385.6    8.6      32.983
2013    4        6     3  17    4.01   385.6    8.6      32.938
2013    4        6     3  24    4.00   385.6    8.6      32.893
2013    4        6     3  30    3.99   385.7    8.6      32.848
2013    4        6     3  37    3.99   385.7    8.6      32.803
2013    4        6     3  44    3.98   385.7    8.5      32.758
2013    4        6     3  51    3.98   385.7    8.5      32.712
2013    4        6     3  58    3.97   385.7    8.5      32.666
2013    4        6     4   5    3.96   385.8    8.5      32.620
2013    4        6     4  12    3.96   385.8    8.5      32.575
2013    4        6     4  19    3.95   385.8    8.4      32.529
2013    4        6     4  26    3.94   385.8    8.4      32.484
2013    4        6     4  32    3.94   385.8    8.4      32.438
2013    4        6     4  39    3.93   385.8    8.4      32.393
2013    4        6     4  46    3.93   385.8    8.4      32.347
2013    4        6     4  53    3.92   385.8    8.4      32.302
2013    4        6     5   0    3.91   385.8    8.3      32.256
2013    4        6     5   7    3.91   385.8    8.3      32.211
2013    4        6     5  14    3.90   385.8    8.3      32.165
2013    4        6     5  21    3.90   385.8    8.3      32.120
2013    4        6     5  28    3.89   385.8    8.3      32.074
2013    4        6     5  34    3.88   385.8    8.3      32.029
2013    4        6     5  41    3.88   385.8    8.2      31.984
2013    4        6     5  48    3.87   385.8    8.2      31.938
2013    4        6     5  55    3.87   385.8    8.2      31.893
2013    4        6     6   2    3.86   385.8    8.2      31.847
2013    4        6     6   9    3.85   385.8    8.2      31.801
2013    4        6     6  16    3.85   385.8    8.1      31.754
2013    4        6     6  23    3.84   385.8    8.1      31.707
2013    4        6     6  30    3.84   385.8    8.1      31.660
2013    4        6     6  36    3.83   385.8    8.1      31.612
2013    4        6     6  43    3.82   385.8    8.1      31.562
2013    4        6     6  50    3.82   385.8    8.1      31.512
2013    4        6     6  57    3.81   385.8    8.0      31.460
2013    4        6     7   4    3.81   385.7    8.0      31.407
2013    4        6     7  11    3.80   385.7    8.0      31.353
2013    4        6     7  18    3.79   385.7    8.0      31.297
2013    4        6     7  25    3.79   385.6    8.0      31.240
2013    4        6     7  32    3.78   385.6    8.0      31.180
2013    4        6     7  38    3.78   385.5    8.0      31.119
2013    4        6     7  45    3.77   385.5    7.9      31.056
2013    4        6     7  52    3.77   385.4    7.9      30.991
2013    4        6     7  59    3.76   385.3    7.9      30.926
2013    4        6     8   6    3.75   385.3    7.9      30.860
2013    4        6     8  13    3.75   385.2    7.9      30.794
2013    4        6     8  20    3.74   385.2    7.9      30.729
2013    4        6     8  27    3.74   385.1    7.9      30.663
2013    4        6     8  34    3.73   385.0    7.8      30.599
2013    4        6     8  40    3.73   385.0    7.8      30.535
2013    4        6     8  47    3.72   384.9    7.8      30.472
2013    4        6     8  54    3.72   384.8    7.8      30.409
2013    4        6     9   1    3.71   384.8    7.8      30.348
2013    4        6     9   8    3.71   384.7    7.8      30.287
2013    4        6     9  15    3.71   384.6    7.8      30.228
2013    4        6     9  22    3.70   384.6    7.8      30.171
2013    4        6     9  29    3.70   384.5    7.8      30.114
2013    4        6     9  36    3.69   384.4    7.8      30.059
2013    4        6     9  43    3.69   384.4    7.8      30.007
2013    4        6     9  49    3.68   384.3    7.7      29.955
2013    4        6     9  56    3.68   384.2    7.7      29.906
2013    4        6    10   3    3.68   384.2    7.7      29.857
2013    4        6    10  10    3.67   384.1    7.7      29.810
2013    4        6    10  17    3.67   384.0    7.7      29.763
2013    4        6    10  24    3.66   383.9    7.7      29.717
2013    4        6    10  31    3.66   383.9    7.7      29.671
2013    4        6    10  38    3.65   383.8    7.7      29.626
2013    4        6    10  45    3.65   383.7    7.7      29.580
2013    4        6    10  51    3.65   383.6    7.7      29.534
2013    4        6    10  58    3.64   383.6    7.7      29.488
2013    4        6    11   5    3.64   383.5    7.6      29.443
2013    4        6    11  12    3.63   383.4    7.6      29.397
2013    4        6    11  19    3.63   383.3    7.6      29.351
2013    4        6    11  26    3.63   383.2    7.6      29.305
2013    4        6    11  33    3.62   383.2    7.6      29.259
2013    4        6    11  40    3.62   383.1    7.6      29.213
2013    4        6    11  47    3.62   383.0    7.6      29.168
2013    4        6    11  53    3.61   382.9    7.6      29.122
2013    4        6    12   0    3.61   382.8    7.6      29.076
2013    4        6    12   7    3.60   382.8    7.6      29.031
2013    4        6    12  14    3.60   382.7    7.5      28.985
2013    4        6    12  21    3.60   382.6    7.5      28.940
2013    4        6    12  28    3.59   382.5    7.5      28.895
2013    4        6    12  35    3.59   382.4    7.5      28.850
2013    4        6    12  42    3.59   382.4    7.5      28.805
2013    4        6    12  49    3.58   382.3    7.5      28.760
2013    4        6    12  55    3.58   382.2    7.5      28.716
2013    4        6    13   2    3.57   382.1    7.5      28.671
2013    4        6    13   9    3.57   382.0    7.5      28.627
2013    4        6    13  16    3.57   381.9    7.5      28.583
2013    4        6    13  23    3.56   381.8    7.5      28.540
2013    4        6    13  30    3.56   381.7    7.5      28.496
2013    4        6    13  37    3.56   381.6    7.4      28.452
2013    4        6    13  44    3.55   381.5    7.4      28.408
2013    4        6    13  51    3.55   381.4    7.4      28.365
2013    4        6    13  57    3.55   381.3    7.4      28.321
2013    4        6    14   4    3.54   381.2    7.4      28.278
2013    4        6    14  11    3.54   381.1    7.4      28.234
2013    4        6    14  18    3.54   381.0    7.4      28.190
2013    4        6    14  25    3.54   380.9    7.4      28.146
2013    4        6    14  32    3.53   380.8    7.4      28.102
2013    4        6    14  39    3.53   380.6    7.4      28.057
2013    4        6    14  46    3.53   380.5    7.4      28.012
2013    4        6    14  53    3.52   380.4    7.4      27.967
2013    4        6    14  59    3.52   380.3    7.4      27.921
2013    4        6    15   6    3.52   380.2    7.4      27.875
2013    4        6    15  13    3.52   380.1    7.4      27.829
2013    4        6    15  20    3.51   379.9    7.4      27.782
2013    4        6    15  27    3.51   379.8    7.4      27.736
2013    4        6    15  34    3.51   379.7    7.4      27.690
2013    4        6    15  41    3.51   379.6    7.3      27.644
2013    4        6    15  48    3.50   379.5    7.3      27.600
2013    4        6    15  55    3.50   379.3    7.3      27.556
2013    4        6    16   1    3.50   379.2    7.3      27.513
2013    4        6    16   8    3.50   379.1    7.3      27.470
2013    4        6    16  15    3.50   379.0    7.3      27.429
2013    4        6    16  22    3.49   378.9    7.3      27.389
2013    4        6    16  29    3.49   378.8    7.3      27.351
2013    4        6    16  36    3.49   378.6    7.4      27.314
2013    4        6    16  43    3.49   378.5    7.4      27.279
2013    4        6    16  50    3.49   378.4    7.4      27.245
2013    4        6    16  57    3.48   378.3    7.4      27.212
2013    4        6    17   4    3.48   378.2    7.4      27.182
2013    4        6    17  10    3.48   378.1    7.4      27.154
2013    4        6    17  17    3.48   378.0    7.4      27.126
2013    4        6    17  24    3.48   377.8    7.4      27.100
2013    4        6    17  31    3.48   377.7    7.4      27.075
2013    4        6    17  38    3.47   377.6    7.4      27.050
2013    4        6    17  45    3.47   377.5    7.4      27.026
2013    4        6    17  52    3.47   377.4    7.4      27.002
2013    4        6    17  59    3.47   377.3    7.4      26.978
2013    4        6    18   6    3.47   377.1    7.4      26.954
2013    4        6    18  12    3.47   377.0    7.4      26.930
2013    4        6    18  19    3.47   376.9    7.4      26.906
2013    4        6    18  26    3.46   376.8    7.4      26.881
2013    4        6    18  33    3.46   376.7    7.4      26.857
2013    4        6    18  40    3.46   376.5    7.4      26.833
2013    4        6    18  47    3.46   376.4    7.4      26.808
2013    4        6    18  54    3.46   376.3    7.4      26.784
2013    4        6    19   1    3.46   376.2    7.4      26.759
2013    4        6    19   8    3.46   376.1    7.4      26.735
2013    4        6    19  14    3.46   375.9    7.3      26.711
2013    4        6    19  21    3.45   375.8    7.3      26.686
2013    4        6    19  28    3.45   375.7    7.3      26.662
2013    4        6    19  35    3.45   375.6    7.3      26.637
2013    4        6    19  42    3.45   375.5    7.3      26.613
2013    4        6    19  49    3.45   375.4    7.3      26.589
2013    4        6    19  56    3.45   375.2    7.3      26.564
2013    4        6    20   3    3.45   375.1    7.3      26.540
2013    4        6    20  10    3.45   375.0    7.3      26.516
2013    4        6    20  16    3.45   374.9    7.3      26.491
2013    4        6    20  23    3.45   374.8    7.3      26.467
2013    4        6    20  30    3.44   374.6    7.3      26.443
2013    4        6    20  37    3.44   374.5    7.3      26.418
2013    4        6    20  44    3.44   374.4    7.3      26.394
2013    4        6    20  51    3.44   374.3    7.3      26.369
2013    4        6    20  58    3.44   374.2    7.3      26.345
2013    4        6    21   5    3.44   374.0    7.3      26.320
2013    4        6    21  12    3.44   373.9    7.3      26.296
2013    4        6    21  18    3.44   373.8    7.3      26.271
2013    4        6    21  25    3.44   373.7    7.3      26.247
2013    4        6    21  32    3.44   373.6    7.3      26.222
2013    4        6    21  39    3.44   373.5    7.3      26.198
2013    4        6    21  46    3.43   373.3    7.3      26.173
2013    4        6    21  53    3.43   373.2    7.3      26.149
2013    4        6    22   0    3.43   373.1    7.3      26.124
2013    4        6    22   7    3.43   373.0    7.3      26.100
2013    4        6    22  14    3.43   372.9    7.3      26.075
2013    4        6    22  20    3.43   372.7    7.3      26.050
2013    4        6    22  27    3.43   372.6    7.3      26.026
2013    4        6    22  34    3.43   372.5    7.3      26.002
2013    4        6    22  41    3.43   372.4    7.3      25.977
2013    4        6    22  48    3.43   372.3    7.3      25.953
2013    4        6    22  55    3.43   372.1    7.3      25.929
2013    4        6    23   2    3.43   372.0    7.3      25.905
2013    4        6    23   9    3.43   371.9    7.3      25.881
2013    4        6    23  16    3.43   371.8    7.3      25.857
2013    4        6    23  23    3.43   371.7    7.3      25.834
2013    4        6    23  29    3.43   371.5    7.3      25.810
2013    4        6    23  36    3.43   371.4    7.3      25.787
2013    4        6    23  43    3.43   371.3    7.3      25.764
2013    4        6    23  50    3.43   371.2    7.3      25.742
2013    4        6    23  57    3.43   371.1    7.3      25.719
2013    4        7     0   4    3.42   371.0    7.3      25.697
2013    4        7     0  11    3.42   370.8    7.3      25.675
2013    4        7     0  18    3.42   370.7    7.3      25.654
2013    4        7     0  25    3.42   370.6    7.3      25.633
2013    4        7     0  31    3.42   370.5    7.3      25.612
2013    4        7     0  38    3.42   370.4    7.3      25.591
2013    4        7     0  45    3.42   370.2    7.3      25.571
2013    4        7     0  52    3.42   370.1    7.3      25.551
2013    4        7     0  59    3.42   370.0    7.3      25.532
2013    4        7     1   6    3.43   369.9    7.3      25.513
2013    4        7     1  13    3.43   369.8    7.3      25.495
2013    4        7     1  20    3.43   369.7    7.3      25.477
2013    4        7     1  27    3.43   369.5    7.3      25.459
2013    4        7     1  34    3.43   369.4    7.4      25.442
2013    4        7     1  40    3.43   369.3    7.4      25.425
2013    4        7     1  47    3.43   369.2    7.4      25.408
2013    4        7     1  54    3.43   369.1    7.4      25.392
2013    4        7     2   1    3.43   369.0    7.4      25.376
2013    4        7     2   8    3.43   368.8    7.4      25.361
2013    4        7     2  15    3.43   368.7    7.4      25.346
2013    4        7     2  22    3.43   368.6    7.4      25.331
2013    4        7     2  29    3.43   368.5    7.4      25.316
2013    4        7     2  36    3.43   368.4    7.4      25.302
2013    4        7     2  42    3.43   368.3    7.4      25.288
2013    4        7     2  49    3.43   368.1    7.4      25.274
2013    4        7     2  56    3.43   368.0    7.4      25.260
2013    4        7     3   3    3.43   367.9    7.4      25.247
2013    4        7     3  10    3.44   367.8    7.4      25.233
2013    4        7     3  17    3.44   367.7    7.4      25.220
2013    4        7     3  24    3.44   367.6    7.4      25.207
2013    4        7     3  31    3.44   367.5    7.4      25.194
2013    4        7     3  38    3.44   367.4    7.4      25.180
2013    4        7     3  44    3.44   367.2    7.4      25.167
2013    4        7     3  51    3.44   367.1    7.4      25.154
2013    4        7     3  58    3.44   367.0    7.4      25.141
2013    4        7     4   5    3.44   366.9    7.4      25.128
2013    4        7     4  12    3.44   366.8    7.4      25.115
2013    4        7     4  19    3.44   366.7    7.4      25.102
2013    4        7     4  26    3.45   366.5    7.4      25.088
2013    4        7     4  33    3.45   366.4    7.4      25.075
2013    4        7     4  40    3.45   366.3    7.4      25.062
2013    4        7     4  47    3.45   366.2    7.4      25.048
2013    4        7     4  53    3.45   366.0    7.4      25.034
2013    4        7     5   0    3.45   365.9    7.4      25.021
2013    4        7     5   7    3.45   365.8    7.5      25.007
2013    4        7     5  14    3.45   365.7    7.5      24.993
2013    4        7     5  21    3.45   365.6    7.5      24.979
2013    4        7     5  28    3.45   365.4    7.5      24.965
2013    4        7     5  35    3.46   365.3    7.5      24.951
2013    4        7     5  42    3.46   365.2    7.5      24.937
2013    4        7     5  49    3.46   365.1    7.5      24.922
2013    4        7     5  55    3.46   364.9    7.5      24.908
2013    4        7     6   2    3.46   364.8    7.5      24.894
2013    4        7     6   9    3.46   364.7    7.5      24.879
2013    4        7     6  16    3.46   364.6    7.5      24.865
2013    4        7     6  23    3.47   364.4    7.5      24.850
2013    4        7     6  30    3.47   364.3    7.5      24.836
2013    4        7     6  37    3.47   364.2    7.5      24.821
2013    4        7     6  44    3.47   364.1    7.5      24.807
2013    4        7     6  51    3.47   363.9    7.5      24.793
2013    4        7     6  57    3.47   363.8    7.5      24.778
2013    4        7     7   4    3.48   363.7    7.5      24.764
2013    4        7     7  11    3.48   363.5    7.5      24.750
2013    4        7     7  18    3.48   363.4    7.5      24.736
2013    4        7     7  25    3.48   363.3    7.5      24.723
2013    4        7     7  32    3.48   363.2    7.5      24.709
2013    4        7     7  39    3.48   363.0    7.5      24.696
2013    4        7     7  46    3.49   362.9    7.5      24.683
2013    4        7     7  53    3.49   362.8    7.5      24.670
2013    4        7     8   0    3.49   362.6    7.5      24.658
2013    4        7     8   6    3.49   362.5    7.5      24.645
2013    4        7     8  13    3.50   362.4    7.5      24.633
2013    4        7     8  20    3.50   362.3    7.5      24.622
2013    4        7     8  27    3.50   362.1    7.5      24.610
2013    4        7     8  34    3.50   362.0    7.5      24.599
2013    4        7     8  41    3.50   361.9    7.6      24.588
2013    4        7     8  48    3.51   361.8    7.6      24.578
2013    4        7     8  55    3.51   361.6    7.6      24.568
2013    4        7     9   2    3.51   361.5    7.6      24.558
2013    4        7     9   8    3.52   361.4    7.6      24.548
2013    4        7     9  15    3.52   361.3    7.6      24.539
2013    4        7     9  22    3.52   361.1    7.6      24.530
2013    4        7     9  29    3.52   361.0    7.6      24.521
2013    4        7     9  36    3.53   360.9    7.6      24.512
2013    4        7     9  43    3.53   360.8    7.6      24.504
2013    4        7     9  50    3.53   360.6    7.6      24.496
2013    4        7     9  57    3.54   360.5    7.6      24.488
2013    4        7    10   4    3.54   360.4    7.6      24.481
2013    4        7    10  11    3.54   360.3    7.6      24.473
2013    4        7    10  17    3.55   360.1    7.7      24.466
2013    4        7    10  24    3.55   360.0    7.7      24.460
2013    4        7    10  31    3.55   359.9    7.7      24.453
2013    4        7    10  38    3.56   359.8    7.7      24.447
2013    4        7    10  45    3.56   359.6    7.7      24.442
2013    4        7    10  52    3.56   359.5    7.7      24.437
2013    4        7    10  59    3.57   359.4    7.7      24.432
2013    4        7    11   6    3.57   359.3    7.7      24.427
2013    4        7    11  13    3.57   359.1    7.7      24.423
2013    4        7    11  19    3.58   359.0    7.7      24.420
2013    4        7    11  26    3.58   358.9    7.8      24.417
2013    4        7    11  33    3.59   358.8    7.8      24.415
2013    4        7    11  40    3.59   358.6    7.8      24.413
2013    4        7    11  47    3.60   358.5    7.8      24.412
2013    4        7    11  54    3.60   358.4    7.8      24.412
2013    4        7    12   1    3.61   358.3    7.8      24.413
2013    4        7    12   8    3.61   358.1    7.8      24.415
2013    4        7    12  15    3.62   358.0    7.9      24.418
2013    4        7    12  21    3.62   357.9    7.9      24.423
2013    4        7    12  28    3.63   357.8    7.9      24.430
2013    4        7    12  35    3.63   357.7    7.9      24.437
2013    4        7    12  42    3.64   357.6    7.9      24.445
2013    4        7    12  49    3.64   357.5    7.9      24.455
2013    4        7    12  56    3.65   357.4    8.0      24.466
2013    4        7    13   3    3.65   357.3    8.0      24.480
2013    4        7    13  10    3.66   357.2    8.0      24.495
2013    4        7    13  17    3.67   357.1    8.0      24.512
2013    4        7    13  23    3.67   357.0    8.0      24.530
2013    4        7    13  30    3.68   356.9    8.1      24.551
2013    4        7    13  37    3.68   356.9    8.1      24.572
2013    4        7    13  44    3.69   356.8    8.1      24.594
2013    4        7    13  51    3.69   356.7    8.1      24.616
2013    4        7    13  58    3.70   356.6    8.1      24.637
2013    4        7    14   5    3.71   356.5    8.1      24.657
2013    4        7    14  12    3.71   356.5    8.2      24.677
2013    4        7    14  19    3.72   356.4    8.2      24.697
2013    4        7    14  26    3.72   356.3    8.2      24.715
2013    4        7    14  32    3.73   356.2    8.2      24.734
2013    4        7    14  39    3.73   356.2    8.2      24.752
2013    4        7    14  46    3.74   356.1    8.2      24.769
2013    4        7    14  53    3.75   356.0    8.2      24.786
2013    4        7    15   0    3.75   355.9    8.2      24.803
2013    4        7    15   7    3.76   355.8    8.3      24.819
2013    4        7    15  14    3.76   355.8    8.3      24.835
2013    4        7    15  21    3.77   355.7    8.3      24.850
2013    4        7    15  28    3.77   355.6    8.3      24.866
2013    4        7    15  35    3.78   355.5    8.3      24.881
2013    4        7    15  41    3.79   355.5    8.3      24.895
2013    4        7    15  48    3.79   355.4    8.3      24.910
2013    4        7    15  55    3.80   355.3    8.3      24.924
2013    4        7    16   2    3.80   355.2    8.4      24.938
2013    4        7    16   9    3.81   355.2    8.4      24.951
2013    4        7    16  16    3.82   355.1    8.4      24.965
2013    4        7    16  23    3.82   355.0    8.4      24.978
2013    4        7    16  30    3.83   354.9    8.4      24.991
2013    4        7    16  37    3.83   354.9    8.4      25.004
2013    4        7    16  43    3.84   354.8    8.4      25.017
2013    4        7    16  50    3.85   354.7    8.4      25.030
2013    4        7    16  57    3.85   354.6    8.5      25.042
2013    4        7    17   4    3.86   354.6    8.5      25.055
2013    4        7    17  11    3.87   354.5    8.5      25.068
2013    4        7    17  18    3.87   354.4    8.5      25.081
2013    4        7    17  25    3.88   354.3    8.5      25.094
2013    4        7    17  32    3.88   354.3    8.5      25.107
2013    4        7    17  39    3.89   354.2    8.5      25.121
2013    4        7    17  45    3.90   354.1    8.6      25.135
2013    4        7    17  52    3.91   354.0    8.6      25.149
2013    4        7    17  59    3.91   354.0    8.6      25.164
2013    4        7    18   6    3.92   353.9    8.6      25.179
2013    4        7    18  13    3.93   353.8    8.6      25.195
2013    4        7    18  20    3.93   353.8    8.6      25.212
2013    4        7    18  27    3.94   353.7    8.7      25.229
2013    4        7    18  34    3.95   353.6    8.7      25.248
2013    4        7    18  41    3.96   353.6    8.7      25.267
2013    4        7    18  47    3.96   353.5    8.7      25.287
2013    4        7    18  54    3.97   353.4    8.8      25.309
2013    4        7    19   1    3.98   353.4    8.8      25.331
2013    4        7    19   8    3.99   353.3    8.8      25.355
2013    4        7    19  15    4.00   353.3    8.8      25.380
2013    4        7    19  22    4.01   353.2    8.9      25.408
2013    4        7    19  29    4.02   353.2    8.9      25.438
2013    4        7    19  36    4.03   353.2    8.9      25.470
2013    4        7    19  43    4.04   353.1    8.9      25.504
2013    4        7    19  50    4.05   353.1    9.0      25.540
2013    4        7    19  56    4.06   353.1    9.0      25.579
2013    4        7    20   3    4.07   353.1    9.0      25.619
2013    4        7    20  10    4.08   353.0    9.1      25.662
2013    4        7    20  17    4.09   353.0    9.1      25.708
2013    4        7    20  24    4.10   353.0    9.1      25.758
2013    4        7    20  31    4.11   353.1    9.1      25.811
2013    4        7    20  38    4.12   353.1    9.2      25.868
2013    4        7    20  45    4.13   353.1    9.2      25.927
2013    4        7    20  52    4.14   353.1    9.2      25.988
2013    4        7    20  58    4.15   353.2    9.3      26.050
2013    4        7    21   5    4.16   353.2    9.3      26.112
2013    4        7    21  12    4.17   353.2    9.3      26.172
2013    4        7    21  19    4.18   353.2    9.3      26.231
2013    4        7    21  26    4.19   353.3    9.4      26.288
2013    4        7    21  33    4.19   353.3    9.4      26.344
2013    4        7    21  40    4.20   353.3    9.4      26.399
2013    4        7    21  47    4.21   353.4    9.4      26.453
2013    4        7    21  54    4.22   353.4    9.4      26.506
2013    4        7    22   0    4.23   353.4    9.5      26.558
2013    4        7    22   7    4.24   353.4    9.5      26.609
2013    4        7    22  14    4.25   353.5    9.5      26.659
2013    4        7    22  21    4.26   353.5    9.5      26.708
2013    4        7    22  28    4.27   353.5    9.5      26.757
2013    4        7    22  35    4.27   353.6    9.6      26.804
2013    4        7    22  42    4.28   353.6    9.6      26.851
2013    4        7    22  49    4.29   353.6    9.6      26.898
2013    4        7    22  56    4.30   353.7    9.6      26.943
2013    4        7    23   3    4.31   353.7    9.6      26.988
2013    4        7    23   9    4.32   353.7    9.6      27.033
2013    4        7    23  16    4.33   353.8    9.7      27.077
2013    4        7    23  23    4.33   353.8    9.7      27.121
2013    4        7    23  30    4.34   353.8    9.7      27.164
2013    4        7    23  37    4.35   353.9    9.7      27.206
2013    4        7    23  44    4.36   353.9    9.7      27.249
2013    4        7    23  51    4.37   353.9    9.7      27.290
2013    4        7    23  58    4.38   354.0    9.8      27.332
2013    4        8     0   5    4.39   354.0    9.8      27.373
2013    4        8     0  11    4.39   354.0    9.8      27.414
2013    4        8     0  18    4.40   354.1    9.8      27.454
2013    4        8     0  25    4.41   354.1    9.8      27.495
2013    4        8     0  32    4.42   354.2    9.8      27.535
2013    4        8     0  39    4.43   354.2    9.9      27.575
2013    4        8     0  46    4.44   354.2    9.9      27.615
2013    4        8     0  53    4.45   354.3    9.9      27.655
2013    4        8     1   0    4.45   354.3    9.9      27.695
2013    4        8     1   7    4.46   354.4    9.9      27.736
2013    4        8     1  13    4.47   354.4    9.9      27.776
2013    4        8     1  20    4.48   354.4   10.0      27.817
2013    4        8     1  27    4.49   354.5   10.0      27.858
2013    4        8     1  34    4.50   354.5   10.0      27.899
2013    4        8     1  41    4.51   354.6   10.0      27.942
2013    4        8     1  48    4.52   354.6   10.0      27.984
2013    4        8     1  55    4.53   354.7   10.1      28.028
2013    4        8     2   2    4.54   354.8   10.1      28.072
2013    4        8     2   9    4.55   354.8   10.1      28.117
2013    4        8     2  15    4.55   354.9   10.1      28.163
2013    4        8     2  22    4.56   354.9   10.1      28.209
2013    4        8     2  29    4.57   355.0   10.2      28.257
2013    4        8     2  36    4.58   355.1   10.2      28.307
2013    4        8     2  43    4.60   355.1   10.2      28.359
2013    4        8     2  50    4.61   355.2   10.2      28.413
2013    4        8     2  57    4.62   355.3   10.3      28.468
2013    4        8     3   4    4.63   355.4   10.3      28.525
2013    4        8     3  11    4.64   355.4   10.3      28.584
2013    4        8     3  18    4.65   355.5   10.3      28.645
2013    4        8     3  24    4.66   355.6   10.4      28.709
2013    4        8     3  31    4.67   355.7   10.4      28.775
2013    4        8     3  38    4.68   355.9   10.4      28.845
2013    4        8     3  45    4.69   356.0   10.4      28.918
2013    4        8     3  52    4.71   356.1   10.5      28.994
2013    4        8     3  59    4.72   356.2   10.5      29.073
2013    4        8     4   6    4.73   356.4   10.5      29.153
2013    4        8     4  13    4.74   356.5   10.5      29.233
2013    4        8     4  20    4.75   356.6   10.6      29.312
2013    4        8     4  26    4.76   356.8   10.6      29.390
2013    4        8     4  33    4.77   356.9   10.6      29.466
2013    4        8     4  40    4.78   357.1   10.6      29.541
2013    4        8     4  47    4.79   357.2   10.6      29.614
2013    4        8     4  54    4.80   357.3   10.7      29.686
2013    4        8     5   1    4.81   357.5   10.7      29.757
2013    4        8     5   8    4.82   357.6   10.7      29.827
2013    4        8     5  15    4.83   357.8   10.7      29.896
2013    4        8     5  22    4.84   357.9   10.7      29.963
2013    4        8     5  29    4.85   358.1   10.7      30.029
2013    4        8     5  35    4.86   358.2   10.8      30.095
2013    4        8     5  42    4.87   358.4   10.8      30.159
2013    4        8     5  49    4.88   358.5   10.8      30.222
2013    4        8     5  56    4.89   358.7   10.8      30.284
2013    4        8     6   3    4.90   358.8   10.8      30.345
2013    4        8     6  10    4.91   359.0   10.8      30.406
2013    4        8     6  17    4.92   359.1   10.8      30.465
2013    4        8     6  24    4.92   359.3   10.8      30.523
2013    4        8     6  31    4.93   359.4   10.8      30.581
2013    4        8     6  37    4.94   359.5   10.9      30.637
2013    4        8     6  44    4.95   359.7   10.9      30.693
2013    4        8     6  51    4.96   359.8   10.9      30.748
2013    4        8     6  58    4.97   360.0   10.9      30.802
2013    4        8     7   5    4.98   360.1   10.9      30.856
2013    4        8     7  12    4.98   360.2   10.9      30.908
2013    4        8     7  19    4.99   360.4   10.9      30.960
2013    4        8     7  26    5.00   360.5   10.9      31.012
2013    4        8     7  33    5.01   360.6   10.9      31.063
2013    4        8     7  39    5.02   360.8   10.9      31.113
2013    4        8     7  46    5.03   360.9   10.9      31.163
2013    4        8     7  53    5.03   361.0   10.9      31.212
2013    4        8     8   0    5.04   361.1   11.0      31.261
2013    4        8     8   7    5.05   361.3   11.0      31.310
2013    4        8     8  14    5.06   361.4   11.0      31.359
2013    4        8     8  21    5.07   361.5   11.0      31.407
2013    4        8     8  28    5.08   361.6   11.0      31.455
2013    4        8     8  35    5.08   361.8   11.0      31.503
2013    4        8     8  41    5.09   361.9   11.0      31.552
2013    4        8     8  48    5.10   362.0   11.0      31.600
2013    4        8     8  55    5.11   362.1   11.0      31.648
2013    4        8     9   2    5.12   362.3   11.0      31.697
2013    4        8     9   9    5.13   362.4   11.0      31.746
2013    4        8     9  16    5.13   362.5   11.0      31.796
2013    4        8     9  23    5.14   362.7   11.0      31.846
2013    4        8     9  30    5.15   362.8   11.1      31.897
2013    4        8     9  37    5.16   362.9   11.1      31.949
2013    4        8     9  44    5.17   363.0   11.1      32.001
2013    4        8     9  50    5.18   363.2   11.1      32.055
2013    4        8     9  57    5.19   363.3   11.1      32.110
2013    4        8    10   4    5.19   363.5   11.1      32.168
2013    4        8    10  11    5.20   363.6   11.1      32.226
2013    4        8    10  18    5.21   363.7   11.1      32.286
2013    4        8    10  25    5.22   363.9   11.2      32.348
2013    4        8    10  32    5.23   364.0   11.2      32.411
2013    4        8    10  39    5.24   364.2   11.2      32.477
2013    4        8    10  46    5.25   364.3   11.2      32.545
2013    4        8    10  52    5.26   364.5   11.2      32.616
2013    4        8    10  59    5.27   364.7   11.2      32.689
2013    4        8    11   6    5.28   364.8   11.3      32.765
2013    4        8    11  13    5.29   365.0   11.3      32.843
2013    4        8    11  20    5.30   365.2   11.3      32.924
2013    4        8    11  27    5.31   365.4   11.3      33.006
2013    4        8    11  34    5.32   365.6   11.3      33.089
2013    4        8    11  41    5.32   365.8   11.3      33.172
2013    4        8    11  48    5.33   366.0   11.4      33.256
2013    4        8    11  54    5.34   366.2   11.4      33.343
2013    4        8    12   1    5.35   366.4   11.4      33.431
2013    4        8    12   8    5.36   366.6   11.4      33.520
2013    4        8    12  15    5.37   366.8   11.4      33.610
2013    4        8    12  22    5.38   367.0   11.4      33.702
2013    4        8    12  29    5.39   367.2   11.5      33.794
2013    4        8    12  36    5.40   367.4   11.5      33.889
2013    4        8    12  43    5.41   367.7   11.5      33.987
2013    4        8    12  50    5.42   367.9   11.5      34.086
2013    4        8    12  57    5.43   368.1   11.5      34.187
2013    4        8    13   3    5.44   368.4   11.6      34.290
2013    4        8    13  10    5.45   368.7   11.6      34.395
2013    4        8    13  17    5.46   368.9   11.6      34.501
2013    4        8    13  24    5.47   369.2   11.6      34.607
2013    4        8    13  31    5.48   369.5   11.6      34.711
2013    4        8    13  38    5.49   369.7   11.6      34.813
2013    4        8    13  45    5.50   370.0   11.6      34.913
2013    4        8    13  52    5.51   370.3   11.7      35.012
2013    4        8    13  59    5.52   370.5   11.7      35.108
2013    4        8    14   5    5.52   370.8   11.7      35.203
2013    4        8    14  12    5.53   371.1   11.7      35.296
2013    4        8    14  19    5.54   371.3   11.7      35.387
2013    4        8    14  26    5.55   371.6   11.7      35.477
2013    4        8    14  33    5.56   371.9   11.7      35.565
2013    4        8    14  40    5.57   372.1   11.7      35.652
2013    4        8    14  47    5.57   372.4   11.7      35.738
2013    4        8    14  54    5.58   372.6   11.7      35.822
2013    4        8    15   1    5.59   372.9   11.7      35.905
2013    4        8    15   7    5.60   373.2   11.7      35.987
2013    4        8    15  14    5.60   373.4   11.7      36.067
2013    4        8    15  21    5.61   373.7   11.7      36.146
2013    4        8    15  28    5.62   373.9   11.7      36.224
2013    4        8    15  35    5.63   374.2   11.7      36.301
2013    4        8    15  42    5.63   374.4   11.7      36.377
2013    4        8    15  49    5.64   374.7   11.7      36.451
2013    4        8    15  56    5.65   375.0   11.7      36.524
2013    4        8    16   3    5.66   375.2   11.7      36.596
2013    4        8    16   9    5.66   375.5   11.7      36.667
2013    4        8    16  16    5.67   375.7   11.7      36.737
2013    4        8    16  23    5.68   376.0   11.7      36.806
2013    4        8    16  30    5.68   376.2   11.7      36.875
2013    4        8    16  37    5.69   376.5   11.7      36.942
2013    4        8    16  44    5.70   376.7   11.7      37.008
2013    4        8    16  51    5.70   377.0   11.7      37.074
2013    4        8    16  58    5.71   377.2   11.7      37.140
2013    4        8    17   5    5.71   377.4   11.7      37.205
2013    4        8    17  12    5.72   377.7   11.7      37.269
2013    4        8    17  18    5.73   377.9   11.7      37.334
2013    4        8    17  25    5.73   378.2   11.6      37.398
2013    4        8    17  32    5.74   378.4   11.6      37.463
2013    4        8    17  39    5.75   378.7   11.6      37.527
2013    4        8    17  46    5.75   378.9   11.6      37.592
2013    4        8    17  53    5.76   379.1   11.6      37.657
2013    4        8    18   0    5.76   379.4   11.6      37.723
2013    4        8    18   7    5.77   379.6   11.6      37.789
2013    4        8    18  14    5.78   379.9   11.6      37.855
2013    4        8    18  20    5.78   380.1   11.6      37.922
2013    4        8    18  27    5.79   380.3   11.6      37.990
2013    4        8    18  34    5.79   380.6   11.6      38.058
2013    4        8    18  41    5.80   380.8   11.6      38.127
2013    4        8    18  48    5.81   381.0   11.6      38.197
2013    4        8    18  55    5.81   381.3   11.6      38.267
2013    4        8    19   2    5.82   381.5   11.6      38.340
2013    4        8    19   9    5.82   381.7   11.6      38.413
2013    4        8    19  16    5.83   382.0   11.6      38.489
2013    4        8    19  22    5.84   382.2   11.6      38.566
2013    4        8    19  29    5.84   382.4   11.6      38.644
2013    4        8    19  36    5.85   382.7   11.6      38.723
2013    4        8    19  43    5.86   382.9   11.6      38.804
2013    4        8    19  50    5.86   383.2   11.6      38.887
2013    4        8    19  57    5.87   383.4   11.6      38.973
2013    4        8    20   4    5.88   383.7   11.6      39.062
2013    4        8    20  11    5.88   383.9   11.7      39.152
2013    4        8    20  18    5.89   384.2   11.7      39.246
2013    4        8    20  25    5.90   384.5   11.7      39.342
2013    4        8    20  31    5.90   384.7   11.7      39.441
2013    4        8    20  38    5.91   385.0   11.7      39.541
2013    4        8    20  45    5.92   385.3   11.7      39.641
2013    4        8    20  52    5.92   385.5   11.7      39.740
2013    4        8    20  59    5.93   385.8   11.7      39.840
2013    4        8    21   6    5.94   386.1   11.7      39.941
2013    4        8    21  13    5.94   386.3   11.7      40.043
2013    4        8    21  20    5.95   386.6   11.7      40.146
2013    4        8    21  27    5.96   386.9   11.7      40.251
2013    4        8    21  33    5.97   387.1   11.7      40.357
2013    4        8    21  40    5.97   387.4   11.7      40.467
2013    4        8    21  47    5.98   387.7   11.8      40.581
2013    4        8    21  54    5.99   388.0   11.8      40.698
2013    4        8    22   1    6.00   388.3   11.8      40.821
2013    4        8    22   8    6.01   388.6   11.8      40.947
2013    4        8    22  15    6.01   388.9   11.8      41.075
2013    4        8    22  22    6.02   389.2   11.8      41.205
2013    4        8    22  29    6.03   389.6   11.8      41.343
2013    4        8    22  35    6.04   389.9   11.9      41.486
2013    4        8    22  42    6.05   390.3   11.9      41.633
2013    4        8    22  49    6.06   390.7   11.9      41.782
2013    4        8    22  56    6.07   391.1   11.9      41.934
2013    4        8    23   3    6.08   391.5   11.9      42.089
2013    4        8    23  10    6.09   392.0   11.9      42.246
2013    4        8    23  17    6.10   392.4   12.0      42.397
2013    4        8    23  24    6.11   392.9   12.0      42.544
2013    4        8    23  31    6.11   393.4   12.0      42.685
2013    4        8    23  37    6.12   393.8   12.0      42.821
2013    4        8    23  44    6.13   394.3   12.0      42.953
2013    4        8    23  51    6.13   394.7   12.0      43.080
2013    4        8    23  58    6.14   395.2   12.0      43.202
2013    4        9     0   5    6.15   395.6   12.0      43.320
2013    4        9     0  12    6.15   396.1   11.9      43.433
2013    4        9     0  19    6.15   396.6   11.9      43.544
2013    4        9     0  26    6.16   397.0   11.9      43.651
2013    4        9     0  33    6.16   397.5   11.9      43.756
2013    4        9     0  40    6.17   397.9   11.9      43.858
2013    4        9     0  46    6.17   398.4   11.9      43.958
2013    4        9     0  53    6.17   398.8   11.9      44.056
2013    4        9     1   0    6.18   399.2   11.9      44.152
2013    4        9     1   7    6.18   399.7   11.8      44.247
2013    4        9     1  14    6.18   400.1   11.8      44.341
2013    4        9     1  21    6.19   400.5   11.8      44.434
2013    4        9     1  28    6.19   401.0   11.8      44.526
2013    4        9     1  35    6.19   401.4   11.8      44.617
2013    4        9     1  42    6.20   401.8   11.8      44.707
2013    4        9     1  48    6.20   402.2   11.7      44.797
2013    4        9     1  55    6.20   402.7   11.7      44.887
2013    4        9     2   2    6.21   403.1   11.7      44.977
2013    4        9     2   9    6.21   403.5   11.7      45.066
2013    4        9     2  16    6.21   403.9   11.7      45.155
2013    4        9     2  23    6.22   404.4   11.6      45.245
2013    4        9     2  30    6.22   404.8   11.6      45.334
2013    4        9     2  37    6.22   405.2   11.6      45.423
2013    4        9     2  44    6.23   405.6   11.6      45.511
2013    4        9     2  50    6.23   406.1   11.6      45.599
2013    4        9     2  57    6.23   406.5   11.5      45.686
2013    4        9     3   4    6.23   406.9   11.5      45.773
2013    4        9     3  11    6.24   407.4   11.5      45.858
2013    4        9     3  18    6.24   407.8   11.5      45.944
2013    4        9     3  25    6.24   408.2   11.5      46.028
2013    4        9     3  32    6.24   408.6   11.4      46.113
2013    4        9     3  39    6.25   409.1   11.4      46.196
2013    4        9     3  46    6.25   409.5   11.4      46.278
2013    4        9     3  53    6.25   409.9   11.4      46.360
2013    4        9     3  59    6.25   410.2   11.4      46.442
2013    4        9     4   6    6.26   410.6   11.3      46.523
2013    4        9     4  13    6.26   411.0   11.3      46.606
2013    4        9     4  20    6.26   411.3   11.3      46.691
2013    4        9     4  27    6.27   411.7   11.3      46.780
2013    4        9     4  34    6.27   412.0   11.3      46.872
2013    4        9     4  41    6.28   412.4   11.3      46.969
2013    4        9     4  48    6.28   412.7   11.3      47.069
2013    4        9     4  55    6.28   413.1   11.3      47.177
2013    4        9     5   1    6.29   413.5   11.3      47.291
2013    4        9     5   8    6.30   413.9   11.3      47.413
2013    4        9     5  15    6.30   414.4   11.3      47.541
2013    4        9     5  22    6.31   414.8   11.3      47.675
2013    4        9     5  29    6.31   415.2   11.3      47.811
2013    4        9     5  36    6.32   415.6   11.3      47.948
2013    4        9     5  43    6.33   416.1   11.3      48.089
2013    4        9     5  50    6.33   416.5   11.3      48.233
2013    4        9     5  57    6.34   416.9   11.3      48.380
2013    4        9     6   3    6.35   417.4   11.3      48.529
2013    4        9     6  10    6.35   417.9   11.3      48.680
2013    4        9     6  17    6.36   418.4   11.3      48.837
2013    4        9     6  24    6.36   418.9   11.3      48.996
2013    4        9     6  31    6.37   419.4   11.3      49.153
2013    4        9     6  38    6.38   420.0   11.3      49.307
2013    4        9     6  45    6.38   420.5   11.3      49.459
2013    4        9     6  52    6.38   421.1   11.3      49.608
2013    4        9     6  59    6.39   421.6   11.3      49.756
2013    4        9     7   5    6.39   422.2   11.3      49.902
2013    4        9     7  12    6.40   422.7   11.3      50.046
2013    4        9     7  19    6.40   423.3   11.3      50.189
2013    4        9     7  26    6.40   423.9   11.3      50.331
2013    4        9     7  33    6.40   424.5   11.3      50.472
2013    4        9     7  40    6.41   425.1   11.3      50.614
2013    4        9     7  47    6.41   425.7   11.2      50.755
2013    4        9     7  54    6.41   426.3   11.2      50.897
2013    4        9     8   1    6.41   426.9   11.2      51.039
2013    4        9     8   7    6.42   427.5   11.2      51.182
2013    4        9     8  14    6.42   428.2   11.2      51.323
2013    4        9     8  21    6.42   428.8   11.2      51.465
2013    4        9     8  28    6.42   429.5   11.1      51.606
2013    4        9     8  35    6.42   430.1   11.1      51.747
2013    4        9     8  42    6.42   430.8   11.1      51.887
2013    4        9     8  49    6.42   431.4   11.1      52.026
2013    4        9     8  56    6.42   432.1   11.1      52.164
2013    4        9     9   3    6.42   432.7   11.0      52.302
2013    4        9     9  10    6.42   433.4   11.0      52.439
2013    4        9     9  16    6.42   434.0   11.0      52.575
2013    4        9     9  23    6.42   434.7   11.0      52.711
2013    4        9     9  30    6.42   435.3   11.0      52.847
2013    4        9     9  37    6.41   435.9   10.9      52.983
2013    4        9     9  44    6.41   436.6   10.9      53.120
2013    4        9     9  51    6.41   437.2   10.9      53.257
2013    4        9     9  58    6.41   437.8   10.9      53.394
2013    4        9    10   5    6.40   438.5   10.8      53.531
2013    4        9    10  12    6.40   439.1   10.8      53.667
2013    4        9    10  18    6.40   439.8   10.8      53.803
2013    4        9    10  25    6.40   440.4   10.8      53.937
2013    4        9    10  32    6.39   441.0   10.7      54.069
2013    4        9    10  39    6.39   441.7   10.7      54.198
2013    4        9    10  46    6.39   442.3   10.7      54.324
2013    4        9    10  53    6.38   443.0   10.6      54.447
2013    4        9    11   0    6.38   443.6   10.6      54.566
2013    4        9    11   7    6.38   444.3   10.6      54.681
2013    4        9    11  14    6.37   445.0   10.6      54.791
2013    4        9    11  21    6.37   445.7   10.5      54.899
2013    4        9    11  27    6.36   446.4   10.5      55.002
2013    4        9    11  34    6.36   447.1   10.5      55.102
2013    4        9    11  41    6.35   447.9   10.4      55.198
2013    4        9    11  48    6.35   448.7   10.4      55.289
2013    4        9    11  55    6.34   449.5   10.4      55.373
2013    4        9    12   2    6.33   450.3   10.3      55.453
2013    4        9    12   9    6.33   451.2   10.3      55.529
2013    4        9    12  16    6.32   452.0   10.2      55.602
2013    4        9    12  23    6.31   452.9   10.2      55.671
2013    4        9    12  29    6.30   453.7   10.1      55.728
2013    4        9    12  36    6.28   454.5   10.1      55.766
2013    4        9    12  43    6.27   455.1   10.0      55.785
2013    4        9    12  50    6.26   455.7   10.0      55.789
2013    4        9    12  57    6.25   456.2    9.9      55.784
2013    4        9    13   4    6.24   456.7    9.9      55.765
2013    4        9    13  11    6.22   457.0    9.9      55.744
2013    4        9    13  18    6.22   457.4    9.8      55.736
2013    4        9    13  25    6.21   457.8    9.8      55.744
2013    4        9    13  31    6.20   458.2    9.8      55.773
2013    4        9    13  38    6.19   458.6    9.7      55.823
2013    4        9    13  45    6.19   459.0    9.7      55.899
2013    4        9    13  52    6.18   459.5    9.7      56.001
2013    4        9    13  59    6.18   460.0    9.7      56.123
2013    4        9    14   6    6.17   460.5    9.7      56.266
2013    4        9    14  13    6.17   461.1    9.7      56.437
2013    4        9    14  20    6.16   461.7    9.7      56.633
2013    4        9    14  27    6.16   462.3    9.7      56.847
2013    4        9    14  33    6.16   463.0    9.7      57.074
2013    4        9    14  40    6.15   463.7    9.7      57.318
2013    4        9    14  47    6.15   464.5    9.7      57.565
2013    4        9    14  54    6.14   465.2    9.7      57.805
2013    4        9    15   1    6.14   466.0    9.7      58.035
2013    4        9    15   8    6.13   466.7    9.7      58.254
2013    4        9    15  15    6.12   467.5    9.7      58.463
2013    4        9    15  22    6.11   468.2    9.7      58.662
2013    4        9    15  29    6.10   468.9    9.7      58.846
2013    4        9    15  35    6.09   469.5    9.7      59.013
2013    4        9    15  42    6.08   470.2    9.7      59.166
2013    4        9    15  49    6.07   470.8    9.6      59.310
2013    4        9    15  56    6.06   471.4    9.6      59.447
2013    4        9    16   3    6.05   472.0    9.6      59.576
2013    4        9    16  10    6.03   472.5    9.6      59.700
2013    4        9    16  17    6.02   473.2    9.6      59.820
2013    4        9    16  24    6.01   473.8    9.5      59.939
2013    4        9    16  31    5.99   474.4    9.5      60.055
2013    4        9    16  38    5.98   475.0    9.5      60.167
2013    4        9    16  44    5.96   475.7    9.5      60.274
2013    4        9    16  51    5.95   476.4    9.5      60.383
2013    4        9    16  58    5.94   477.1    9.4      60.489
2013    4        9    17   5    5.92   477.8    9.4      60.588
2013    4        9    17  12    5.91   478.5    9.4      60.678
2013    4        9    17  19    5.89   479.2    9.3      60.761
2013    4        9    17  26    5.88   479.8    9.3      60.834
2013    4        9    17  33    5.86   480.5    9.2      60.900
2013    4        9    17  40    5.85   481.2    9.2      60.951
2013    4        9    17  46    5.83   481.8    9.2      60.980
2013    4        9    17  53    5.82   482.4    9.1      60.993
2013    4        9    18   0    5.81   483.0    9.1      60.992
2013    4        9    18   7    5.79   483.5    9.0      60.982
2013    4        9    18  14    5.78   483.9    9.0      60.958
2013    4        9    18  21    5.77   484.4    8.9      60.925
2013    4        9    18  28    5.76   484.8    8.9      60.898
2013    4        9    18  35    5.74   485.3    8.8      60.878
2013    4        9    18  42    5.73   485.7    8.8      60.861
2013    4        9    18  48    5.72   486.2    8.8      60.848
2013    4        9    18  55    5.71   486.7    8.7      60.836
2013    4        9    19   2    5.70   487.2    8.7      60.826
2013    4        9    19   9    5.69   487.7    8.6      60.817
2013    4        9    19  16    5.68   488.2    8.6      60.811
2013    4        9    19  23    5.67   488.7    8.6      60.806
2013    4        9    19  30    5.66   489.3    8.5      60.801
2013    4        9    19  37    5.65   489.8    8.5      60.799
2013    4        9    19  44    5.64   490.4    8.4      60.798
2013    4        9    19  50    5.63   490.9    8.4      60.799
2013    4        9    19  57    5.63   491.5    8.4      60.801
2013    4        9    20   4    5.62   492.1    8.3      60.801
2013    4        9    20  11    5.61   492.6    8.3      60.799
2013    4        9    20  18    5.60   493.2    8.2      60.792
2013    4        9    20  25    5.59   493.8    8.2      60.780
2013    4        9    20  32    5.58   494.4    8.1      60.761
2013    4        9    20  39    5.57   495.0    8.1      60.730
2013    4        9    20  46    5.56   495.5    8.0      60.688
2013    4        9    20  53    5.55   496.1    8.0      60.634
2013    4        9    20  59    5.55   496.6    7.9      60.568
2013    4        9    21   6    5.54   497.2    7.9      60.496
2013    4        9    21  13    5.53   497.7    7.8      60.408
2013    4        9    21  20    5.52   498.2    7.8      60.304
2013    4        9    21  27    5.51   498.7    7.7      60.190
2013    4        9    21  34    5.51   499.2    7.6      60.068
2013    4        9    21  41    5.50   499.7    7.6      59.937
2013    4        9    21  48    5.49   500.1    7.5      59.797
2013    4        9    21  55    5.49   500.5    7.5      59.662
2013    4        9    22   1    5.48   500.9    7.4      59.535
2013    4        9    22   8    5.47   501.4    7.4      59.414
2013    4        9    22  15    5.46   501.8    7.3      59.298
2013    4        9    22  22    5.46   502.2    7.3      59.186
2013    4        9    22  29    5.45   502.6    7.3      59.077
2013    4        9    22  36    5.44   503.1    7.2      58.971
2013    4        9    22  43    5.44   503.5    7.2      58.869
2013    4        9    22  50    5.43   503.9    7.1      58.769
2013    4        9    22  57    5.42   504.3    7.1      58.671
2013    4        9    23   3    5.41   504.8    7.1      58.575
2013    4        9    23  10    5.41   505.2    7.0      58.481
2013    4        9    23  17    5.40   505.6    7.0      58.387
2013    4        9    23  24    5.39   506.0    6.9      58.294
2013    4        9    23  31    5.38   506.4    6.9      58.202
2013    4        9    23  38    5.37   506.8    6.9      58.111
2013    4        9    23  45    5.36   507.2    6.8      58.020
2013    4        9    23  52    5.36   507.6    6.8      57.929
2013    4        9    23  59    5.35   508.0    6.8      57.838
2013    4       10     0   5    5.34   508.3    6.7      57.749
2013    4       10     0  12    5.33   508.7    6.7      57.661
2013    4       10     0  19    5.32   509.0    6.7      57.575
2013    4       10     0  26    5.31   509.4    6.6      57.493
2013    4       10     0  33    5.30   509.7    6.6      57.414
2013    4       10     0  40    5.29   510.0    6.6      57.338
2013    4       10     0  47    5.28   510.3    6.6      57.265
2013    4       10     0  54    5.27   510.5    6.5      57.196
2013    4       10     1   1    5.26   510.8    6.5      57.131
2013    4       10     1   8    5.25   511.1    6.5      57.069
2013    4       10     1  14    5.24   511.3    6.5      57.011
2013    4       10     1  21    5.23   511.6    6.5      56.954
2013    4       10     1  28    5.22   511.9    6.4      56.900
2013    4       10     1  35    5.22   512.1    6.4      56.849
2013    4       10     1  42    5.21   512.3    6.4      56.801
2013    4       10     1  49    5.20   512.6    6.4      56.754
2013    4       10     1  56    5.19   512.8    6.4      56.711
2013    4       10     2   3    5.18   513.1    6.4      56.669
2013    4       10     2  10    5.17   513.3    6.3      56.629
2013    4       10     2  16    5.16   513.6    6.3      56.592
2013    4       10     2  23    5.15   513.9    6.3      56.556
2013    4       10     2  30    5.14   514.1    6.3      56.522
2013    4       10     2  37    5.13   514.4    6.3      56.486
2013    4       10     2  44    5.12   514.7    6.3      56.450
2013    4       10     2  51    5.11   515.0    6.2      56.411
2013    4       10     2  58    5.10   515.3    6.2      56.369
2013    4       10     3   5    5.09   515.5    6.2      56.324
2013    4       10     3  12    5.08   515.8    6.2      56.275
2013    4       10     3  18    5.07   516.0    6.2      56.225
2013    4       10     3  25    5.06   516.1    6.1      56.175
2013    4       10     3  32    5.05   516.3    6.1      56.123
2013    4       10     3  39    5.04   516.4    6.1      56.072
2013    4       10     3  46    5.03   516.6    6.1      56.024
2013    4       10     3  53    5.02   516.7    6.1      55.979
2013    4       10     4   0    5.01   516.9    6.1      55.935
2013    4       10     4   7    5.00   517.0    6.1      55.896
2013    4       10     4  14    4.99   517.2    6.1      55.864
2013    4       10     4  20    4.98   517.4    6.0      55.839
2013    4       10     4  27    4.98   517.6    6.0      55.821
2013    4       10     4  34    4.97   517.8    6.0      55.808
2013    4       10     4  41    4.96   518.1    6.0      55.803
2013    4       10     4  48    4.95   518.4    6.0      55.804
2013    4       10     4  55    4.94   518.7    6.0      55.808
2013    4       10     5   2    4.93   519.0    6.0      55.813
2013    4       10     5   9    4.93   519.3    6.0      55.820
2013    4       10     5  16    4.92   519.5    6.0      55.822
2013    4       10     5  22    4.91   519.8    5.9      55.819
2013    4       10     5  29    4.90   520.0    5.9      55.812
2013    4       10     5  36    4.89   520.2    5.9      55.803
2013    4       10     5  43    4.88   520.4    5.9      55.791
2013    4       10     5  50    4.87   520.6    5.9      55.780
2013    4       10     5  57    4.86   520.8    5.9      55.768
2013    4       10     6   4    4.85   521.0    5.9      55.757
2013    4       10     6  11    4.84   521.2    5.9      55.746
2013    4       10     6  18    4.83   521.4    5.9      55.735
2013    4       10     6  24    4.82   521.6    5.8      55.724
2013    4       10     6  31    4.81   521.8    5.8      55.713
2013    4       10     6  38    4.80   522.0    5.8      55.701
2013    4       10     6  45    4.79   522.1    5.8      55.688
2013    4       10     6  52    4.78   522.3    5.8      55.675
2013    4       10     6  59    4.77   522.5    5.8      55.661
2013    4       10     7   6    4.76   522.7    5.8      55.646
2013    4       10     7  13    4.75   522.9    5.8      55.631
2013    4       10     7  20    4.74   523.1    5.8      55.613
2013    4       10     7  27    4.73   523.3    5.8      55.595
2013    4       10     7  33    4.72   523.5    5.7      55.574
2013    4       10     7  40    4.71   523.7    5.7      55.552
2013    4       10     7  47    4.70   523.9    5.7      55.526
2013    4       10     7  54    4.68   524.1    5.7      55.498
2013    4       10     8   1    4.67   524.3    5.7      55.469
2013    4       10     8   8    4.66   524.6    5.7      55.437
2013    4       10     8  15    4.65   524.8    5.7      55.400
2013    4       10     8  22    4.64   525.0    5.7      55.356
2013    4       10     8  29    4.63   525.2    5.6      55.305
2013    4       10     8  35    4.62   525.5    5.6      55.248
2013    4       10     8  42    4.60   525.7    5.6      55.185
2013    4       10     8  49    4.59   525.9    5.6      55.107
2013    4       10     8  56    4.58   526.1    5.6      55.019
2013    4       10     9   3    4.56   526.2    5.5      54.922
2013    4       10     9  10    4.55   526.3    5.5      54.816
2013    4       10     9  17    4.54   526.4    5.5      54.702
2013    4       10     9  24    4.53   526.5    5.5      54.587
2013    4       10     9  31    4.52   526.6    5.5      54.477
2013    4       10     9  38    4.51   526.6    5.5      54.371
2013    4       10     9  44    4.49   526.7    5.4      54.267
2013    4       10     9  51    4.48   526.7    5.4      54.166
2013    4       10     9  58    4.47   526.8    5.4      54.068
2013    4       10    10   5    4.46   526.8    5.4      53.974
2013    4       10    10  12    4.45   526.8    5.4      53.882
2013    4       10    10  19    4.44   526.9    5.4      53.793
2013    4       10    10  26    4.43   526.9    5.4      53.706
2013    4       10    10  33    4.43   526.9    5.4      53.622
2013    4       10    10  39    4.42   526.9    5.3      53.540
2013    4       10    10  46    4.41   526.9    5.3      53.458
2013    4       10    10  53    4.40   526.9    5.3      53.378
2013    4       10    11   0    4.39   527.0    5.3      53.300
2013    4       10    11   7    4.38   527.0    5.3      53.223
2013    4       10    11  14    4.37   527.0    5.3      53.144
2013    4       10    11  21    4.36   527.0    5.3      53.065
2013    4       10    11  28    4.36   527.0    5.3      52.985
2013    4       10    11  35    4.35   527.0    5.3      52.903
2013    4       10    11  42    4.34   527.1    5.3      52.821
2013    4       10    11  48    4.33   527.1    5.3      52.737
2013    4       10    11  55    4.32   527.1    5.2      52.653
2013    4       10    12   2    4.32   527.2    5.2      52.569
2013    4       10    12   9    4.31   527.2    5.2      52.485
2013    4       10    12  16    4.30   527.2    5.2      52.401
2013    4       10    12  23    4.29   527.3    5.2      52.317
2013    4       10    12  30    4.29   527.3    5.2      52.234
2013    4       10    12  37    4.28   527.4    5.2      52.150
2013    4       10    12  44    4.27   527.5    5.2      52.067
2013    4       10    12  50    4.26   527.5    5.2      51.983
2013    4       10    12  57    4.25   527.6    5.2      51.900
2013    4       10    13   4    4.25   527.6    5.2      51.816
2013    4       10    13  11    4.24   527.7    5.2      51.733
2013    4       10    13  18    4.23   527.7    5.2      51.650
2013    4       10    13  25    4.22   527.8    5.2      51.567
2013    4       10    13  32    4.22   527.8    5.2      51.484
2013    4       10    13  39    4.21   527.9    5.1      51.403
2013    4       10    13  46    4.20   527.9    5.1      51.321
2013    4       10    13  52    4.19   527.9    5.1      51.241
2013    4       10    13  59    4.19   528.0    5.1      51.161
2013    4       10    14   6    4.18   528.0    5.1      51.082
2013    4       10    14  13    4.17   528.0    5.1      51.004
2013    4       10    14  20    4.17   528.0    5.1      50.927
2013    4       10    14  27    4.16   528.0    5.1      50.851
2013    4       10    14  34    4.15   528.1    5.1      50.776
2013    4       10    14  41    4.15   528.1    5.1      50.702
2013    4       10    14  48    4.14   528.1    5.1      50.630
2013    4       10    14  54    4.13   528.1    5.1      50.559
2013    4       10    15   1    4.13   528.1    5.0      50.489
2013    4       10    15   8    4.12   528.2    5.0      50.419
2013    4       10    15  15    4.12   528.2    5.0      50.351
2013    4       10    15  22    4.11   528.2    5.0      50.284
2013    4       10    15  29    4.10   528.2    5.0      50.217
2013    4       10    15  36    4.10   528.2    5.0      50.151
2013    4       10    15  43    4.09   528.2    5.0      50.085
2013    4       10    15  50    4.09   528.2    5.0      50.019
2013    4       10    15  57    4.08   528.2    5.0      49.953
2013    4       10    16   3    4.08   528.2    5.0      49.887
2013    4       10    16  10    4.07   528.2    5.0      49.820
2013    4       10    16  17    4.07   528.2    4.9      49.753
2013    4       10    16  24    4.06   528.2    4.9      49.686
2013    4       10    16  31    4.06   528.2    4.9      49.618
2013    4       10    16  38    4.05   528.2    4.9      49.550
2013    4       10    16  45    4.05   528.1    4.9      49.481
2013    4       10    16  52    4.04   528.1    4.9      49.412
2013    4       10    16  59    4.04   528.1    4.9      49.343
2013    4       10    17   5    4.03   528.1    4.9      49.273
2013    4       10    17  12    4.03   528.0    4.9      49.203
2013    4       10    17  19    4.02   528.0    4.9      49.134
2013    4       10    17  26    4.02   528.0    4.9      49.065
2013    4       10    17  33    4.01   527.9    4.9      48.996
2013    4       10    17  40    4.01   527.9    4.9      48.927
2013    4       10    17  47    4.01   527.9    4.8      48.860
2013    4       10    17  54    4.00   527.8    4.8      48.793
2013    4       10    18   1    4.00   527.8    4.8      48.728
2013    4       10    18   7    3.99   527.7    4.8      48.664
2013    4       10    18  14    3.99   527.7    4.8      48.602
2013    4       10    18  21    3.98   527.6    4.8      48.542
2013    4       10    18  28    3.98   527.6    4.8      48.483
2013    4       10    18  35    3.98   527.5    4.8      48.427
2013    4       10    18  42    3.97   527.5    4.8      48.372
2013    4       10    18  49    3.97   527.4    4.8      48.319
2013    4       10    18  56    3.97   527.4    4.8      48.269
2013    4       10    19   3    3.96   527.4    4.8      48.221
2013    4       10    19   9    3.96   527.3    4.8      48.175
2013    4       10    19  16    3.95   527.3    4.8      48.131
2013    4       10    19  23    3.95   527.2    4.8      48.088
2013    4       10    19  30    3.95   527.2    4.8      48.048
2013    4       10    19  37    3.94   527.1    4.8      48.010
2013    4       10    19  44    3.94   527.1    4.8      47.974
2013    4       10    19  51    3.94   527.0    4.8      47.938
2013    4       10    19  58    3.93   526.9    4.8      47.904
2013    4       10    20   5    3.93   526.9    4.8      47.872
2013    4       10    20  11    3.93   526.8    4.8      47.841
2013    4       10    20  18    3.93   526.7    4.8      47.811
2013    4       10    20  25    3.92   526.7    4.8      47.781
2013    4       10    20  32    3.92   526.6    4.8      47.752
2013    4       10    20  39    3.92   526.5    4.8      47.722
2013    4       10    20  46    3.92   526.4    4.8      47.690
2013    4       10    20  53    3.91   526.4    4.8      47.657
2013    4       10    21   0    3.91   526.3    4.8      47.622
2013    4       10    21   7    3.91   526.2    4.8      47.586
2013    4       10    21  13    3.91   526.1    4.8      47.549
2013    4       10    21  20    3.90   526.0    4.8      47.509
2013    4       10    21  27    3.90   526.0    4.8      47.469
2013    4       10    21  34    3.90   525.9    4.8      47.427
2013    4       10    21  41    3.90   525.8    4.8      47.383
2013    4       10    21  48    3.89   525.7    4.7      47.339
2013    4       10    21  55    3.89   525.6    4.7      47.293
2013    4       10    22   2    3.89   525.6    4.7      47.246
2013    4       10    22   9    3.88   525.5    4.7      47.198
2013    4       10    22  16    3.88   525.4    4.7      47.149
2013    4       10    22  22    3.88   525.3    4.7      47.099
2013    4       10    22  29    3.87   525.2    4.7      47.048
2013    4       10    22  36    3.87   525.1    4.7      46.997
2013    4       10    22  43    3.87   525.0    4.7      46.944
2013    4       10    22  50    3.87   524.9    4.7      46.891
2013    4       10    22  57    3.86   524.8    4.7      46.837
2013    4       10    23   4    3.86   524.7    4.7      46.783
2013    4       10    23  11    3.86   524.6    4.7      46.728
2013    4       10    23  18    3.85   524.6    4.7      46.673
2013    4       10    23  24    3.85   524.5    4.7      46.617
2013    4       10    23  31    3.85   524.4    4.7      46.561
2013    4       10    23  38    3.84   524.3    4.7      46.504
2013    4       10    23  45    3.84   524.2    4.7      46.448
2013    4       10    23  52    3.84   524.1    4.7      46.391
2013    4       10    23  59    3.83   524.0    4.7      46.333
2013    4       11     0   6    3.83   523.9    4.7      46.276
2013    4       11     0  13    3.83   523.8    4.7      46.218
2013    4       11     0  20    3.82   523.7    4.7      46.160
2013    4       11     0  26    3.82   523.5    4.7      46.103
2013    4       11     0  33    3.81   523.4    4.7      46.044
2013    4       11     0  40    3.81   523.3    4.6      45.986
2013    4       11     0  47    3.81   523.2    4.6      45.928
2013    4       11     0  54    3.80   523.1    4.6      45.869
2013    4       11     1   1    3.80   523.0    4.6      45.811
2013    4       11     1   8    3.80   522.9    4.6      45.753
2013    4       11     1  15    3.79   522.8    4.6      45.695
2013    4       11     1  22    3.79   522.7    4.6      45.637
2013    4       11     1  28    3.79   522.6    4.6      45.580
2013    4       11     1  35    3.78   522.5    4.6      45.523
2013    4       11     1  42    3.78   522.4    4.6      45.467
2013    4       11     1  49    3.78   522.3    4.6      45.412
2013    4       11     1  56    3.77   522.1    4.6      45.357
2013    4       11     2   3    3.77   522.0    4.6      45.303
2013    4       11     2  10    3.77   521.9    4.6      45.250
2013    4       11     2  17    3.76   521.8    4.6      45.198
2013    4       11     2  24    3.76   521.7    4.6      45.147
2013    4       11     2  30    3.75   521.6    4.6      45.097
2013    4       11     2  37    3.75   521.5    4.6      45.049
2013    4       11     2  44    3.75   521.4    4.6      45.002
2013    4       11     2  51    3.74   521.3    4.6      44.956
2013    4       11     2  58    3.74   521.2    4.6      44.912
2013    4       11     3   5    3.74   521.0    4.6      44.869
2013    4       11     3  12    3.73   520.9    4.6      44.829
2013    4       11     3  19    3.73   520.8    4.6      44.790
2013    4       11     3  26    3.73   520.7    4.6      44.754
2013    4       11     3  32    3.72   520.6    4.6      44.719
2013    4       11     3  39    3.72   520.5    4.6      44.684
2013    4       11     3  46    3.72   520.3    4.6      44.651
2013    4       11     3  53    3.71   520.2    4.6      44.618
2013    4       11     4   0    3.71   520.1    4.6      44.586
2013    4       11     4   7    3.71   520.0    4.6      44.554
2013    4       11     4  14    3.71   519.9    4.6      44.522
2013    4       11     4  21    3.70   519.8    4.6      44.489
2013    4       11     4  28    3.70   519.7    4.6      44.455
2013    4       11     4  34    3.70   519.6    4.6      44.419
2013    4       11     4  41    3.69   519.5    4.6      44.381
2013    4       11     4  48    3.69   519.3    4.6      44.342
2013    4       11     4  55    3.69   519.2    4.6      44.301
2013    4       11     5   2    3.68   519.1    4.6      44.259
2013    4       11     5   9    3.68   519.0    4.6      44.216
2013    4       11     5  16    3.68   518.9    4.6      44.171
2013    4       11     5  23    3.67   518.8    4.6      44.124
2013    4       11     5  30    3.67   518.7    4.6      44.077
2013    4       11     5  37    3.67   518.6    4.6      44.028
2013    4       11     5  43    3.66   518.5    4.6      43.978
2013    4       11     5  50    3.66   518.4    4.6      43.927
2013    4       11     5  57    3.66   518.3    4.6      43.875
2013    4       11     6   4    3.65   518.1    4.6      43.822
2013    4       11     6  11    3.65   518.0    4.5      43.768
2013    4       11     6  18    3.65   517.9    4.5      43.713
2013    4       11     6  25    3.64   517.8    4.5      43.657
2013    4       11     6  32    3.64   517.7    4.5      43.600
2013    4       11     6  39    3.64   517.5    4.5      43.543
2013    4       11     6  45    3.63   517.4    4.5      43.485
2013    4       11     6  52    3.63   517.3    4.5      43.427
2013    4       11     6  59    3.63   517.2    4.5      43.368
2013    4       11     7   6    3.62   517.0    4.5      43.308
2013    4       11     7  13    3.62   516.9    4.5      43.248
2013    4       11     7  20    3.62   516.8    4.5      43.187
2013    4       11     7  27    3.61   516.6    4.5      43.126
2013    4       11     7  34    3.61   516.5    4.5      43.065
2013    4       11     7  41    3.60   516.4    4.5      43.003
2013    4       11     7  47    3.60   516.2    4.5      42.941
2013    4       11     7  54    3.60   516.1    4.5      42.879
2013    4       11     8   1    3.59   515.9    4.5      42.816
2013    4       11     8   8    3.59   515.8    4.5      42.753
2013    4       11     8  15    3.59   515.6    4.5      42.690
2013    4       11     8  22    3.58   515.5    4.5      42.626
2013    4       11     8  29    3.58   515.3    4.5      42.562
2013    4       11     8  36    3.58   515.2    4.5      42.498
2013    4       11     8  43    3.57   515.0    4.5      42.435
2013    4       11     8  49    3.57   514.9    4.4      42.371
2013    4       11     8  56    3.57   514.7    4.4      42.308
2013    4       11     9   3    3.56   514.5    4.4      42.245
2013    4       11     9  10    3.56   514.4    4.4      42.183
2013    4       11     9  17    3.56   514.2    4.4      42.120
2013    4       11     9  24    3.55   514.0    4.4      42.059
2013    4       11     9  31    3.55   513.9    4.4      41.998
2013    4       11     9  38    3.54   513.7    4.4      41.939
2013    4       11     9  45    3.54   513.5    4.4      41.880
2013    4       11     9  51    3.54   513.3    4.4      41.823
2013    4       11     9  58    3.54   513.1    4.4      41.766
2013    4       11    10   5    3.53   513.0    4.4      41.712
2013    4       11    10  12    3.53   512.8    4.4      41.659
2013    4       11    10  19    3.53   512.6    4.4      41.607
2013    4       11    10  26    3.52   512.4    4.4      41.557
2013    4       11    10  33    3.52   512.2    4.4      41.510
2013    4       11    10  40    3.52   512.0    4.4      41.464
2013    4       11    10  47    3.51   511.9    4.4      41.421
2013    4       11    10  54    3.51   511.7    4.4      41.378
2013    4       11    11   0    3.51   511.5    4.4      41.339
2013    4       11    11   7    3.51   511.3    4.4      41.302
2013    4       11    11  14    3.50   511.1    4.4      41.266
2013    4       11    11  21    3.50   511.0    4.4      41.233
2013    4       11    11  28    3.50   510.8    4.4      41.201
2013    4       11    11  35    3.50   510.6    4.4      41.170
2013    4       11    11  42    3.49   510.4    4.4      41.139
2013    4       11    11  49    3.49   510.2    4.4      41.109
2013    4       11    11  56    3.49   510.1    4.4      41.080
2013    4       11    12   2    3.49   509.9    4.4      41.052
2013    4       11    12   9    3.49   509.7    4.4      41.024
2013    4       11    12  16    3.48   509.6    4.4      40.996
2013    4       11    12  23    3.48   509.4    4.4      40.968
2013    4       11    12  30    3.48   509.2    4.4      40.942
2013    4       11    12  37    3.48   509.1    4.4      40.916
2013    4       11    12  44    3.48   508.9    4.4      40.891
2013    4       11    12  51    3.47   508.8    4.4      40.866
2013    4       11    12  58    3.47   508.6    4.4      40.841
2013    4       11    13   4    3.47   508.5    4.4      40.815
2013    4       11    13  11    3.47   508.3    4.4      40.787
2013    4       11    13  18    3.46   508.1    4.4      40.757
2013    4       11    13  25    3.46   508.0    4.4      40.726
2013    4       11    13  32    3.46   507.8    4.4      40.693
2013    4       11    13  39    3.46   507.7    4.4      40.659
2013    4       11    13  46    3.45   507.5    4.4      40.624
2013    4       11    13  53    3.45   507.3    4.4      40.587
2013    4       11    14   0    3.45   507.2    4.4      40.549
2013    4       11    14   7    3.45   507.0    4.4      40.510
2013    4       11    14  13    3.44   506.9    4.4      40.470
2013    4       11    14  20    3.44   506.7    4.4      40.428
2013    4       11    14  27    3.44   506.5    4.4      40.385
2013    4       11    14  34    3.43   506.4    4.4      40.342
2013    4       11    14  41    3.43   506.2    4.4      40.297
2013    4       11    14  48    3.43   506.0    4.4      40.251
2013    4       11    14  55    3.43   505.9    4.4      40.205
2013    4       11    15   2    3.42   505.7    4.4      40.157
2013    4       11    15   8    3.42   505.5    4.4      40.109
2013    4       11    15  15    3.42   505.4    4.4      40.059
2013    4       11    15  22    3.42   505.2    4.4      40.009
2013    4       11    15  29    3.41   505.0    4.4      39.958
2013    4       11    15  36    3.41   504.8    4.4      39.906
2013    4       11    15  43    3.41   504.6    4.4      39.853
2013    4       11    15  50    3.40   504.5    4.4      39.800
2013    4       11    15  57    3.40   504.3    4.4      39.746
2013    4       11    16   4    3.40   504.1    4.4      39.691
2013    4       11    16  11    3.40   503.9    4.4      39.635
2013    4       11    16  17    3.39   503.7    4.4      39.579
2013    4       11    16  24    3.39   503.5    4.4      39.522
2013    4       11    16  31    3.39   503.3    4.4      39.465
2013    4       11    16  38    3.39   503.1    4.4      39.407
2013    4       11    16  45    3.38   502.9    4.4      39.349
2013    4       11    16  52    3.38   502.7    4.4      39.290
2013    4       11    16  59    3.38   502.5    4.4      39.231
2013    4       11    17   6    3.38   502.3    4.4      39.171
2013    4       11    17  12    3.37   502.1    4.4      39.112
2013    4       11    17  19    3.37   501.8    4.4      39.053
2013    4       11    17  26    3.37   501.6    4.4      38.994
2013    4       11    17  33    3.37   501.4    4.4      38.934
2013    4       11    17  40    3.36   501.2    4.4      38.876
2013    4       11    17  47    3.36   501.0    4.4      38.818
2013    4       11    17  54    3.36   500.7    4.4      38.760
2013    4       11    18   1    3.36   500.5    4.3      38.703
2013    4       11    18   8    3.35   500.3    4.3      38.647
2013    4       11    18  15    3.35   500.1    4.3      38.592
2013    4       11    18  21    3.35   499.9    4.3      38.538
2013    4       11    18  28    3.35   499.6    4.3      38.485
2013    4       11    18  35    3.35   499.4    4.3      38.434
2013    4       11    18  42    3.34   499.2    4.3      38.383
2013    4       11    18  49    3.34   499.0    4.3      38.335
2013    4       11    18  56    3.34   498.7    4.3      38.287
2013    4       11    19   3    3.34   498.5    4.3      38.241
2013    4       11    19  10    3.34   498.3    4.3      38.197
2013    4       11    19  17    3.33   498.1    4.3      38.155
2013    4       11    19  23    3.33   497.8    4.3      38.115
2013    4       11    19  30    3.33   497.6    4.3      38.076
2013    4       11    19  37    3.33   497.4    4.3      38.039
2013    4       11    19  44    3.33   497.2    4.3      38.004
2013    4       11    19  51    3.33   497.0    4.3      37.972
2013    4       11    19  58    3.32   496.8    4.4      37.941
2013    4       11    20   5    3.32   496.6    4.4      37.912
2013    4       11    20  12    3.32   496.3    4.4      37.885
2013    4       11    20  19    3.32   496.1    4.4      37.858
2013    4       11    20  25    3.32   495.9    4.4      37.831
2013    4       11    20  32    3.32   495.7    4.4      37.805
2013    4       11    20  39    3.32   495.5    4.4      37.778
2013    4       11    20  46    3.31   495.3    4.4      37.752
2013    4       11    20  53    3.31   495.1    4.4      37.726
2013    4       11    21   0    3.31   494.9    4.4      37.700
2013    4       11    21   7    3.31   494.7    4.4      37.675
2013    4       11    21  14    3.31   494.5    4.4      37.649
2013    4       11    21  21    3.31   494.3    4.4      37.624
2013    4       11    21  28    3.30   494.1    4.4      37.598
2013    4       11    21  34    3.30   493.9    4.4      37.573
2013    4       11    21  41    3.30   493.7    4.4      37.547
2013    4       11    21  48    3.30   493.5    4.4      37.521
2013    4       11    21  55    3.30   493.3    4.4      37.495
2013    4       11    22   2    3.30   493.1    4.4      37.469
2013    4       11    22   9    3.30   492.9    4.4      37.442
2013    4       11    22  16    3.30   492.7    4.4      37.415
2013    4       11    22  23    3.29   492.5    4.4      37.388
2013    4       11    22  30    3.29   492.3    4.4      37.360
2013    4       11    22  36    3.29   492.1    4.4      37.333
2013    4       11    22  43    3.29   491.8    4.4      37.305
2013    4       11    22  50    3.29   491.6    4.4      37.278
2013    4       11    22  57    3.29   491.4    4.4      37.251
2013    4       11    23   4    3.28   491.2    4.4      37.223
2013    4       11    23  11    3.28   491.0    4.4      37.196
2013    4       11    23  18    3.28   490.8    4.4      37.168
2013    4       11    23  25    3.28   490.6    4.4      37.139
2013    4       11    23  32    3.28   490.4    4.4      37.109
2013    4       11    23  38    3.28   490.2    4.4      37.079
2013    4       11    23  45    3.28   490.0    4.4      37.048
2013    4       11    23  52    3.27   489.7    4.4      37.016
2013    4       11    23  59    3.27   489.5    4.4      36.983
2013    4       12     0   6    3.27   489.3    4.4      36.950
2013    4       12     0  13    3.27   489.1    4.4      36.916
2013    4       12     0  20    3.27   488.9    4.4      36.881
2013    4       12     0  27    3.27   488.7    4.4      36.846
2013    4       12     0  34    3.27   488.5    4.4      36.810
2013    4       12     0  40    3.26   488.3    4.4      36.773
2013    4       12     0  47    3.26   488.1    4.4      36.735
2013    4       12     0  54    3.26   487.8    4.4      36.697
2013    4       12     1   1    3.26   487.6    4.4      36.659
2013    4       12     1   8    3.26   487.4    4.4      36.619
2013    4       12     1  15    3.26   487.2    4.4      36.580
2013    4       12     1  22    3.26   487.0    4.4      36.539
2013    4       12     1  29    3.25   486.7    4.4      36.499
2013    4       12     1  36    3.25   486.5    4.4      36.457
2013    4       12     1  42    3.25   486.3    4.4      36.415
2013    4       12     1  49    3.25   486.1    4.4      36.373
2013    4       12     1  56    3.25   485.9    4.4      36.330
2013    4       12     2   3    3.25   485.6    4.4      36.287
2013    4       12     2  10    3.25   485.4    4.4      36.243
2013    4       12     2  17    3.24   485.2    4.4      36.199
2013    4       12     2  24    3.24   484.9    4.4      36.155
2013    4       12     2  31    3.24   484.7    4.4      36.110
2013    4       12     2  38    3.24   484.5    4.4      36.065
2013    4       12     2  44    3.24   484.2    4.4      36.021
2013    4       12     2  51    3.24   484.0    4.4      35.976
2013    4       12     2  58    3.24   483.7    4.4      35.932
2013    4       12     3   5    3.24   483.5    4.4      35.888
2013    4       12     3  12    3.24   483.3    4.4      35.844
2013    4       12     3  19    3.23   483.0    4.4      35.801
2013    4       12     3  26    3.23   482.8    4.4      35.758
2013    4       12     3  33    3.23   482.5    4.4      35.716
2013    4       12     3  40    3.23   482.3    4.4      35.674
2013    4       12     3  46    3.23   482.0    4.4      35.634
2013    4       12     3  53    3.23   481.8    4.4      35.595
2013    4       12     4   0    3.23   481.6    4.4      35.556
2013    4       12     4   7    3.23   481.3    4.4      35.519
2013    4       12     4  14    3.23   481.1    4.4      35.483
2013    4       12     4  21    3.23   480.8    4.4      35.447
2013    4       12     4  28    3.23   480.6    4.4      35.413
2013    4       12     4  35    3.23   480.4    4.4      35.380
2013    4       12     4  42    3.22   480.1    4.4      35.349
2013    4       12     4  49    3.22   479.9    4.4      35.318
2013    4       12     4  55    3.22   479.7    4.4      35.288
2013    4       12     5   2    3.22   479.5    4.4      35.258
2013    4       12     5   9    3.22   479.2    4.4      35.230
2013    4       12     5  16    3.22   479.0    4.4      35.202
2013    4       12     5  23    3.22   478.8    4.4      35.175
2013    4       12     5  30    3.22   478.6    4.4      35.149
2013    4       12     5  37    3.22   478.4    4.4      35.124
2013    4       12     5  44    3.22   478.1    4.5      35.099
2013    4       12     5  51    3.22   477.9    4.5      35.075
2013    4       12     5  57    3.22   477.7    4.5      35.052
2013    4       12     6   4    3.22   477.4    4.5      35.031
2013    4       12     6  11    3.22   477.2    4.5      35.010
2013    4       12     6  18    3.22   477.0    4.5      34.990
2013    4       12     6  25    3.22   476.8    4.5      34.971
2013    4       12     6  32    3.22   476.5    4.5      34.952
2013    4       12     6  39    3.22   476.3    4.5      34.934
2013    4       12     6  46    3.22   476.1    4.5      34.915
2013    4       12     6  53    3.22   475.9    4.5      34.897
2013    4       12     6  59    3.22   475.6    4.5      34.879
2013    4       12     7   6    3.22   475.4    4.5      34.861
2013    4       12     7  13    3.22   475.2    4.5      34.843
2013    4       12     7  20    3.22   475.0    4.5      34.826
2013    4       12     7  27    3.22   474.8    4.5      34.809
2013    4       12     7  34    3.22   474.5    4.5      34.793
2013    4       12     7  41    3.22   474.3    4.5      34.777
2013    4       12     7  48    3.22   474.1    4.5      34.762
2013    4       12     7  55    3.22   473.9    4.5      34.747
2013    4       12     8   1    3.22   473.7    4.5      34.733
2013    4       12     8   8    3.22   473.4    4.5      34.719
2013    4       12     8  15    3.22   473.2    4.5      34.706
2013    4       12     8  22    3.22   473.0    4.5      34.693
2013    4       12     8  29    3.22   472.8    4.5      34.682
2013    4       12     8  36    3.22   472.6    4.6      34.670
2013    4       12     8  43    3.22   472.4    4.6      34.660
2013    4       12     8  50    3.22   472.2    4.6      34.650
2013    4       12     8  57    3.22   471.9    4.6      34.641
2013    4       12     9   3    3.22   471.7    4.6      34.633
2013    4       12     9  10    3.22   471.5    4.6      34.626
2013    4       12     9  17    3.22   471.3    4.6      34.620
2013    4       12     9  24    3.22   471.1    4.6      34.613
2013    4       12     9  31    3.22   470.9    4.6      34.608
2013    4       12     9  38    3.22   470.7    4.6      34.604
2013    4       12     9  45    3.22   470.5    4.6      34.600
2013    4       12     9  52    3.22   470.3    4.6      34.596
2013    4       12     9  59    3.23   470.1    4.6      34.593
2013    4       12    10   5    3.23   470.0    4.6      34.590
2013    4       12    10  12    3.23   469.8    4.6      34.585
2013    4       12    10  19    3.23   469.6    4.6      34.580
2013    4       12    10  26    3.23   469.4    4.6      34.573
2013    4       12    10  33    3.23   469.2    4.6      34.564
2013    4       12    10  40    3.23   469.0    4.7      34.555
2013    4       12    10  47    3.23   468.9    4.7      34.545
2013    4       12    10  54    3.23   468.7    4.7      34.534
2013    4       12    11   1    3.23   468.5    4.7      34.522
2013    4       12    11   8    3.23   468.3    4.7      34.509
2013    4       12    11  14    3.23   468.1    4.7      34.495
2013    4       12    11  21    3.23   468.0    4.7      34.480
2013    4       12    11  28    3.23   467.8    4.7      34.465
2013    4       12    11  35    3.23   467.6    4.7      34.450
2013    4       12    11  42    3.24   467.4    4.7      34.434
2013    4       12    11  49    3.24   467.3    4.7      34.417
2013    4       12    11  56    3.24   467.1    4.7      34.400
2013    4       12    12   3    3.24   466.9    4.7      34.383
2013    4       12    12  10    3.24   466.7    4.7      34.366
2013    4       12    12  16    3.24   466.6    4.7      34.348
2013    4       12    12  23    3.24   466.4    4.7      34.330
2013    4       12    12  30    3.24   466.2    4.7      34.312
2013    4       12    12  37    3.24   466.0    4.7      34.293
2013    4       12    12  44    3.24   465.9    4.7      34.275
2013    4       12    12  51    3.24   465.7    4.7      34.256
2013    4       12    12  58    3.24   465.5    4.7      34.237
2013    4       12    13   5    3.24   465.3    4.7      34.219
2013    4       12    13  12    3.24   465.2    4.7      34.200
2013    4       12    13  18    3.25   465.0    4.7      34.181
2013    4       12    13  25    3.25   464.8    4.7      34.163
2013    4       12    13  32    3.25   464.6    4.7      34.144
2013    4       12    13  39    3.25   464.5    4.7      34.125
2013    4       12    13  46    3.25   464.3    4.7      34.107
2013    4       12    13  53    3.25   464.1    4.7      34.089
2013    4       12    14   0    3.25   464.0    4.7      34.071
2013    4       12    14   7    3.25   463.8    4.8      34.054
2013    4       12    14  14    3.25   463.6    4.8      34.036
2013    4       12    14  20    3.25   463.4    4.8      34.020
2013    4       12    14  27    3.25   463.3    4.8      34.004
2013    4       12    14  34    3.25   463.1    4.8      33.988
2013    4       12    14  41    3.26   462.9    4.8      33.974
2013    4       12    14  48    3.26   462.7    4.8      33.960
2013    4       12    14  55    3.26   462.6    4.8      33.947
2013    4       12    15   2    3.26   462.4    4.8      33.935
2013    4       12    15   9    3.26   462.2    4.8      33.924
2013    4       12    15  16    3.26   462.1    4.8      33.914
2013    4       12    15  22    3.26   461.9    4.8      33.906
2013    4       12    15  29    3.26   461.7    4.8      33.898
2013    4       12    15  36    3.27   461.6    4.8      33.892
2013    4       12    15  43    3.27   461.4    4.8      33.888
2013    4       12    15  50    3.27   461.3    4.8      33.884
2013    4       12    15  57    3.27   461.1    4.8      33.883
2013    4       12    16   4    3.27   460.9    4.8      33.883
2013    4       12    16  11    3.28   460.8    4.8      33.884
2013    4       12    16  18    3.28   460.7    4.9      33.887
2013    4       12    16  24    3.28   460.5    4.9      33.892
2013    4       12    16  31    3.28   460.4    4.9      33.899
2013    4       12    16  38    3.28   460.2    4.9      33.908
2013    4       12    16  45    3.29   460.1    4.9      33.918
2013    4       12    16  52    3.29   460.0    4.9      33.929
2013    4       12    16  59    3.29   459.8    4.9      33.943
2013    4       12    17   6    3.29   459.7    4.9      33.958
2013    4       12    17  13    3.30   459.6    4.9      33.974
2013    4       12    17  20    3.30   459.5    4.9      33.991
2013    4       12    17  26    3.30   459.4    4.9      34.010
2013    4       12    17  33    3.30   459.3    5.0      34.028
2013    4       12    17  40    3.30   459.2    5.0      34.047
2013    4       12    17  47    3.31   459.1    5.0      34.065
2013    4       12    17  54    3.31   459.0    5.0      34.083
2013    4       12    18   1    3.31   458.9    5.0      34.100
2013    4       12    18   8    3.31   458.8    5.0      34.118
2013    4       12    18  15    3.31   458.7    5.0      34.136
2013    4       12    18  22    3.32   458.6    5.0      34.155
2013    4       12    18  29    3.32   458.5    5.0      34.174
2013    4       12    18  35    3.32   458.4    5.0      34.193
2013    4       12    18  42    3.32   458.4    5.0      34.212
2013    4       12    18  49    3.32   458.3    5.1      34.230
2013    4       12    18  56    3.32   458.2    5.1      34.246
2013    4       12    19   3    3.33   458.1    5.1      34.262
2013    4       12    19  10    3.33   458.0    5.1      34.276
2013    4       12    19  17    3.33   457.9    5.1      34.289
2013    4       12    19  24    3.33   457.8    5.1      34.301
2013    4       12    19  31    3.33   457.8    5.1      34.312
2013    4       12    19  37    3.33   457.7    5.1      34.322
2013    4       12    19  44    3.33   457.6    5.1      34.331
2013    4       12    19  51    3.34   457.5    5.1      34.339
2013    4       12    19  58    3.34   457.4    5.1      34.346
2013    4       12    20   5    3.34   457.3    5.1      34.353
2013    4       12    20  12    3.34   457.3    5.1      34.358
2013    4       12    20  19    3.34   457.2    5.1      34.363
2013    4       12    20  26    3.34   457.1    5.1      34.367
2013    4       12    20  33    3.34   457.0    5.1      34.371
2013    4       12    20  39    3.34   456.9    5.1      34.373
2013    4       12    20  46    3.34   456.9    5.1      34.375
2013    4       12    20  53    3.35   456.8    5.1      34.376
2013    4       12    21   0    3.35   456.7    5.1      34.377
2013    4       12    21   7    3.35   456.6    5.1      34.377
2013    4       12    21  14    3.35   456.6    5.2      34.377
2013    4       12    21  21    3.35   456.5    5.2      34.376
2013    4       12    21  28    3.35   456.4    5.2      34.375
2013    4       12    21  35    3.35   456.3    5.2      34.373
2013    4       12    21  41    3.35   456.3    5.2      34.371
2013    4       12    21  48    3.35   456.2    5.2      34.369
2013    4       12    21  55    3.36   456.1    5.2      34.366
2013    4       12    22   2    3.36   456.0    5.2      34.363
2013    4       12    22   9    3.36   456.0    5.2      34.360
2013    4       12    22  16    3.36   455.9    5.2      34.357
2013    4       12    22  23    3.36   455.8    5.2      34.354
2013    4       12    22  30    3.36   455.7    5.2      34.350
2013    4       12    22  37    3.36   455.7    5.2      34.347
2013    4       12    22  43    3.36   455.6    5.2      34.344
2013    4       12    22  50    3.36   455.5    5.2      34.341
2013    4       12    22  57    3.37   455.5    5.2      34.339
2013    4       12    23   4    3.37   455.4    5.2      34.337
2013    4       12    23  11    3.37   455.3    5.2      34.335
2013    4       12    23  18    3.37   455.3    5.2      34.333
2013    4       12    23  25    3.37   455.2    5.2      34.332
2013    4       12    23  32    3.37   455.1    5.2      34.332
2013    4       12    23  39    3.37   455.1    5.2      34.332
2013    4       12    23  45    3.37   455.0    5.2      34.332
2013    4       12    23  52    3.38   455.0    5.2      34.334
2013    4       12    23  59    3.38   454.9    5.2      34.336
2013    4       13     0   6    3.38   454.9    5.2      34.338
2013    4       13     0  13    3.38   454.8    5.2      34.342
2013    4       13     0  20    3.38   454.8    5.2      34.346
2013    4       13     0  27    3.38   454.7    5.3      34.351
2013    4       13     0  34    3.38   454.7    5.3      34.357
2013    4       13     0  41    3.38   454.6    5.3      34.364
2013    4       13     0  48    3.39   454.6    5.3      34.371
2013    4       13     0  54    3.39   454.6    5.3      34.380
2013    4       13     1   1    3.39   454.5    5.3      34.389
2013    4       13     1   8    3.39   454.5    5.3      34.398
2013    4       13     1  15    3.39   454.5    5.3      34.408
2013    4       13     1  22    3.39   454.4    5.3      34.419
2013    4       13     1  29    3.39   454.4    5.3      34.430
2013    4       13     1  36    3.39   454.4    5.3      34.443
2013    4       13     1  43    3.39   454.3    5.3      34.456
2013    4       13     1  50    3.39   454.3    5.3      34.470
2013    4       13     1  56    3.40   454.3    5.3      34.484
2013    4       13     2   3    3.40   454.3    5.3      34.498
2013    4       13     2  10    3.40   454.2    5.3      34.512
2013    4       13     2  17    3.40   454.2    5.3      34.524
2013    4       13     2  24    3.40   454.2    5.3      34.536
2013    4       13     2  31    3.40   454.1    5.3      34.547
2013    4       13     2  38    3.40   454.1    5.4      34.557
2013    4       13     2  45    3.40   454.1    5.4      34.566
2013    4       13     2  52    3.40   454.0    5.4      34.575
2013    4       13     2  59    3.40   454.0    5.4      34.582
2013    4       13     3   5    3.40   454.0    5.4      34.589
2013    4       13     3  12    3.40   453.9    5.4      34.596
2013    4       13     3  19    3.40   453.9    5.4      34.602
2013    4       13     3  26    3.40   453.9    5.4      34.607
2013    4       13     3  33    3.40   453.8    5.4      34.612
2013    4       13     3  40    3.40   453.8    5.4      34.616
2013    4       13     3  47    3.40   453.8    5.4      34.620
2013    4       13     3  54    3.40   453.7    5.4      34.623
2013    4       13     4   1    3.40   453.7    5.4      34.626
2013    4       13     4   7    3.40   453.6    5.4      34.628
2013    4       13     4  14    3.40   453.6    5.4      34.631
2013    4       13     4  21    3.40   453.6    5.4      34.633
2013    4       13     4  28    3.40   453.5    5.4      34.634
2013    4       13     4  35    3.40   453.5    5.4      34.636
2013    4       13     4  42    3.40   453.5    5.4      34.637
2013    4       13     4  49    3.40   453.4    5.4      34.639
2013    4       13     4  56    3.40   453.4    5.4      34.640
2013    4       13     5   2    3.40   453.3    5.4      34.641
2013    4       13     5   9    3.40   453.3    5.4      34.642
2013    4       13     5  16    3.40   453.3    5.4      34.643
2013    4       13     5  23    3.40   453.2    5.4      34.644
2013    4       13     5  30    3.40   453.2    5.4      34.644
2013    4       13     5  37    3.40   453.2    5.4      34.645
2013    4       13     5  44    3.40   453.1    5.4      34.646
2013    4       13     5  51    3.41   453.1    5.4      34.647
2013    4       13     5  58    3.41   453.0    5.4      34.648
2013    4       13     6   5    3.41   453.0    5.4      34.648
2013    4       13     6  11    3.41   453.0    5.4      34.649
2013    4       13     6  18    3.41   452.9    5.4      34.650
2013    4       13     6  25    3.41   452.9    5.4      34.651
2013    4       13     6  32    3.41   452.9    5.4      34.652
2013    4       13     6  39    3.41   452.8    5.4      34.653
2013    4       13     6  46    3.41   452.8    5.4      34.653
2013    4       13     6  53    3.41   452.7    5.4      34.654
2013    4       13     7   0    3.41   452.7    5.4      34.655
2013    4       13     7   7    3.41   452.7    5.4      34.657
2013    4       13     7  13    3.41   452.6    5.4      34.658
2013    4       13     7  20    3.41   452.6    5.4      34.659
2013    4       13     7  27    3.41   452.6    5.4      34.660
2013    4       13     7  34    3.41   452.5    5.5      34.662
2013    4       13     7  41    3.41   452.5    5.5      34.663
2013    4       13     7  48    3.41   452.5    5.5      34.665
2013    4       13     7  55    3.41   452.5    5.5      34.666
2013    4       13     8   2    3.41   452.4    5.5      34.668
2013    4       13     8   9    3.41   452.4    5.5      34.670
2013    4       13     8  15    3.41   452.4    5.5      34.672
2013    4       13     8  22    3.41   452.4    5.5      34.673
2013    4       13     8  29    3.41   452.3    5.5      34.675
2013    4       13     8  36    3.41   452.3    5.5      34.676
2013    4       13     8  43    3.41   452.3    5.5      34.677
2013    4       13     8  50    3.41   452.3    5.5      34.677
2013    4       13     8  57    3.41   452.2    5.5      34.678
2013    4       13     9   4    3.41   452.2    5.5      34.678
2013    4       13     9  11    3.41   452.2    5.5      34.677
2013    4       13     9  17    3.41   452.2    5.5      34.677
2013    4       13     9  24    3.41   452.1    5.5      34.676
2013    4       13     9  31    3.41   452.1    5.5      34.674
2013    4       13     9  38    3.41   452.1    5.5      34.673
2013    4       13     9  45    3.41   452.1    5.5      34.671
2013    4       13     9  52    3.41   452.0    5.5      34.669
2013    4       13     9  59    3.41   452.0    5.5      34.667
2013    4       13    10   6    3.41   452.0    5.5      34.664
2013    4       13    10  13    3.41   451.9    5.5      34.662
2013    4       13    10  20    3.41   451.9    5.5      34.659
2013    4       13    10  26    3.41   451.9    5.5      34.655
2013    4       13    10  33    3.41   451.9    5.5      34.652
2013    4       13    10  40    3.41   451.8    5.5      34.648
2013    4       13    10  47    3.41   451.8    5.5      34.645
2013    4       13    10  54    3.41   451.8    5.5      34.641
2013    4       13    11   1    3.41   451.7    5.5      34.637
2013    4       13    11   8    3.41   451.7    5.5      34.632
2013    4       13    11  15    3.41   451.7    5.5      34.628
2013    4       13    11  22    3.41   451.6    5.5      34.624
2013    4       13    11  28    3.41   451.6    5.5      34.620
2013    4       13    11  35    3.41   451.5    5.5      34.616
2013    4       13    11  42    3.41   451.5    5.5      34.611
2013    4       13    11  49    3.40   451.5    5.5      34.607
2013    4       13    11  56    3.40   451.4    5.5      34.603
2013    4       13    12   3    3.40   451.4    5.5      34.599
2013    4       13    12  10    3.40   451.4    5.5      34.596
2013    4       13    12  17    3.40   451.3    5.5      34.592
2013    4       13    12  24    3.40   451.3    5.5      34.589
2013    4       13    12  30    3.40   451.2    5.5      34.585
2013    4       13    12  37    3.40   451.2    5.5      34.582
2013    4       13    12  44    3.40   451.2    5.5      34.580
2013    4       13    12  51    3.40   451.1    5.5      34.577
2013    4       13    12  58    3.40   451.1    5.5      34.574
2013    4       13    13   5    3.40   451.0    5.5      34.572
2013    4       13    13  12    3.40   451.0    5.5      34.570
2013    4       13    13  19    3.40   451.0    5.5      34.568
2013    4       13    13  26    3.40   450.9    5.5      34.567
2013    4       13    13  32    3.40   450.9    5.5      34.565
2013    4       13    13  39    3.40   450.8    5.5      34.564
2013    4       13    13  46    3.40   450.8    5.5      34.563
2013    4       13    13  53    3.40   450.7    5.5      34.561
2013    4       13    14   0    3.40   450.7    5.5      34.561
2013    4       13    14   7    3.40   450.7    5.5      34.560
2013    4       13    14  14    3.40   450.6    5.5      34.559
2013    4       13    14  21    3.40   450.6    5.5      34.559
2013    4       13    14  28    3.40   450.5    5.5      34.558
2013    4       13    14  34    3.40   450.5    5.5      34.558
2013    4       13    14  41    3.40   450.4    5.5      34.557
2013    4       13    14  48    3.40   450.4    5.5      34.557
2013    4       13    14  55    3.40   450.4    5.5      34.557
2013    4       13    15   2    3.40   450.3    5.5      34.557
2013    4       13    15   9    3.40   450.3    5.5      34.556
2013    4       13    15  16    3.40   450.2    5.6      34.556
2013    4       13    15  23    3.40   450.2    5.6      34.555
2013    4       13    15  30    3.40   450.1    5.6      34.555
2013    4       13    15  36    3.40   450.1    5.6      34.554
2013    4       13    15  43    3.40   450.0    5.6      34.554
2013    4       13    15  50    3.40   450.0    5.6      34.553
2013    4       13    15  57    3.40   450.0    5.6      34.552
2013    4       13    16   4    3.40   449.9    5.6      34.551
2013    4       13    16  11    3.40   449.9    5.6      34.550
2013    4       13    16  18    3.40   449.8    5.6      34.548
2013    4       13    16  25    3.40   449.8    5.6      34.546
2013    4       13    16  32    3.40   449.8    5.6      34.544
2013    4       13    16  39    3.40   449.7    5.6      34.542
2013    4       13    16  45    3.40   449.7    5.6      34.540
2013    4       13    16  52    3.40   449.6    5.6      34.537
2013    4       13    16  59    3.40   449.6    5.6      34.534
2013    4       13    17   6    3.40   449.5    5.6      34.531
2013    4       13    17  13    3.40   449.5    5.6      34.527
2013    4       13    17  20    3.40   449.5    5.6      34.524
2013    4       13    17  27    3.40   449.4    5.6      34.520
2013    4       13    17  34    3.40   449.4    5.6      34.515
2013    4       13    17  41    3.40   449.3    5.6      34.511
2013    4       13    17  47    3.40   449.3    5.6      34.506
2013    4       13    17  54    3.40   449.2    5.6      34.501
2013    4       13    18   1    3.40   449.2    5.6      34.496
2013    4       13    18   8    3.40   449.1    5.6      34.491
2013    4       13    18  15    3.40   449.1    5.6      34.485
2013    4       13    18  22    3.40   449.0    5.6      34.480
2013    4       13    18  29    3.40   449.0    5.6      34.474
2013    4       13    18  36    3.40   448.9    5.6      34.468
2013    4       13    18  43    3.40   448.9    5.6      34.462
2013    4       13    18  49    3.40   448.9    5.6      34.456
2013    4       13    18  56    3.40   448.8    5.6      34.450
2013    4       13    19   3    3.40   448.8    5.6      34.444
2013    4       13    19  10    3.40   448.7    5.6      34.437
2013    4       13    19  17    3.40   448.7    5.6      34.431
2013    4       13    19  24    3.40   448.6    5.6      34.425
2013    4       13    19  31    3.40   448.6    5.6      34.418
2013    4       13    19  38    3.40   448.5    5.6      34.412
2013    4       13    19  45    3.40   448.5    5.6      34.405
2013    4       13    19  51    3.40   448.4    5.6      34.399
2013    4       13    19  58    3.40   448.4    5.6      34.393
2013    4       13    20   5    3.40   448.3    5.6      34.387
2013    4       13    20  12    3.40   448.3    5.6      34.381
2013    4       13    20  19    3.39   448.2    5.6      34.375
2013    4       13    20  26    3.39   448.2    5.6      34.370
2013    4       13    20  33    3.39   448.1    5.6      34.364
2013    4       13    20  40    3.39   448.1    5.6      34.359
2013    4       13    20  47    3.39   448.0    5.6      34.354
2013    4       13    20  53    3.39   448.0    5.6      34.350
2013    4       13    21   0    3.39   447.9    5.6      34.345
2013    4       13    21   7    3.39   447.9    5.6      34.341
2013    4       13    21  14    3.39   447.8    5.6      34.337
2013    4       13    21  21    3.39   447.8    5.6      34.333
2013    4       13    21  28    3.40   447.8    5.6      34.330
2013    4       13    21  35    3.40   447.7    5.6      34.327
2013    4       13    21  42    3.40   447.7    5.6      34.324
2013    4       13    21  49    3.40   447.6    5.6      34.321
2013    4       13    21  55    3.40   447.6    5.6      34.319
2013    4       13    22   2    3.40   447.5    5.6      34.317
2013    4       13    22   9    3.40   447.5    5.6      34.315
2013    4       13    22  16    3.40   447.4    5.6      34.313
2013    4       13    22  23    3.40   447.4    5.6      34.311
2013    4       13    22  30    3.40   447.4    5.6      34.309
2013    4       13    22  37    3.40   447.3    5.6      34.308
2013    4       13    22  44    3.40   447.3    5.6      34.306
2013    4       13    22  51    3.40   447.2    5.6      34.305
2013    4       13    22  57    3.40   447.2    5.7      34.303
2013    4       13    23   4    3.40   447.2    5.7      34.301
2013    4       13    23  11    3.40   447.1    5.7      34.300
2013    4       13    23  18    3.40   447.1    5.7      34.298
2013    4       13    23  25    3.40   447.0    5.7      34.296
2013    4       13    23  32    3.40   447.0    5.7      34.294
2013    4       13    23  39    3.40   446.9    5.7      34.292
2013    4       13    23  46    3.40   446.9    5.7      34.290
2013    4       13    23  53    3.40   446.8    5.7      34.287
2013    4       14     0   0    3.40   446.8    5.7      34.285
2013    4       14     0   6    3.40   446.7    5.7      34.282
2013    4       14     0  13    3.40   446.7    5.7      34.279
2013    4       14     0  20    3.40   446.6    5.7      34.276
2013    4       14     0  27    3.40   446.6    5.7      34.273
2013    4       14     0  34    3.40   446.5    5.7      34.270
2013    4       14     0  41    3.40   446.5    5.7      34.267
2013    4       14     0  48    3.40   446.4    5.7      34.264
2013    4       14     0  55    3.40   446.4    5.7      34.260
2013    4       14     1   2    3.40   446.3    5.7      34.257
2013    4       14     1   8    3.40   446.3    5.7      34.254
2013    4       14     1  15    3.40   446.2    5.7      34.250
2013    4       14     1  22    3.40   446.2    5.7      34.247
2013    4       14     1  29    3.40   446.1    5.7      34.244
2013    4       14     1  36    3.40   446.1    5.7      34.240
2013    4       14     1  43    3.40   446.0    5.7      34.237
2013    4       14     1  50    3.40   446.0    5.7      34.233
2013    4       14     1  57    3.40   445.9    5.7      34.230
2013    4       14     2   4    3.40   445.9    5.7      34.227
2013    4       14     2  10    3.40   445.8    5.7      34.223
2013    4       14     2  17    3.40   445.8    5.7      34.219
2013    4       14     2  24    3.40   445.7    5.7      34.216
2013    4       14     2  31    3.40   445.6    5.7      34.212
2013    4       14     2  38    3.40   445.6    5.7      34.208
2013    4       14     2  45    3.40   445.5    5.7      34.204
2013    4       14     2  52    3.40   445.5    5.7      34.200
2013    4       14     2  59    3.40   445.4    5.7      34.196
2013    4       14     3   6    3.40   445.4    5.7      34.192
2013    4       14     3  12    3.40   445.3    5.7      34.188
2013    4       14     3  19    3.40   445.3    5.7      34.184
2013    4       14     3  26    3.40   445.2    5.7      34.180
2013    4       14     3  33    3.40   445.2    5.7      34.176
2013    4       14     3  40    3.40   445.1    5.7      34.172
2013    4       14     3  47    3.40   445.0    5.7      34.168
2013    4       14     3  54    3.40   445.0    5.7      34.164
2013    4       14     4   1    3.40   444.9    5.7      34.160
2013    4       14     4   8    3.40   444.9    5.7      34.156
2013    4       14     4  14    3.40   444.8    5.7      34.152
2013    4       14     4  21    3.40   444.8    5.7      34.149
2013    4       14     4  28    3.40   444.7    5.7      34.145
2013    4       14     4  35    3.40   444.7    5.7      34.142
2013    4       14     4  42    3.40   444.6    5.7      34.140
2013    4       14     4  49    3.40   444.6    5.7      34.137
2013    4       14     4  56    3.40   444.5    5.7      34.135
2013    4       14     5   3    3.40   444.5    5.7      34.133
2013    4       14     5  10    3.41   444.4    5.7      34.131
2013    4       14     5  16    3.41   444.4    5.7      34.130
2013    4       14     5  23    3.41   444.4    5.7      34.129
2013    4       14     5  30    3.41   444.3    5.7      34.128
2013    4       14     5  37    3.41   444.3    5.7      34.128
2013    4       14     5  44    3.41   444.2    5.7      34.128
2013    4       14     5  51    3.41   444.2    5.8      34.128
2013    4       14     5  58    3.41   444.2    5.8      34.128
2013    4       14     6   5    3.41   444.1    5.8      34.129
2013    4       14     6  12    3.41   444.1    5.8      34.129
2013    4       14     6  18    3.41   444.1    5.8      34.130
2013    4       14     6  25    3.41   444.0    5.8      34.132
2013    4       14     6  32    3.41   444.0    5.8      34.133
2013    4       14     6  39    3.41   444.0    5.8      34.134
2013    4       14     6  46    3.41   443.9    5.8      34.136
2013    4       14     6  53    3.41   443.9    5.8      34.137
2013    4       14     7   0    3.41   443.9    5.8      34.139
2013    4       14     7   7    3.41   443.8    5.8      34.140
2013    4       14     7  14    3.41   443.8    5.8      34.142
2013    4       14     7  21    3.41   443.7    5.8      34.143
2013    4       14     7  27    3.41   443.7    5.8      34.145
2013    4       14     7  34    3.41   443.7    5.8      34.146
2013    4       14     7  41    3.42   443.6    5.8      34.148
2013    4       14     7  48    3.42   443.6    5.8      34.150
2013    4       14     7  55    3.42   443.6    5.8      34.152
2013    4       14     8   2    3.42   443.5    5.8      34.153
2013    4       14     8   9    3.42   443.5    5.8      34.155
2013    4       14     8  16    3.42   443.4    5.8      34.157
2013    4       14     8  23    3.42   443.4    5.8      34.159
2013    4       14     8  29    3.42   443.4    5.8      34.161
2013    4       14     8  36    3.42   443.3    5.8      34.163
2013    4       14     8  43    3.42   443.3    5.8      34.165
2013    4       14     8  50    3.42   443.3    5.8      34.167
2013    4       14     8  57    3.42   443.2    5.8      34.169
2013    4       14     9   4    3.42   443.2    5.8      34.171
2013    4       14     9  11    3.42   443.1    5.8      34.173
2013    4       14     9  18    3.42   443.1    5.8      34.175
2013    4       14     9  25    3.42   443.1    5.8      34.177
2013    4       14     9  31    3.42   443.0    5.8      34.179
2013    4       14     9  38    3.42   443.0    5.8      34.181
2013    4       14     9  45    3.42   442.9    5.8      34.184
2013    4       14     9  52    3.42   442.9    5.8      34.186
2013    4       14     9  59    3.42   442.9    5.8      34.188
2013    4       14    10   6    3.42   442.8    5.8      34.190
2013    4       14    10  13    3.42   442.8    5.8      34.192
2013    4       14    10  20    3.42   442.7    5.8      34.194
2013    4       14    10  27    3.42   442.7    5.8      34.196
2013    4       14    10  33    3.42   442.7    5.8      34.197
2013    4       14    10  40    3.42   442.6    5.8      34.199
2013    4       14    10  47    3.42   442.6    5.8      34.201
2013    4       14    10  54    3.42   442.5    5.8      34.203
2013    4       14    11   1    3.42   442.5    5.8      34.205
2013    4       14    11   8    3.42   442.4    5.9      34.207
2013    4       14    11  15    3.42   442.4    5.9      34.209
2013    4       14    11  22    3.42   442.4    5.9      34.211
2013    4       14    11  29    3.42   442.3    5.9      34.213
2013    4       14    11  35    3.42   442.3    5.9      34.216
2013    4       14    11  42    3.42   442.2    5.9      34.218
2013    4       14    11  49    3.42   442.2    5.9      34.221
2013    4       14    11  56    3.42   442.2    5.9      34.224
2013    4       14    12   3    3.43   442.1    5.9      34.227
2013    4       14    12  10    3.43   442.1    5.9      34.230
2013    4       14    12  17    3.43   442.1    5.9      34.234
2013    4       14    12  24    3.43   442.0    5.9      34.237
2013    4       14    12  31    3.43   442.0    5.9      34.241
2013    4       14    12  37    3.43   442.0    5.9      34.245
2013    4       14    12  44    3.43   442.0    5.9      34.248
2013    4       14    12  51    3.43   441.9    5.9      34.252
2013    4       14    12  58    3.43   441.9    5.9      34.256
2013    4       14    13   5    3.43   441.9    5.9      34.259
2013    4       14    13  12    3.43   441.9    5.9      34.262
2013    4       14    13  19    3.43   441.8    5.9      34.266
2013    4       14    13  26    3.43   441.8    5.9      34.269
2013    4       14    13  33    3.43   441.8    5.9      34.273
2013    4       14    13  39    3.43   441.8    5.9      34.276
2013    4       14    13  46    3.43   441.8    5.9      34.280
2013    4       14    13  53    3.43   441.8    5.9      34.283
2013    4       14    14   0    3.43   441.7    5.9      34.286
2013    4       14    14   7    3.43   441.7    5.9      34.289
2013    4       14    14  14    3.43   441.7    5.9      34.292
2013    4       14    14  21    3.43   441.7    5.9      34.296
2013    4       14    14  28    3.43   441.7    5.9      34.299
2013    4       14    14  35    3.43   441.7    5.9      34.301
2013    4       14    14  42    3.43   441.6    5.9      34.304
2013    4       14    14  48    3.43   441.6    5.9      34.307
2013    4       14    14  55    3.43   441.6    5.9      34.310
2013    4       14    15   2    3.43   441.6    5.9      34.313
2013    4       14    15   9    3.43   441.6    5.9      34.316
2013    4       14    15  16    3.44   441.6    5.9      34.319
2013    4       14    15  23    3.44   441.5    5.9      34.322
2013    4       14    15  30    3.44   441.5    5.9      34.325
2013    4       14    15  37    3.44   441.5    5.9      34.328
2013    4       14    15  44    3.44   441.5    5.9      34.330
2013    4       14    15  50    3.44   441.5    5.9      34.333
2013    4       14    15  57    3.44   441.4    5.9      34.336
2013    4       14    16   4    3.44   441.4    5.9      34.339
2013    4       14    16  11    3.44   441.4    5.9      34.342
2013    4       14    16  18    3.44   441.4    5.9      34.345
2013    4       14    16  25    3.44   441.4    5.9      34.348
2013    4       14    16  32    3.44   441.4    5.9      34.351
2013    4       14    16  39    3.44   441.3    5.9      34.355
2013    4       14    16  46    3.44   441.3    5.9      34.358
2013    4       14    16  52    3.44   441.3    5.9      34.362
2013    4       14    16  59    3.44   441.3    5.9      34.365
2013    4       14    17   6    3.44   441.3    5.9      34.369
2013    4       14    17  13    3.44   441.2    5.9      34.373
2013    4       14    17  20    3.44   441.2    5.9      34.377
2013    4       14    17  27    3.44   441.2    5.9      34.381
2013    4       14    17  34    3.44   441.2    5.9      34.385
2013    4       14    17  41    3.44   441.2    5.9      34.389
2013    4       14    17  48    3.44   441.1    5.9      34.394
2013    4       14    17  54    3.44   441.1    5.9      34.399
2013    4       14    18   1    3.44   441.1    5.9      34.404
2013    4       14    18   8    3.44   441.1    5.9      34.408
2013    4       14    18  15    3.44   441.1    5.9      34.414
2013    4       14    18  22    3.44   441.0    5.9      34.419
2013    4       14    18  29    3.44   441.0    6.0      34.424
2013    4       14    18  36    3.43   441.0    6.0      34.430
2013    4       14    18  43    3.43   441.0    6.0      34.435
2013    4       14    18  50    3.43   441.0    6.0      34.441
2013    4       14    18  56    3.43   440.9    6.0      34.447
2013    4       14    19   3    3.43   440.9    6.0      34.453
2013    4       14    19  10    3.43   440.9    6.0      34.459
2013    4       14    19  17    3.43   440.9    6.0      34.465
2013    4       14    19  24    3.43   440.9    6.0      34.472
2013    4       14    19  31    3.43   440.9    6.0      34.478
2013    4       14    19  38    3.43   440.8    6.0      34.484
2013    4       14    19  45    3.43   440.8    6.0      34.491
2013    4       14    19  52    3.43   440.8    6.0      34.497
2013    4       14    19  58    3.43   440.8    6.0      34.503
2013    4       14    20   5    3.43   440.8    6.0      34.509
2013    4       14    20  12    3.43   440.8    6.0      34.515
2013    4       14    20  19    3.43   440.8    6.0      34.521
2013    4       14    20  26    3.43   440.8    6.0      34.526
2013    4       14    20  33    3.43   440.7    6.0      34.531
2013    4       14    20  40    3.43   440.7    6.0      34.536
2013    4       14    20  47    3.43   440.7    6.0      34.541
2013    4       14    20  54    3.43   440.7    6.0      34.545
2013    4       14    21   0    3.43   440.7    6.0      34.548
2013    4       14    21   7    3.43   440.7    6.0      34.552
2013    4       14    21  14    3.43   440.7    6.0      34.555
2013    4       14    21  21    3.43   440.7    6.0      34.558
2013    4       14    21  28    3.43   440.7    6.0      34.560
2013    4       14    21  35    3.43   440.7    6.0      34.563
2013    4       14    21  42    3.43   440.7    6.0      34.565
2013    4       14    21  49    3.43   440.7    6.0      34.567
2013    4       14    21  56    3.43   440.6    6.0      34.568
2013    4       14    22   3    3.43   440.6    6.0      34.570
2013    4       14    22   9    3.43   440.6    6.0      34.571
2013    4       14    22  16    3.43   440.6    6.0      34.572
2013    4       14    22  23    3.43   440.6    6.0      34.573
2013    4       14    22  30    3.43   440.6    6.0      34.574
2013    4       14    22  37    3.43   440.6    6.0      34.575
2013    4       14    22  44    3.43   440.6    6.0      34.576
2013    4       14    22  51    3.43   440.6    6.0      34.577
2013    4       14    22  58    3.43   440.6    6.0      34.577
2013    4       14    23   5    3.43   440.6    6.0      34.578
2013    4       14    23  11    3.43   440.6    6.0      34.579
2013    4       14    23  18    3.43   440.6    6.0      34.580
2013    4       14    23  25    3.43   440.6    6.0      34.581
2013    4       14    23  32    3.43   440.6    6.0      34.581
2013    4       14    23  39    3.43   440.6    6.0      34.582
2013    4       14    23  46    3.43   440.6    6.0      34.584
2013    4       14    23  53    3.43   440.6    6.0      34.585
2013    4       15     0   0    3.43   440.6    6.0      34.586
2013    4       15     0   7    3.43   440.6    6.0      34.588
2013    4       15     0  13    3.43   440.6    6.0      34.589
2013    4       15     0  20    3.43   440.6    6.0      34.591
2013    4       15     0  27    3.43   440.6    6.0      34.593
2013    4       15     0  34    3.43   440.6    6.0      34.595
2013    4       15     0  41    3.42   440.6    6.0      34.597
2013    4       15     0  48    3.42   440.6    6.0      34.599
2013    4       15     0  55    3.42   440.6    6.0      34.601
2013    4       15     1   2    3.42   440.6    6.0      34.603
2013    4       15     1   9    3.42   440.6    6.0      34.606
2013    4       15     1  15    3.42   440.6    6.0      34.608
2013    4       15     1  22    3.42   440.6    6.0      34.611
2013    4       15     1  29    3.42   440.6    6.0      34.613
2013    4       15     1  36    3.42   440.6    6.0      34.615
2013    4       15     1  43    3.42   440.6    6.0      34.618
2013    4       15     1  50    3.42   440.6    6.0      34.620
2013    4       15     1  57    3.42   440.6    6.0      34.623
2013    4       15     2   4    3.42   440.6    6.0      34.625
2013    4       15     2  11    3.42   440.6    6.0      34.628
2013    4       15     2  17    3.42   440.6    6.0      34.630
2013    4       15     2  24    3.41   440.6    6.0      34.633
2013    4       15     2  31    3.41   440.6    6.0      34.635
2013    4       15     2  38    3.41   440.6    6.0      34.637
2013    4       15     2  45    3.41   440.6    6.0      34.639
2013    4       15     2  52    3.41   440.6    6.0      34.641
2013    4       15     2  59    3.41   440.6    6.0      34.643
2013    4       15     3   6    3.41   440.6    6.0      34.645
2013    4       15     3  13    3.41   440.7    6.0      34.647
2013    4       15     3  19    3.41   440.7    6.0      34.649
2013    4       15     3  26    3.41   440.7    6.0      34.651
2013    4       15     3  33    3.41   440.7    6.0      34.653
2013    4       15     3  40    3.41   440.7    6.0      34.655
2013    4       15     3  47    3.41   440.7    6.0      34.657
2013    4       15     3  54    3.40   440.7    6.0      34.659
2013    4       15     4   1    3.40   440.7    6.0      34.662
2013    4       15     4   8    3.40   440.7    6.0      34.665
2013    4       15     4  15    3.40   440.7    6.0      34.667
2013    4       15     4  21    3.40   440.7    6.0      34.669
2013    4       15     4  28    3.40   440.7    6.0      34.671
2013    4       15     4  35    3.40   440.8    6.0      34.672
2013    4       15     4  42    3.40   440.8    6.0      34.673
2013    4       15     4  49    3.40   440.8    6.0      34.674
2013    4       15     4  56    3.40   440.8    6.0      34.674
2013    4       15     5   3    3.39   440.8    6.0      34.674
2013    4       15     5  10    3.39   440.8    6.0      34.674
2013    4       15     5  17    3.39   440.8    6.0      34.673
2013    4       15     5  24    3.39   440.8    6.0      34.672
2013    4       15     5  30    3.39   440.8    6.0      34.671
2013    4       15     5  37    3.39   440.9    5.9      34.670
2013    4       15     5  44    3.39   440.9    5.9      34.668
2013    4       15     5  51    3.39   440.9    5.9      34.666
2013    4       15     5  58    3.39   440.9    5.9      34.664
2013    4       15     6   5    3.39   440.9    5.9      34.662
2013    4       15     6  12    3.38   440.9    5.9      34.659
2013    4       15     6  19    3.38   440.9    5.9      34.656
2013    4       15     6  26    3.38   440.9    5.9      34.654
2013    4       15     6  32    3.38   441.0    5.9      34.651
2013    4       15     6  39    3.38   441.0    5.9      34.648
2013    4       15     6  46    3.38   441.0    5.9      34.645
2013    4       15     6  53    3.38   441.0    5.9      34.642
2013    4       15     7   0    3.38   441.0    5.9      34.639
2013    4       15     7   7    3.38   441.0    5.9      34.636
2013    4       15     7  14    3.37   441.0    5.9      34.632
2013    4       15     7  21    3.37   441.1    5.9      34.629
2013    4       15     7  28    3.37   441.1    5.9      34.626
2013    4       15     7  34    3.37   441.1    5.9      34.623
2013    4       15     7  41    3.37   441.1    5.9      34.620
2013    4       15     7  48    3.37   441.1    5.9      34.617
2013    4       15     7  55    3.37   441.1    5.9      34.613
2013    4       15     8   2    3.36   441.2    5.9      34.610
2013    4       15     8   9    3.36   441.2    5.9      34.607
2013    4       15     8  16    3.36   441.2    5.9      34.603
2013    4       15     8  23    3.36   441.2    5.9      34.600
2013    4       15     8  30    3.36   441.2    5.9      34.596
2013    4       15     8  36    3.36   441.3    5.9      34.593
2013    4       15     8  43    3.35   441.3    5.9      34.589
2013    4       15     8  50    3.35   441.3    5.9      34.586
2013    4       15     8  57    3.35   441.3    5.9      34.582
2013    4       15     9   4    3.35   441.4    5.9      34.578
2013    4       15     9  11    3.35   441.4    5.9      34.574
2013    4       15     9  18    3.35   441.4    5.9      34.570
2013    4       15     9  25    3.34   441.4    5.9      34.566
2013    4       15     9  32    3.34   441.4    5.9      34.562
2013    4       15     9  38    3.34   441.5    5.9      34.558
2013    4       15     9  45    3.34   441.5    5.9      34.554
2013    4       15     9  52    3.34   441.5    5.9      34.550
2013    4       15     9  59    3.33   441.5    5.9      34.546
2013    4       15    10   6    3.33   441.6    5.9      34.542
2013    4       15    10  13    3.33   441.6    5.9      34.539
2013    4       15    10  20    3.33   441.6    5.9      34.535
2013    4       15    10  27    3.33   441.6    5.9      34.532
2013    4       15    10  34    3.32   441.7    5.9      34.529
2013    4       15    10  40    3.32   441.7    5.9      34.525
2013    4       15    10  47    3.32   441.7    5.9      34.521
2013    4       15    10  54    3.32   441.8    5.9      34.517
2013    4       15    11   1    3.32   441.8    5.9      34.512
2013    4       15    11   8    3.31   441.8    5.9      34.508
2013    4       15    11  15    3.31   441.8    5.9      34.504
2013    4       15    11  22    3.31   441.9    5.9      34.499
2013    4       15    11  29    3.31   441.9    5.9      34.494
2013    4       15    11  36    3.31   441.9    5.8      34.490
2013    4       15    11  43    3.30   442.0    5.8      34.485
2013    4       15    11  49    3.30   442.0    5.8      34.480
2013    4       15    11  56    3.30   442.0    5.8      34.476
2013    4       15    12   3    3.30   442.1    5.8      34.471
2013    4       15    12  10    3.29   442.1    5.8      34.466
2013    4       15    12  17    3.29   442.1    5.8      34.462
2013    4       15    12  24    3.29   442.2    5.8      34.457
2013    4       15    12  31    3.29   442.2    5.8      34.452
2013    4       15    12  38    3.29   442.2    5.8      34.446
2013    4       15    12  45    3.28   442.3    5.8      34.440
2013    4       15    12  51    3.28   442.3    5.8      34.434
2013    4       15    12  58    3.28   442.3    5.8      34.427
2013    4       15    13   5    3.28   442.4    5.8      34.420
2013    4       15    13  12    3.27   442.4    5.8      34.412
2013    4       15    13  19    3.27   442.4    5.8      34.403
2013    4       15    13  26    3.27   442.5    5.8      34.394
2013    4       15    13  33    3.26   442.5    5.8      34.385
2013    4       15    13  40    3.26   442.5    5.8      34.375
2013    4       15    13  47    3.26   442.5    5.8      34.365
2013    4       15    13  53    3.26   442.6    5.8      34.354
2013    4       15    14   0    3.25   442.6    5.8      34.343
2013    4       15    14   7    3.25   442.6    5.8      34.332
2013    4       15    14  14    3.25   442.6    5.8      34.320
2013    4       15    14  21    3.25   442.7    5.8      34.308
2013    4       15    14  28    3.24   442.7    5.8      34.296
2013    4       15    14  35    3.24   442.7    5.7      34.283
2013    4       15    14  42    3.24   442.7    5.7      34.270
2013    4       15    14  49    3.23   442.8    5.7      34.257
2013    4       15    14  55    3.23   442.8    5.7      34.243
2013    4       15    15   2    3.23   442.8    5.7      34.229
2013    4       15    15   9    3.22   442.8    5.7      34.215
2013    4       15    15  16    3.22   442.8    5.7      34.200
2013    4       15    15  23    3.22   442.8    5.7      34.185
2013    4       15    15  30    3.22   442.9    5.7      34.170
2013    4       15    15  37    3.21   442.9    5.7      34.155
2013    4       15    15  44    3.21   442.9    5.7      34.139
2013    4       15    15  51    3.21   442.9    5.7      34.124
2013    4       15    15  57    3.20   442.9    5.7      34.108
2013    4       15    16   4    3.20   442.9    5.7      34.092
2013    4       15    16  11    3.20   442.9    5.7      34.076
2013    4       15    16  18    3.19   442.9    5.7      34.059
2013    4       15    16  25    3.19   443.0    5.7      34.043
2013    4       15    16  32    3.19   443.0    5.7      34.026
2013    4       15    16  39    3.18   443.0    5.7      34.010
2013    4       15    16  46    3.18   443.0    5.7      33.993
2013    4       15    16  53    3.18   443.0    5.6      33.977
2013    4       15    16  59    3.17   443.0    5.6      33.960
2013    4       15    17   6    3.17   443.0    5.6      33.943
2013    4       15    17  13    3.17   443.0    5.6      33.926
2013    4       15    17  20    3.16   443.0    5.6      33.910
2013    4       15    17  27    3.16   443.0    5.6      33.893
2013    4       15    17  34    3.16   443.0    5.6      33.877
2013    4       15    17  41    3.15   443.1    5.6      33.860
2013    4       15    17  48    3.15   443.1    5.6      33.843
2013    4       15    17  55    3.15   443.1    5.6      33.826
2013    4       15    18   1    3.14   443.1    5.6      33.808
2013    4       15    18   8    3.14   443.1    5.6      33.790
2013    4       15    18  15    3.14   443.1    5.6      33.771
2013    4       15    18  22    3.13   443.1    5.6      33.752
2013    4       15    18  29    3.13   443.1    5.6      33.733
2013    4       15    18  36    3.12   443.1    5.6      33.713
2013    4       15    18  43    3.12   443.1    5.6      33.693
2013    4       15    18  50    3.12   443.1    5.6      33.673
2013    4       15    18  57    3.11   443.1    5.6      33.653
2013    4       15    19   4    3.11   443.1    5.5      33.632
2013    4       15    19  10    3.11   443.1    5.5      33.611
2013    4       15    19  17    3.10   443.1    5.5      33.589
2013    4       15    19  24    3.10   443.1    5.5      33.568
2013    4       15    19  31    3.10   443.0    5.5      33.546
2013    4       15    19  38    3.09   443.0    5.5      33.524
2013    4       15    19  45    3.09   443.0    5.5      33.501
2013    4       15    19  52    3.08   443.0    5.5      33.478
2013    4       15    19  59    3.08   443.0    5.5      33.455
2013    4       15    20   6    3.08   443.0    5.5      33.432
2013    4       15    20  12    3.07   443.0    5.5      33.408
2013    4       15    20  19    3.07   443.0    5.5      33.384
2013    4       15    20  26    3.06   443.0    5.5      33.360
2013    4       15    20  33    3.06   442.9    5.5      33.335
2013    4       15    20  40    3.06   442.9    5.5      33.311
2013    4       15    20  47    3.05   442.9    5.5      33.285
2013    4       15    20  54    3.05   442.9    5.5      33.260
2013    4       15    21   1    3.05   442.9    5.4      33.234
2013    4       15    21   8    3.04   442.8    5.4      33.208
2013    4       15    21  14    3.04   442.8    5.4      33.181
2013    4       15    21  21    3.03   442.8    5.4      33.154
2013    4       15    21  28    3.03   442.8    5.4      33.127
2013    4       15    21  35    3.03   442.7    5.4      33.099
2013    4       15    21  42    3.02   442.7    5.4      33.071
2013    4       15    21  49    3.02   442.7    5.4      33.043
2013    4       15    21  56    3.01   442.6    5.4      33.014
2013    4       15    22   3    3.01   442.6    5.4      32.985
2013    4       15    22  10    3.01   442.6    5.4      32.955
2013    4       15    22  16    3.00   442.5    5.4      32.926
2013    4       15    22  23    3.00   442.5    5.4      32.895
2013    4       15    22  30    2.99   442.5    5.4      32.865
2013    4       15    22  37    2.99   442.4    5.4      32.834
2013    4       15    22  44    2.99   442.4    5.4      32.802
2013    4       15    22  51    2.98   442.3    5.3      32.771
2013    4       15    22  58    2.98   442.3    5.3      32.739
2013    4       15    23   5    2.97   442.2    5.3      32.707
2013    4       15    23  12    2.97   442.2    5.3      32.674
2013    4       15    23  18    2.97   442.1    5.3      32.641
2013    4       15    23  25    2.96   442.1    5.3      32.608
2013    4       15    23  32    2.96   442.0    5.3      32.574
2013    4       15    23  39    2.95   442.0    5.3      32.541
2013    4       15    23  46    2.95   441.9    5.3      32.507
2013    4       15    23  53    2.95   441.9    5.3      32.472
2013    4       16     0   0    2.94   441.8    5.3      32.438
