year    month   day   hour  minute  B_enl V_enl   n_enl       T_enl
[year] [month] [day] [hour][minute] [nT]  [km/s]  [cm-3]      [kK]
2013    4       28     0   0    3.50   464.2    4.6      33.615
2013    4       28     0   7    3.50   464.0    4.6      33.591
2013    4       28     0  13    3.50   463.9    4.6      33.567
2013    4       28     0  19    3.50   463.7    4.6      33.542
2013    4       28     0  26    3.50   463.6    4.6      33.518
2013    4       28     0  32    3.50   463.4    4.6      33.494
2013    4       28     0  39    3.50   463.3    4.6      33.469
2013    4       28     0  45    3.50   463.1    4.6      33.445
2013    4       28     0  52    3.49   463.0    4.6      33.420
2013    4       28     0  58    3.49   462.8    4.6      33.396
2013    4       28     1   4    3.49   462.6    4.6      33.371
2013    4       28     1  11    3.49   462.5    4.6      33.347
2013    4       28     1  17    3.49   462.3    4.6      33.323
2013    4       28     1  24    3.49   462.2    4.6      33.299
2013    4       28     1  30    3.49   462.0    4.6      33.274
2013    4       28     1  37    3.49   461.9    4.6      33.251
2013    4       28     1  43    3.49   461.7    4.7      33.227
2013    4       28     1  50    3.49   461.6    4.7      33.203
2013    4       28     1  56    3.49   461.4    4.7      33.179
2013    4       28     2   2    3.49   461.3    4.7      33.156
2013    4       28     2   9    3.49   461.1    4.7      33.133
2013    4       28     2  15    3.49   461.0    4.7      33.110
2013    4       28     2  22    3.49   460.8    4.7      33.087
2013    4       28     2  28    3.48   460.7    4.7      33.064
2013    4       28     2  35    3.48   460.5    4.7      33.041
2013    4       28     2  41    3.48   460.3    4.7      33.019
2013    4       28     2  47    3.48   460.2    4.7      32.996
2013    4       28     2  54    3.48   460.0    4.7      32.974
2013    4       28     3   0    3.48   459.9    4.7      32.952
2013    4       28     3   7    3.48   459.7    4.7      32.930
2013    4       28     3  13    3.48   459.6    4.7      32.908
2013    4       28     3  20    3.48   459.4    4.7      32.887
2013    4       28     3  26    3.48   459.2    4.7      32.866
2013    4       28     3  32    3.48   459.1    4.7      32.845
2013    4       28     3  39    3.48   458.9    4.7      32.823
2013    4       28     3  45    3.48   458.8    4.7      32.803
2013    4       28     3  52    3.48   458.6    4.7      32.782
2013    4       28     3  58    3.48   458.5    4.7      32.762
2013    4       28     4   5    3.48   458.3    4.7      32.742
2013    4       28     4  11    3.48   458.1    4.7      32.722
2013    4       28     4  18    3.48   458.0    4.7      32.702
2013    4       28     4  24    3.48   457.8    4.7      32.683
2013    4       28     4  30    3.48   457.7    4.7      32.663
2013    4       28     4  37    3.48   457.5    4.7      32.645
2013    4       28     4  43    3.48   457.3    4.7      32.626
2013    4       28     4  50    3.47   457.2    4.7      32.607
2013    4       28     4  56    3.47   457.0    4.7      32.589
2013    4       28     5   3    3.47   456.9    4.7      32.571
2013    4       28     5   9    3.47   456.7    4.7      32.553
2013    4       28     5  15    3.47   456.6    4.7      32.536
2013    4       28     5  22    3.47   456.4    4.7      32.519
2013    4       28     5  28    3.47   456.2    4.7      32.502
2013    4       28     5  35    3.47   456.1    4.7      32.485
2013    4       28     5  41    3.47   455.9    4.7      32.468
2013    4       28     5  48    3.47   455.8    4.7      32.452
2013    4       28     5  54    3.47   455.6    4.7      32.436
2013    4       28     6   1    3.47   455.5    4.7      32.420
2013    4       28     6   7    3.47   455.3    4.7      32.405
2013    4       28     6  13    3.47   455.1    4.7      32.390
2013    4       28     6  20    3.47   455.0    4.7      32.375
2013    4       28     6  26    3.47   454.8    4.7      32.360
2013    4       28     6  33    3.47   454.7    4.7      32.345
2013    4       28     6  39    3.47   454.5    4.7      32.330
2013    4       28     6  46    3.47   454.4    4.7      32.315
2013    4       28     6  52    3.47   454.2    4.7      32.301
2013    4       28     6  58    3.47   454.1    4.8      32.286
2013    4       28     7   5    3.47   453.9    4.8      32.271
2013    4       28     7  11    3.47   453.8    4.8      32.257
2013    4       28     7  18    3.47   453.6    4.8      32.242
2013    4       28     7  24    3.47   453.5    4.8      32.227
2013    4       28     7  31    3.47   453.3    4.8      32.212
2013    4       28     7  37    3.47   453.2    4.8      32.197
2013    4       28     7  43    3.47   453.0    4.8      32.181
2013    4       28     7  50    3.47   452.9    4.8      32.166
2013    4       28     7  56    3.47   452.7    4.8      32.151
2013    4       28     8   3    3.47   452.5    4.8      32.135
2013    4       28     8   9    3.47   452.4    4.8      32.119
2013    4       28     8  16    3.47   452.2    4.8      32.103
2013    4       28     8  22    3.47   452.1    4.8      32.087
2013    4       28     8  28    3.47   451.9    4.8      32.071
2013    4       28     8  35    3.47   451.8    4.8      32.055
2013    4       28     8  41    3.47   451.6    4.8      32.038
2013    4       28     8  48    3.47   451.5    4.8      32.021
2013    4       28     8  54    3.47   451.3    4.8      32.004
2013    4       28     9   1    3.47   451.2    4.8      31.987
2013    4       28     9   7    3.47   451.0    4.8      31.970
2013    4       28     9  14    3.47   450.9    4.8      31.953
2013    4       28     9  20    3.47   450.7    4.8      31.935
2013    4       28     9  26    3.47   450.6    4.8      31.918
2013    4       28     9  33    3.47   450.4    4.8      31.900
2013    4       28     9  39    3.47   450.3    4.8      31.883
2013    4       28     9  46    3.47   450.1    4.8      31.865
2013    4       28     9  52    3.47   449.9    4.8      31.847
2013    4       28     9  59    3.47   449.8    4.8      31.830
2013    4       28    10   5    3.47   449.6    4.8      31.812
2013    4       28    10  11    3.47   449.5    4.8      31.794
2013    4       28    10  18    3.47   449.3    4.8      31.777
2013    4       28    10  24    3.47   449.2    4.8      31.759
2013    4       28    10  31    3.47   449.0    4.8      31.741
2013    4       28    10  37    3.47   448.9    4.8      31.724
2013    4       28    10  44    3.47   448.7    4.8      31.706
2013    4       28    10  50    3.47   448.6    4.8      31.689
2013    4       28    10  57    3.47   448.4    4.8      31.672
2013    4       28    11   3    3.47   448.2    4.8      31.654
2013    4       28    11   9    3.47   448.1    4.8      31.637
2013    4       28    11  16    3.47   447.9    4.8      31.620
2013    4       28    11  22    3.47   447.8    4.9      31.603
2013    4       28    11  29    3.47   447.6    4.9      31.586
2013    4       28    11  35    3.47   447.5    4.9      31.569
2013    4       28    11  42    3.47   447.3    4.9      31.553
2013    4       28    11  48    3.47   447.2    4.9      31.536
2013    4       28    11  54    3.47   447.0    4.9      31.520
2013    4       28    12   1    3.47   446.9    4.9      31.504
2013    4       28    12   7    3.47   446.7    4.9      31.488
2013    4       28    12  14    3.47   446.6    4.9      31.472
2013    4       28    12  20    3.48   446.4    4.9      31.456
2013    4       28    12  27    3.48   446.3    4.9      31.440
2013    4       28    12  33    3.48   446.1    4.9      31.425
2013    4       28    12  39    3.48   446.0    4.9      31.410
2013    4       28    12  46    3.48   445.8    4.9      31.395
2013    4       28    12  52    3.48   445.7    4.9      31.380
2013    4       28    12  59    3.48   445.5    4.9      31.366
2013    4       28    13   5    3.48   445.4    4.9      31.351
2013    4       28    13  12    3.48   445.2    4.9      31.337
2013    4       28    13  18    3.48   445.1    4.9      31.323
2013    4       28    13  25    3.48   444.9    4.9      31.310
2013    4       28    13  31    3.48   444.8    4.9      31.296
2013    4       28    13  37    3.48   444.6    4.9      31.283
2013    4       28    13  44    3.48   444.5    4.9      31.270
2013    4       28    13  50    3.48   444.3    4.9      31.257
2013    4       28    13  57    3.48   444.2    4.9      31.245
2013    4       28    14   3    3.48   444.0    4.9      31.232
2013    4       28    14  10    3.48   443.9    4.9      31.220
2013    4       28    14  16    3.49   443.8    4.9      31.208
2013    4       28    14  22    3.49   443.6    4.9      31.196
2013    4       28    14  29    3.49   443.5    4.9      31.184
2013    4       28    14  35    3.49   443.3    5.0      31.173
2013    4       28    14  42    3.49   443.2    5.0      31.162
2013    4       28    14  48    3.49   443.0    5.0      31.150
2013    4       28    14  55    3.49   442.9    5.0      31.139
2013    4       28    15   1    3.49   442.8    5.0      31.129
2013    4       28    15   7    3.49   442.6    5.0      31.118
2013    4       28    15  14    3.49   442.5    5.0      31.107
2013    4       28    15  20    3.49   442.3    5.0      31.097
2013    4       28    15  27    3.49   442.2    5.0      31.087
2013    4       28    15  33    3.49   442.1    5.0      31.077
2013    4       28    15  40    3.49   441.9    5.0      31.066
2013    4       28    15  46    3.50   441.8    5.0      31.057
2013    4       28    15  52    3.50   441.6    5.0      31.047
2013    4       28    15  59    3.50   441.5    5.0      31.037
2013    4       28    16   5    3.50   441.4    5.0      31.027
2013    4       28    16  12    3.50   441.2    5.0      31.018
2013    4       28    16  18    3.50   441.1    5.0      31.009
2013    4       28    16  25    3.50   440.9    5.0      30.999
2013    4       28    16  31    3.50   440.8    5.0      30.990
2013    4       28    16  38    3.50   440.7    5.0      30.981
2013    4       28    16  44    3.50   440.5    5.0      30.972
2013    4       28    16  50    3.50   440.4    5.0      30.963
2013    4       28    16  57    3.50   440.3    5.0      30.954
2013    4       28    17   3    3.51   440.1    5.0      30.945
2013    4       28    17  10    3.51   440.0    5.0      30.937
2013    4       28    17  16    3.51   439.9    5.1      30.928
2013    4       28    17  23    3.51   439.7    5.1      30.920
2013    4       28    17  29    3.51   439.6    5.1      30.911
2013    4       28    17  35    3.51   439.5    5.1      30.903
2013    4       28    17  42    3.51   439.3    5.1      30.894
2013    4       28    17  48    3.51   439.2    5.1      30.886
2013    4       28    17  55    3.51   439.1    5.1      30.878
2013    4       28    18   1    3.51   438.9    5.1      30.869
2013    4       28    18   8    3.51   438.8    5.1      30.861
2013    4       28    18  14    3.52   438.7    5.1      30.853
2013    4       28    18  21    3.52   438.6    5.1      30.845
2013    4       28    18  27    3.52   438.4    5.1      30.837
2013    4       28    18  33    3.52   438.3    5.1      30.829
2013    4       28    18  40    3.52   438.2    5.1      30.821
2013    4       28    18  46    3.52   438.0    5.1      30.813
2013    4       28    18  53    3.52   437.9    5.1      30.805
2013    4       28    18  59    3.52   437.8    5.1      30.797
2013    4       28    19   6    3.52   437.7    5.1      30.789
2013    4       28    19  12    3.52   437.5    5.1      30.781
2013    4       28    19  18    3.53   437.4    5.1      30.773
2013    4       28    19  25    3.53   437.3    5.1      30.765
2013    4       28    19  31    3.53   437.2    5.1      30.757
2013    4       28    19  38    3.53   437.0    5.1      30.749
2013    4       28    19  44    3.53   436.9    5.1      30.741
2013    4       28    19  51    3.53   436.8    5.1      30.733
2013    4       28    19  57    3.53   436.7    5.2      30.726
2013    4       28    20   4    3.53   436.5    5.2      30.718
2013    4       28    20  10    3.53   436.4    5.2      30.710
2013    4       28    20  16    3.54   436.3    5.2      30.702
2013    4       28    20  23    3.54   436.2    5.2      30.694
2013    4       28    20  29    3.54   436.1    5.2      30.686
2013    4       28    20  36    3.54   435.9    5.2      30.678
2013    4       28    20  42    3.54   435.8    5.2      30.671
2013    4       28    20  49    3.54   435.7    5.2      30.663
2013    4       28    20  55    3.54   435.6    5.2      30.655
2013    4       28    21   1    3.54   435.4    5.2      30.648
2013    4       28    21   8    3.54   435.3    5.2      30.640
2013    4       28    21  14    3.54   435.2    5.2      30.632
2013    4       28    21  21    3.55   435.1    5.2      30.625
2013    4       28    21  27    3.55   435.0    5.2      30.617
2013    4       28    21  34    3.55   434.8    5.2      30.610
2013    4       28    21  40    3.55   434.7    5.2      30.603
2013    4       28    21  46    3.55   434.6    5.2      30.595
2013    4       28    21  53    3.55   434.5    5.2      30.588
2013    4       28    21  59    3.55   434.4    5.2      30.581
2013    4       28    22   6    3.55   434.2    5.2      30.574
2013    4       28    22  12    3.56   434.1    5.2      30.568
2013    4       28    22  19    3.56   434.0    5.2      30.561
2013    4       28    22  25    3.56   433.9    5.2      30.555
2013    4       28    22  31    3.56   433.8    5.2      30.548
2013    4       28    22  38    3.56   433.7    5.2      30.542
2013    4       28    22  44    3.56   433.5    5.3      30.536
2013    4       28    22  51    3.56   433.4    5.3      30.530
2013    4       28    22  57    3.56   433.3    5.3      30.524
2013    4       28    23   4    3.56   433.2    5.3      30.519
2013    4       28    23  10    3.57   433.1    5.3      30.514
2013    4       28    23  17    3.57   433.0    5.3      30.508
2013    4       28    23  23    3.57   432.9    5.3      30.503
2013    4       28    23  29    3.57   432.7    5.3      30.498
2013    4       28    23  36    3.57   432.6    5.3      30.494
2013    4       28    23  42    3.57   432.5    5.3      30.489
2013    4       28    23  49    3.57   432.4    5.3      30.485
2013    4       28    23  55    3.57   432.3    5.3      30.480
2013    4       29     0   2    3.58   432.2    5.3      30.476
2013    4       29     0   8    3.58   432.1    5.3      30.472
2013    4       29     0  14    3.58   432.0    5.3      30.468
2013    4       29     0  21    3.58   431.9    5.3      30.465
2013    4       29     0  27    3.58   431.8    5.3      30.461
2013    4       29     0  34    3.58   431.6    5.3      30.457
2013    4       29     0  40    3.58   431.5    5.3      30.454
2013    4       29     0  47    3.58   431.4    5.3      30.450
2013    4       29     0  53    3.59   431.3    5.3      30.447
2013    4       29     0  59    3.59   431.2    5.3      30.444
2013    4       29     1   6    3.59   431.1    5.3      30.441
2013    4       29     1  12    3.59   431.0    5.3      30.438
2013    4       29     1  19    3.59   430.9    5.4      30.435
2013    4       29     1  25    3.59   430.8    5.4      30.432
2013    4       29     1  32    3.59   430.7    5.4      30.429
2013    4       29     1  38    3.59   430.6    5.4      30.426
2013    4       29     1  45    3.60   430.5    5.4      30.424
2013    4       29     1  51    3.60   430.4    5.4      30.421
2013    4       29     1  57    3.60   430.3    5.4      30.418
2013    4       29     2   4    3.60   430.2    5.4      30.416
2013    4       29     2  10    3.60   430.1    5.4      30.413
2013    4       29     2  17    3.60   430.0    5.4      30.410
2013    4       29     2  23    3.60   429.9    5.4      30.408
2013    4       29     2  30    3.61   429.8    5.4      30.406
2013    4       29     2  36    3.61   429.7    5.4      30.403
2013    4       29     2  42    3.61   429.5    5.4      30.401
2013    4       29     2  49    3.61   429.4    5.4      30.398
2013    4       29     2  55    3.61   429.3    5.4      30.396
2013    4       29     3   2    3.61   429.2    5.4      30.394
2013    4       29     3   8    3.61   429.1    5.4      30.392
2013    4       29     3  15    3.61   429.0    5.4      30.390
2013    4       29     3  21    3.62   428.9    5.4      30.388
2013    4       29     3  28    3.62   428.8    5.4      30.386
2013    4       29     3  34    3.62   428.7    5.4      30.384
2013    4       29     3  40    3.62   428.6    5.4      30.382
2013    4       29     3  47    3.62   428.5    5.4      30.380
2013    4       29     3  53    3.62   428.4    5.5      30.379
2013    4       29     4   0    3.62   428.3    5.5      30.377
2013    4       29     4   6    3.62   428.2    5.5      30.376
2013    4       29     4  13    3.63   428.2    5.5      30.374
2013    4       29     4  19    3.63   428.1    5.5      30.372
2013    4       29     4  25    3.63   428.0    5.5      30.371
2013    4       29     4  32    3.63   427.9    5.5      30.370
2013    4       29     4  38    3.63   427.8    5.5      30.368
2013    4       29     4  45    3.63   427.7    5.5      30.367
2013    4       29     4  51    3.63   427.6    5.5      30.366
2013    4       29     4  58    3.64   427.5    5.5      30.364
2013    4       29     5   4    3.64   427.4    5.5      30.363
2013    4       29     5  11    3.64   427.3    5.5      30.362
2013    4       29     5  17    3.64   427.2    5.5      30.361
2013    4       29     5  23    3.64   427.1    5.5      30.359
2013    4       29     5  30    3.64   427.0    5.5      30.358
2013    4       29     5  36    3.64   426.9    5.5      30.357
2013    4       29     5  43    3.64   426.8    5.5      30.356
2013    4       29     5  49    3.65   426.7    5.5      30.355
2013    4       29     5  56    3.65   426.6    5.5      30.354
2013    4       29     6   2    3.65   426.5    5.5      30.353
2013    4       29     6   8    3.65   426.4    5.5      30.352
2013    4       29     6  15    3.65   426.3    5.5      30.351
2013    4       29     6  21    3.65   426.3    5.5      30.350
2013    4       29     6  28    3.65   426.2    5.5      30.349
2013    4       29     6  34    3.66   426.1    5.6      30.348
2013    4       29     6  41    3.66   426.0    5.6      30.347
2013    4       29     6  47    3.66   425.9    5.6      30.346
2013    4       29     6  53    3.66   425.8    5.6      30.345
2013    4       29     7   0    3.66   425.7    5.6      30.344
2013    4       29     7   6    3.66   425.6    5.6      30.344
2013    4       29     7  13    3.66   425.5    5.6      30.343
2013    4       29     7  19    3.67   425.4    5.6      30.342
2013    4       29     7  26    3.67   425.3    5.6      30.342
2013    4       29     7  32    3.67   425.3    5.6      30.341
2013    4       29     7  39    3.67   425.2    5.6      30.341
2013    4       29     7  45    3.67   425.1    5.6      30.340
2013    4       29     7  51    3.67   425.0    5.6      30.340
2013    4       29     7  58    3.67   424.9    5.6      30.340
2013    4       29     8   4    3.68   424.8    5.6      30.340
2013    4       29     8  11    3.68   424.7    5.6      30.339
2013    4       29     8  17    3.68   424.6    5.6      30.339
2013    4       29     8  24    3.68   424.6    5.6      30.339
2013    4       29     8  30    3.68   424.5    5.6      30.339
2013    4       29     8  36    3.68   424.4    5.6      30.339
2013    4       29     8  43    3.68   424.3    5.6      30.339
2013    4       29     8  49    3.69   424.2    5.6      30.339
2013    4       29     8  56    3.69   424.1    5.6      30.339
2013    4       29     9   2    3.69   424.0    5.6      30.339
2013    4       29     9   9    3.69   424.0    5.6      30.339
2013    4       29     9  15    3.69   423.9    5.6      30.340
2013    4       29     9  22    3.69   423.8    5.6      30.340
2013    4       29     9  28    3.69   423.7    5.7      30.340
2013    4       29     9  34    3.70   423.6    5.7      30.341
2013    4       29     9  41    3.70   423.5    5.7      30.341
2013    4       29     9  47    3.70   423.5    5.7      30.342
2013    4       29     9  54    3.70   423.4    5.7      30.342
2013    4       29    10   0    3.70   423.3    5.7      30.343
2013    4       29    10   7    3.70   423.2    5.7      30.343
2013    4       29    10  13    3.70   423.1    5.7      30.344
2013    4       29    10  20    3.70   423.0    5.7      30.345
2013    4       29    10  26    3.71   423.0    5.7      30.346
2013    4       29    10  32    3.71   422.9    5.7      30.346
2013    4       29    10  39    3.71   422.8    5.7      30.347
2013    4       29    10  45    3.71   422.7    5.7      30.348
2013    4       29    10  52    3.71   422.6    5.7      30.349
2013    4       29    10  58    3.71   422.6    5.7      30.350
2013    4       29    11   5    3.71   422.5    5.7      30.351
2013    4       29    11  11    3.72   422.4    5.7      30.352
2013    4       29    11  18    3.72   422.3    5.7      30.353
2013    4       29    11  24    3.72   422.3    5.7      30.354
2013    4       29    11  30    3.72   422.2    5.7      30.355
2013    4       29    11  37    3.72   422.1    5.7      30.357
2013    4       29    11  43    3.72   422.0    5.7      30.358
2013    4       29    11  50    3.73   421.9    5.7      30.359
2013    4       29    11  56    3.73   421.9    5.7      30.361
2013    4       29    12   3    3.73   421.8    5.7      30.362
2013    4       29    12   9    3.73   421.7    5.7      30.364
2013    4       29    12  16    3.73   421.6    5.7      30.365
2013    4       29    12  22    3.73   421.6    5.8      30.367
2013    4       29    12  28    3.73   421.5    5.8      30.369
2013    4       29    12  35    3.74   421.4    5.8      30.371
2013    4       29    12  41    3.74   421.3    5.8      30.373
2013    4       29    12  48    3.74   421.3    5.8      30.375
2013    4       29    12  54    3.74   421.2    5.8      30.378
2013    4       29    13   1    3.74   421.1    5.8      30.380
2013    4       29    13   7    3.74   421.0    5.8      30.383
2013    4       29    13  14    3.74   421.0    5.8      30.387
2013    4       29    13  20    3.75   420.9    5.8      30.390
2013    4       29    13  26    3.75   420.8    5.8      30.394
2013    4       29    13  33    3.75   420.7    5.8      30.398
2013    4       29    13  39    3.75   420.7    5.8      30.401
2013    4       29    13  46    3.75   420.6    5.8      30.405
2013    4       29    13  52    3.75   420.5    5.8      30.409
2013    4       29    13  59    3.76   420.5    5.8      30.413
2013    4       29    14   5    3.76   420.4    5.8      30.416
2013    4       29    14  11    3.76   420.3    5.8      30.420
2013    4       29    14  18    3.76   420.3    5.8      30.424
2013    4       29    14  24    3.76   420.2    5.8      30.428
2013    4       29    14  31    3.76   420.1    5.8      30.432
2013    4       29    14  37    3.77   420.1    5.8      30.436
2013    4       29    14  44    3.77   420.0    5.8      30.441
2013    4       29    14  50    3.77   419.9    5.8      30.445
2013    4       29    14  57    3.77   419.9    5.9      30.449
2013    4       29    15   3    3.77   419.8    5.9      30.453
2013    4       29    15   9    3.77   419.7    5.9      30.457
2013    4       29    15  16    3.77   419.7    5.9      30.461
2013    4       29    15  22    3.78   419.6    5.9      30.465
2013    4       29    15  29    3.78   419.5    5.9      30.468
2013    4       29    15  35    3.78   419.5    5.9      30.471
2013    4       29    15  42    3.78   419.4    5.9      30.475
2013    4       29    15  48    3.78   419.3    5.9      30.478
2013    4       29    15  54    3.78   419.3    5.9      30.481
2013    4       29    16   1    3.78   419.2    5.9      30.483
2013    4       29    16   7    3.79   419.1    5.9      30.486
2013    4       29    16  14    3.79   419.1    5.9      30.488
2013    4       29    16  20    3.79   419.0    5.9      30.490
2013    4       29    16  27    3.79   419.0    5.9      30.493
2013    4       29    16  33    3.79   418.9    5.9      30.495
2013    4       29    16  40    3.79   418.8    5.9      30.496
2013    4       29    16  46    3.80   418.8    5.9      30.498
2013    4       29    16  52    3.80   418.7    5.9      30.500
2013    4       29    16  59    3.80   418.6    5.9      30.501
2013    4       29    17   5    3.80   418.6    5.9      30.502
2013    4       29    17  12    3.80   418.5    5.9      30.504
2013    4       29    17  18    3.80   418.4    5.9      30.505
2013    4       29    17  25    3.80   418.4    5.9      30.506
2013    4       29    17  31    3.81   418.3    5.9      30.507
2013    4       29    17  38    3.81   418.3    5.9      30.508
2013    4       29    17  44    3.81   418.2    5.9      30.508
2013    4       29    17  50    3.81   418.1    5.9      30.509
2013    4       29    17  57    3.81   418.1    5.9      30.510
2013    4       29    18   3    3.81   418.0    5.9      30.510
2013    4       29    18  10    3.81   417.9    5.9      30.511
2013    4       29    18  16    3.82   417.9    5.9      30.511
2013    4       29    18  23    3.82   417.8    5.9      30.512
2013    4       29    18  29    3.82   417.8    6.0      30.512
2013    4       29    18  36    3.82   417.7    6.0      30.513
2013    4       29    18  42    3.82   417.6    6.0      30.513
2013    4       29    18  48    3.82   417.6    6.0      30.513
2013    4       29    18  55    3.82   417.5    6.0      30.514
2013    4       29    19   1    3.83   417.5    6.0      30.514
2013    4       29    19   8    3.83   417.4    6.0      30.514
2013    4       29    19  14    3.83   417.3    6.0      30.515
2013    4       29    19  21    3.83   417.3    6.0      30.515
2013    4       29    19  27    3.83   417.2    6.0      30.515
2013    4       29    19  34    3.83   417.2    6.0      30.516
2013    4       29    19  40    3.84   417.1    6.0      30.516
2013    4       29    19  46    3.84   417.0    6.0      30.517
2013    4       29    19  53    3.84   417.0    6.0      30.518
2013    4       29    19  59    3.84   416.9    6.0      30.519
2013    4       29    20   6    3.84   416.9    6.0      30.520
2013    4       29    20  12    3.84   416.8    6.0      30.521
2013    4       29    20  19    3.84   416.7    6.0      30.522
2013    4       29    20  25    3.85   416.7    6.0      30.524
2013    4       29    20  31    3.85   416.6    6.0      30.526
2013    4       29    20  38    3.85   416.6    6.0      30.528
2013    4       29    20  44    3.85   416.5    6.0      30.531
2013    4       29    20  51    3.85   416.5    6.0      30.534
2013    4       29    20  57    3.85   416.4    6.0      30.537
2013    4       29    21   4    3.86   416.3    6.0      30.540
2013    4       29    21  10    3.86   416.3    6.0      30.544
2013    4       29    21  17    3.86   416.2    6.0      30.548
2013    4       29    21  23    3.86   416.2    6.0      30.552
2013    4       29    21  29    3.86   416.1    6.0      30.556
2013    4       29    21  36    3.86   416.1    6.0      30.561
2013    4       29    21  42    3.87   416.0    6.1      30.565
2013    4       29    21  49    3.87   416.0    6.1      30.571
2013    4       29    21  55    3.87   415.9    6.1      30.576
2013    4       29    22   2    3.87   415.9    6.1      30.582
2013    4       29    22   8    3.87   415.8    6.1      30.589
2013    4       29    22  14    3.87   415.8    6.1      30.595
2013    4       29    22  21    3.88   415.7    6.1      30.602
2013    4       29    22  27    3.88   415.7    6.1      30.609
2013    4       29    22  34    3.88   415.6    6.1      30.615
2013    4       29    22  40    3.88   415.6    6.1      30.621
2013    4       29    22  47    3.88   415.5    6.1      30.628
2013    4       29    22  53    3.88   415.5    6.1      30.634
2013    4       29    23   0    3.89   415.4    6.1      30.640
2013    4       29    23   6    3.89   415.4    6.1      30.646
2013    4       29    23  12    3.89   415.3    6.1      30.652
2013    4       29    23  19    3.89   415.3    6.1      30.657
2013    4       29    23  25    3.89   415.2    6.1      30.663
2013    4       29    23  32    3.89   415.2    6.1      30.668
2013    4       29    23  38    3.90   415.1    6.1      30.673
2013    4       29    23  45    3.90   415.1    6.1      30.678
2013    4       29    23  51    3.90   415.0    6.1      30.683
2013    4       29    23  57    3.90   415.0    6.1      30.688
2013    4       30     0   4    3.90   414.9    6.1      30.693
2013    4       30     0  10    3.90   414.9    6.1      30.697
2013    4       30     0  17    3.90   414.8    6.1      30.701
2013    4       30     0  23    3.91   414.8    6.1      30.706
2013    4       30     0  30    3.91   414.7    6.1      30.710
2013    4       30     0  36    3.91   414.7    6.1      30.714
2013    4       30     0  43    3.91   414.7    6.1      30.717
2013    4       30     0  49    3.91   414.6    6.1      30.721
2013    4       30     0  55    3.91   414.6    6.2      30.724
2013    4       30     1   2    3.92   414.5    6.2      30.728
2013    4       30     1   8    3.92   414.5    6.2      30.731
2013    4       30     1  15    3.92   414.4    6.2      30.734
2013    4       30     1  21    3.92   414.4    6.2      30.737
2013    4       30     1  28    3.92   414.3    6.2      30.740
2013    4       30     1  34    3.92   414.3    6.2      30.742
2013    4       30     1  41    3.93   414.2    6.2      30.745
2013    4       30     1  47    3.93   414.2    6.2      30.747
2013    4       30     1  53    3.93   414.1    6.2      30.749
2013    4       30     2   0    3.93   414.1    6.2      30.752
2013    4       30     2   6    3.93   414.0    6.2      30.754
2013    4       30     2  13    3.93   414.0    6.2      30.755
2013    4       30     2  19    3.93   413.9    6.2      30.757
2013    4       30     2  26    3.94   413.9    6.2      30.759
2013    4       30     2  32    3.94   413.8    6.2      30.761
2013    4       30     2  39    3.94   413.8    6.2      30.762
2013    4       30     2  45    3.94   413.7    6.2      30.764
2013    4       30     2  51    3.94   413.7    6.2      30.765
2013    4       30     2  58    3.94   413.6    6.2      30.767
2013    4       30     3   4    3.95   413.6    6.2      30.768
2013    4       30     3  11    3.95   413.6    6.2      30.770
2013    4       30     3  17    3.95   413.5    6.2      30.771
2013    4       30     3  24    3.95   413.5    6.2      30.772
2013    4       30     3  30    3.95   413.4    6.2      30.774
2013    4       30     3  36    3.95   413.4    6.2      30.776
2013    4       30     3  43    3.96   413.3    6.2      30.777
2013    4       30     3  49    3.96   413.3    6.2      30.779
2013    4       30     3  56    3.96   413.2    6.2      30.781
2013    4       30     4   2    3.96   413.2    6.2      30.783
2013    4       30     4   9    3.96   413.1    6.2      30.785
2013    4       30     4  15    3.96   413.1    6.2      30.787
2013    4       30     4  22    3.97   413.0    6.2      30.790
2013    4       30     4  28    3.97   413.0    6.2      30.793
2013    4       30     4  34    3.97   412.9    6.2      30.795
2013    4       30     4  41    3.97   412.9    6.2      30.799
2013    4       30     4  47    3.97   412.8    6.3      30.802
2013    4       30     4  54    3.97   412.8    6.3      30.806
2013    4       30     5   0    3.98   412.7    6.3      30.810
2013    4       30     5   7    3.98   412.7    6.3      30.814
2013    4       30     5  13    3.98   412.7    6.3      30.819
2013    4       30     5  19    3.98   412.6    6.3      30.824
2013    4       30     5  26    3.98   412.6    6.3      30.830
2013    4       30     5  32    3.99   412.5    6.3      30.837
2013    4       30     5  39    3.99   412.5    6.3      30.843
2013    4       30     5  45    3.99   412.4    6.3      30.851
2013    4       30     5  52    3.99   412.4    6.3      30.858
2013    4       30     5  58    3.99   412.4    6.3      30.866
2013    4       30     6   5    3.99   412.3    6.3      30.874
2013    4       30     6  11    4.00   412.3    6.3      30.882
2013    4       30     6  17    4.00   412.2    6.3      30.891
2013    4       30     6  24    4.00   412.2    6.3      30.899
2013    4       30     6  30    4.00   412.2    6.3      30.907
2013    4       30     6  37    4.00   412.1    6.3      30.915
2013    4       30     6  43    4.01   412.1    6.3      30.924
2013    4       30     6  50    4.01   412.0    6.3      30.932
2013    4       30     6  56    4.01   412.0    6.3      30.940
2013    4       30     7   2    4.01   412.0    6.3      30.948
2013    4       30     7   9    4.01   411.9    6.3      30.957
2013    4       30     7  15    4.02   411.9    6.3      30.965
2013    4       30     7  22    4.02   411.8    6.3      30.973
2013    4       30     7  28    4.02   411.8    6.4      30.981
2013    4       30     7  35    4.02   411.8    6.4      30.989
2013    4       30     7  41    4.02   411.7    6.4      30.997
2013    4       30     7  48    4.02   411.7    6.4      31.005
2013    4       30     7  54    4.03   411.7    6.4      31.013
2013    4       30     8   0    4.03   411.6    6.4      31.021
2013    4       30     8   7    4.03   411.6    6.4      31.029
2013    4       30     8  13    4.03   411.6    6.4      31.037
2013    4       30     8  20    4.03   411.5    6.4      31.045
2013    4       30     8  26    4.04   411.5    6.4      31.052
2013    4       30     8  33    4.04   411.4    6.4      31.060
2013    4       30     8  39    4.04   411.4    6.4      31.067
2013    4       30     8  46    4.04   411.4    6.4      31.075
2013    4       30     8  52    4.04   411.3    6.4      31.082
2013    4       30     8  58    4.04   411.3    6.4      31.090
2013    4       30     9   5    4.05   411.3    6.4      31.097
2013    4       30     9  11    4.05   411.2    6.4      31.104
2013    4       30     9  18    4.05   411.2    6.4      31.111
2013    4       30     9  24    4.05   411.2    6.4      31.118
2013    4       30     9  31    4.05   411.1    6.4      31.125
2013    4       30     9  37    4.05   411.1    6.4      31.132
2013    4       30     9  44    4.06   411.0    6.4      31.139
2013    4       30     9  50    4.06   411.0    6.4      31.146
2013    4       30     9  56    4.06   411.0    6.4      31.152
2013    4       30    10   3    4.06   410.9    6.4      31.159
2013    4       30    10   9    4.06   410.9    6.4      31.165
2013    4       30    10  16    4.07   410.9    6.4      31.172
2013    4       30    10  22    4.07   410.8    6.4      31.178
2013    4       30    10  29    4.07   410.8    6.4      31.184
2013    4       30    10  35    4.07   410.7    6.5      31.191
2013    4       30    10  41    4.07   410.7    6.5      31.197
2013    4       30    10  48    4.07   410.7    6.5      31.203
2013    4       30    10  54    4.08   410.6    6.5      31.209
2013    4       30    11   1    4.08   410.6    6.5      31.215
2013    4       30    11   7    4.08   410.6    6.5      31.222
2013    4       30    11  14    4.08   410.5    6.5      31.228
2013    4       30    11  20    4.08   410.5    6.5      31.234
2013    4       30    11  27    4.08   410.5    6.5      31.241
2013    4       30    11  33    4.09   410.4    6.5      31.247
2013    4       30    11  39    4.09   410.4    6.5      31.253
2013    4       30    11  46    4.09   410.4    6.5      31.260
2013    4       30    11  52    4.09   410.3    6.5      31.267
2013    4       30    11  59    4.09   410.3    6.5      31.273
2013    4       30    12   5    4.10   410.3    6.5      31.280
2013    4       30    12  12    4.10   410.2    6.5      31.287
2013    4       30    12  18    4.10   410.2    6.5      31.294
2013    4       30    12  24    4.10   410.2    6.5      31.301
2013    4       30    12  31    4.10   410.1    6.5      31.308
2013    4       30    12  37    4.10   410.1    6.5      31.315
2013    4       30    12  44    4.11   410.1    6.5      31.323
2013    4       30    12  50    4.11   410.1    6.5      31.330
2013    4       30    12  57    4.11   410.0    6.5      31.338
2013    4       30    13   3    4.11   410.0    6.5      31.346
2013    4       30    13   9    4.11   410.0    6.5      31.355
2013    4       30    13  16    4.12   409.9    6.5      31.364
2013    4       30    13  22    4.12   409.9    6.6      31.372
2013    4       30    13  29    4.12   409.9    6.6      31.382
2013    4       30    13  35    4.12   409.9    6.6      31.391
2013    4       30    13  42    4.12   409.8    6.6      31.400
2013    4       30    13  48    4.12   409.8    6.6      31.409
2013    4       30    13  55    4.13   409.8    6.6      31.419
2013    4       30    14   1    4.13   409.8    6.6      31.428
2013    4       30    14   7    4.13   409.7    6.6      31.437
2013    4       30    14  14    4.13   409.7    6.6      31.447
2013    4       30    14  20    4.13   409.7    6.6      31.456
2013    4       30    14  27    4.13   409.6    6.6      31.465
2013    4       30    14  33    4.14   409.6    6.6      31.475
2013    4       30    14  40    4.14   409.6    6.6      31.484
2013    4       30    14  46    4.14   409.6    6.6      31.493
2013    4       30    14  52    4.14   409.5    6.6      31.502
2013    4       30    14  59    4.14   409.5    6.6      31.512
2013    4       30    15   5    4.14   409.5    6.6      31.521
2013    4       30    15  12    4.15   409.5    6.6      31.530
2013    4       30    15  18    4.15   409.4    6.6      31.539
2013    4       30    15  25    4.15   409.4    6.6      31.548
2013    4       30    15  31    4.15   409.4    6.6      31.558
2013    4       30    15  38    4.15   409.4    6.6      31.567
2013    4       30    15  44    4.15   409.3    6.6      31.576
2013    4       30    15  50    4.16   409.3    6.6      31.585
2013    4       30    15  57    4.16   409.3    6.6      31.594
2013    4       30    16   3    4.16   409.3    6.7      31.603
2013    4       30    16  10    4.16   409.2    6.7      31.612
2013    4       30    16  16    4.16   409.2    6.7      31.621
2013    4       30    16  23    4.16   409.2    6.7      31.630
2013    4       30    16  29    4.17   409.2    6.7      31.639
2013    4       30    16  36    4.17   409.2    6.7      31.648
2013    4       30    16  42    4.17   409.1    6.7      31.657
2013    4       30    16  48    4.17   409.1    6.7      31.666
2013    4       30    16  55    4.17   409.1    6.7      31.675
2013    4       30    17   1    4.17   409.1    6.7      31.684
2013    4       30    17   8    4.17   409.0    6.7      31.693
2013    4       30    17  14    4.18   409.0    6.7      31.702
2013    4       30    17  21    4.18   409.0    6.7      31.710
2013    4       30    17  27    4.18   409.0    6.7      31.719
2013    4       30    17  33    4.18   408.9    6.7      31.727
2013    4       30    17  40    4.18   408.9    6.7      31.736
2013    4       30    17  46    4.18   408.9    6.7      31.744
2013    4       30    17  53    4.18   408.9    6.7      31.752
2013    4       30    17  59    4.18   408.9    6.7      31.760
2013    4       30    18   6    4.19   408.8    6.7      31.768
2013    4       30    18  12    4.19   408.8    6.7      31.776
2013    4       30    18  19    4.19   408.8    6.7      31.784
2013    4       30    18  25    4.19   408.8    6.7      31.792
2013    4       30    18  31    4.19   408.7    6.7      31.799
2013    4       30    18  38    4.19   408.7    6.7      31.807
2013    4       30    18  44    4.19   408.7    6.7      31.814
2013    4       30    18  51    4.20   408.7    6.7      31.822
2013    4       30    18  57    4.20   408.7    6.7      31.829
2013    4       30    19   4    4.20   408.6    6.7      31.836
2013    4       30    19  10    4.20   408.6    6.7      31.843
2013    4       30    19  16    4.20   408.6    6.7      31.851
2013    4       30    19  23    4.20   408.6    6.8      31.858
2013    4       30    19  29    4.20   408.6    6.8      31.865
2013    4       30    19  36    4.20   408.5    6.8      31.872
2013    4       30    19  42    4.21   408.5    6.8      31.879
2013    4       30    19  49    4.21   408.5    6.8      31.886
2013    4       30    19  55    4.21   408.5    6.8      31.893
2013    4       30    20   2    4.21   408.4    6.8      31.900
2013    4       30    20   8    4.21   408.4    6.8      31.907
2013    4       30    20  14    4.21   408.4    6.8      31.914
2013    4       30    20  21    4.21   408.4    6.8      31.921
2013    4       30    20  27    4.21   408.4    6.8      31.928
2013    4       30    20  34    4.21   408.4    6.8      31.935
2013    4       30    20  40    4.22   408.3    6.8      31.941
2013    4       30    20  47    4.22   408.3    6.8      31.948
2013    4       30    20  53    4.22   408.3    6.8      31.955
2013    4       30    20  59    4.22   408.3    6.8      31.962
2013    4       30    21   6    4.22   408.3    6.8      31.969
2013    4       30    21  12    4.22   408.2    6.8      31.976
2013    4       30    21  19    4.22   408.2    6.8      31.983
2013    4       30    21  25    4.22   408.2    6.8      31.990
2013    4       30    21  32    4.22   408.2    6.8      31.997
2013    4       30    21  38    4.23   408.2    6.8      32.004
2013    4       30    21  45    4.23   408.1    6.8      32.010
2013    4       30    21  51    4.23   408.1    6.8      32.017
2013    4       30    21  57    4.23   408.1    6.8      32.024
2013    4       30    22   4    4.23   408.1    6.8      32.031
2013    4       30    22  10    4.23   408.1    6.8      32.038
2013    4       30    22  17    4.23   408.0    6.8      32.045
2013    4       30    22  23    4.23   408.0    6.8      32.051
2013    4       30    22  30    4.23   408.0    6.8      32.058
2013    4       30    22  36    4.23   408.0    6.8      32.064
2013    4       30    22  42    4.24   408.0    6.8      32.071
2013    4       30    22  49    4.24   407.9    6.8      32.078
2013    4       30    22  55    4.24   407.9    6.9      32.084
2013    4       30    23   2    4.24   407.9    6.9      32.091
2013    4       30    23   8    4.24   407.9    6.9      32.097
2013    4       30    23  15    4.24   407.9    6.9      32.103
2013    4       30    23  21    4.24   407.8    6.9      32.110
2013    4       30    23  28    4.24   407.8    6.9      32.116
2013    4       30    23  34    4.24   407.8    6.9      32.122
2013    4       30    23  40    4.24   407.8    6.9      32.128
2013    4       30    23  47    4.24   407.8    6.9      32.134
2013    4       30    23  53    4.24   407.7    6.9      32.140
2013    5        1     0   0    4.25   407.7    6.9      32.146
2013    5        1     0   6    4.25   407.7    6.9      32.152
2013    5        1     0  13    4.25   407.7    6.9      32.158
2013    5        1     0  19    4.25   407.7    6.9      32.164
2013    5        1     0  26    4.25   407.6    6.9      32.169
2013    5        1     0  32    4.25   407.6    6.9      32.175
2013    5        1     0  38    4.25   407.6    6.9      32.181
2013    5        1     0  45    4.25   407.6    6.9      32.186
2013    5        1     0  51    4.25   407.5    6.9      32.192
2013    5        1     0  58    4.25   407.5    6.9      32.197
2013    5        1     1   4    4.25   407.5    6.9      32.202
2013    5        1     1  11    4.25   407.5    6.9      32.207
2013    5        1     1  17    4.25   407.5    6.9      32.212
2013    5        1     1  23    4.25   407.4    6.9      32.217
2013    5        1     1  30    4.25   407.4    6.9      32.222
2013    5        1     1  36    4.26   407.4    6.9      32.227
2013    5        1     1  43    4.26   407.4    6.9      32.231
2013    5        1     1  49    4.26   407.3    6.9      32.236
2013    5        1     1  56    4.26   407.3    6.9      32.240
2013    5        1     2   2    4.26   407.3    6.9      32.244
2013    5        1     2   8    4.26   407.3    6.9      32.248
2013    5        1     2  15    4.26   407.2    6.9      32.252
2013    5        1     2  21    4.26   407.2    6.9      32.256
2013    5        1     2  28    4.26   407.2    6.9      32.260
2013    5        1     2  34    4.26   407.2    6.9      32.264
2013    5        1     2  41    4.26   407.2    6.9      32.268
2013    5        1     2  47    4.26   407.1    6.9      32.271
2013    5        1     2  54    4.26   407.1    6.9      32.274
2013    5        1     3   0    4.26   407.1    6.9      32.278
2013    5        1     3   6    4.26   407.0    6.9      32.281
2013    5        1     3  13    4.26   407.0    6.9      32.284
2013    5        1     3  19    4.26   407.0    6.9      32.287
2013    5        1     3  26    4.26   407.0    6.9      32.290
2013    5        1     3  32    4.27   406.9    6.9      32.293
2013    5        1     3  39    4.27   406.9    6.9      32.296
2013    5        1     3  45    4.27   406.9    6.9      32.299
2013    5        1     3  51    4.27   406.9    6.9      32.302
2013    5        1     3  58    4.27   406.8    6.9      32.304
2013    5        1     4   4    4.27   406.8    6.9      32.307
2013    5        1     4  11    4.27   406.8    7.0      32.309
2013    5        1     4  17    4.27   406.8    7.0      32.312
2013    5        1     4  24    4.27   406.7    7.0      32.314
2013    5        1     4  30    4.27   406.7    7.0      32.317
2013    5        1     4  37    4.27   406.7    7.0      32.319
2013    5        1     4  43    4.27   406.7    7.0      32.322
2013    5        1     4  49    4.27   406.6    7.0      32.324
2013    5        1     4  56    4.27   406.6    7.0      32.326
2013    5        1     5   2    4.27   406.6    7.0      32.329
2013    5        1     5   9    4.27   406.6    7.0      32.331
2013    5        1     5  15    4.27   406.5    7.0      32.333
2013    5        1     5  22    4.27   406.5    7.0      32.336
2013    5        1     5  28    4.27   406.5    7.0      32.338
2013    5        1     5  34    4.27   406.4    7.0      32.340
2013    5        1     5  41    4.28   406.4    7.0      32.342
2013    5        1     5  47    4.28   406.4    7.0      32.344
2013    5        1     5  54    4.28   406.4    7.0      32.346
2013    5        1     6   0    4.28   406.3    7.0      32.348
2013    5        1     6   7    4.28   406.3    7.0      32.351
2013    5        1     6  13    4.28   406.3    7.0      32.353
2013    5        1     6  20    4.28   406.2    7.0      32.355
2013    5        1     6  26    4.28   406.2    7.0      32.357
2013    5        1     6  32    4.28   406.2    7.0      32.359
2013    5        1     6  39    4.28   406.2    7.0      32.360
2013    5        1     6  45    4.28   406.1    7.0      32.362
2013    5        1     6  52    4.28   406.1    7.0      32.364
2013    5        1     6  58    4.28   406.1    7.0      32.366
2013    5        1     7   5    4.28   406.0    7.0      32.368
2013    5        1     7  11    4.28   406.0    7.0      32.369
2013    5        1     7  18    4.28   406.0    7.0      32.371
2013    5        1     7  24    4.28   405.9    7.0      32.372
2013    5        1     7  30    4.28   405.9    7.0      32.374
2013    5        1     7  37    4.28   405.9    7.0      32.375
2013    5        1     7  43    4.28   405.8    7.0      32.377
2013    5        1     7  50    4.28   405.8    7.0      32.378
2013    5        1     7  56    4.28   405.8    7.0      32.379
2013    5        1     8   3    4.28   405.7    7.0      32.380
2013    5        1     8   9    4.28   405.7    7.0      32.381
2013    5        1     8  15    4.28   405.7    7.0      32.382
2013    5        1     8  22    4.28   405.6    7.0      32.383
2013    5        1     8  28    4.28   405.6    7.0      32.384
2013    5        1     8  35    4.28   405.6    7.0      32.385
2013    5        1     8  41    4.28   405.5    7.0      32.386
2013    5        1     8  48    4.28   405.5    7.0      32.386
2013    5        1     8  54    4.28   405.5    7.0      32.387
2013    5        1     9   1    4.28   405.4    7.0      32.387
2013    5        1     9   7    4.28   405.4    7.0      32.387
2013    5        1     9  13    4.29   405.4    7.0      32.388
2013    5        1     9  20    4.29   405.3    7.0      32.388
2013    5        1     9  26    4.29   405.3    7.0      32.388
2013    5        1     9  33    4.29   405.2    7.0      32.388
2013    5        1     9  39    4.29   405.2    7.0      32.388
2013    5        1     9  46    4.29   405.2    7.0      32.388
2013    5        1     9  52    4.29   405.1    7.0      32.387
2013    5        1     9  58    4.29   405.1    7.0      32.387
2013    5        1    10   5    4.29   405.0    7.0      32.387
2013    5        1    10  11    4.29   405.0    7.0      32.386
2013    5        1    10  18    4.29   405.0    7.0      32.386
2013    5        1    10  24    4.29   404.9    7.0      32.385
2013    5        1    10  31    4.29   404.9    7.0      32.384
2013    5        1    10  37    4.29   404.8    7.0      32.384
2013    5        1    10  44    4.29   404.8    7.0      32.383
2013    5        1    10  50    4.29   404.8    7.0      32.382
2013    5        1    10  56    4.29   404.7    7.0      32.381
2013    5        1    11   3    4.29   404.7    7.1      32.381
2013    5        1    11   9    4.29   404.6    7.1      32.380
2013    5        1    11  16    4.29   404.6    7.1      32.379
2013    5        1    11  22    4.29   404.6    7.1      32.378
2013    5        1    11  29    4.29   404.5    7.1      32.377
2013    5        1    11  35    4.29   404.5    7.1      32.376
2013    5        1    11  41    4.29   404.4    7.1      32.375
2013    5        1    11  48    4.29   404.4    7.1      32.375
2013    5        1    11  54    4.29   404.3    7.1      32.374
2013    5        1    12   1    4.29   404.3    7.1      32.373
2013    5        1    12   7    4.29   404.3    7.1      32.372
2013    5        1    12  14    4.29   404.2    7.1      32.371
2013    5        1    12  20    4.29   404.2    7.1      32.370
2013    5        1    12  27    4.29   404.1    7.1      32.370
2013    5        1    12  33    4.29   404.1    7.1      32.369
2013    5        1    12  39    4.29   404.0    7.1      32.368
2013    5        1    12  46    4.29   404.0    7.1      32.367
2013    5        1    12  52    4.29   404.0    7.1      32.367
2013    5        1    12  59    4.30   403.9    7.1      32.366
2013    5        1    13   5    4.30   403.9    7.1      32.365
2013    5        1    13  12    4.30   403.8    7.1      32.365
2013    5        1    13  18    4.30   403.8    7.1      32.364
2013    5        1    13  25    4.30   403.7    7.1      32.364
2013    5        1    13  31    4.30   403.7    7.1      32.363
2013    5        1    13  37    4.30   403.7    7.1      32.363
2013    5        1    13  44    4.30   403.6    7.1      32.362
2013    5        1    13  50    4.30   403.6    7.1      32.362
2013    5        1    13  57    4.30   403.5    7.1      32.361
2013    5        1    14   3    4.30   403.5    7.1      32.361
2013    5        1    14  10    4.30   403.4    7.1      32.360
2013    5        1    14  16    4.30   403.4    7.1      32.360
2013    5        1    14  23    4.30   403.4    7.1      32.359
2013    5        1    14  29    4.30   403.3    7.1      32.359
2013    5        1    14  35    4.30   403.3    7.1      32.358
2013    5        1    14  42    4.30   403.2    7.1      32.358
2013    5        1    14  48    4.30   403.2    7.1      32.357
2013    5        1    14  55    4.30   403.1    7.1      32.357
2013    5        1    15   1    4.30   403.1    7.1      32.357
2013    5        1    15   8    4.30   403.0    7.1      32.356
2013    5        1    15  14    4.30   403.0    7.1      32.355
2013    5        1    15  20    4.30   403.0    7.1      32.355
2013    5        1    15  27    4.30   402.9    7.1      32.354
2013    5        1    15  33    4.31   402.9    7.1      32.354
2013    5        1    15  40    4.31   402.8    7.1      32.353
2013    5        1    15  46    4.31   402.8    7.1      32.353
2013    5        1    15  53    4.31   402.7    7.1      32.352
2013    5        1    15  59    4.31   402.7    7.1      32.351
2013    5        1    16   6    4.31   402.6    7.1      32.351
2013    5        1    16  12    4.31   402.6    7.1      32.350
2013    5        1    16  18    4.31   402.5    7.1      32.349
2013    5        1    16  25    4.31   402.5    7.1      32.348
2013    5        1    16  31    4.31   402.4    7.1      32.348
2013    5        1    16  38    4.31   402.4    7.1      32.347
2013    5        1    16  44    4.31   402.3    7.1      32.346
2013    5        1    16  51    4.31   402.3    7.1      32.345
2013    5        1    16  57    4.31   402.2    7.1      32.345
2013    5        1    17   3    4.31   402.2    7.1      32.344
2013    5        1    17  10    4.31   402.1    7.2      32.343
2013    5        1    17  16    4.31   402.1    7.2      32.342
2013    5        1    17  23    4.31   402.0    7.2      32.341
2013    5        1    17  29    4.31   402.0    7.2      32.340
2013    5        1    17  36    4.31   401.9    7.2      32.340
2013    5        1    17  42    4.31   401.9    7.2      32.339
2013    5        1    17  49    4.32   401.8    7.2      32.338
2013    5        1    17  55    4.32   401.8    7.2      32.337
2013    5        1    18   1    4.32   401.7    7.2      32.336
2013    5        1    18   8    4.32   401.7    7.2      32.335
2013    5        1    18  14    4.32   401.6    7.2      32.334
2013    5        1    18  21    4.32   401.6    7.2      32.333
2013    5        1    18  27    4.32   401.5    7.2      32.332
2013    5        1    18  34    4.32   401.5    7.2      32.331
2013    5        1    18  40    4.32   401.4    7.2      32.330
2013    5        1    18  46    4.32   401.4    7.2      32.329
2013    5        1    18  53    4.32   401.3    7.2      32.328
2013    5        1    18  59    4.32   401.3    7.2      32.328
2013    5        1    19   6    4.32   401.2    7.2      32.327
2013    5        1    19  12    4.32   401.2    7.2      32.326
2013    5        1    19  19    4.32   401.1    7.2      32.325
2013    5        1    19  25    4.32   401.0    7.2      32.324
2013    5        1    19  32    4.33   401.0    7.2      32.323
2013    5        1    19  38    4.33   400.9    7.2      32.322
2013    5        1    19  44    4.33   400.9    7.2      32.322
2013    5        1    19  51    4.33   400.8    7.2      32.321
2013    5        1    19  57    4.33   400.8    7.2      32.320
2013    5        1    20   4    4.33   400.7    7.2      32.320
2013    5        1    20  10    4.33   400.7    7.2      32.319
2013    5        1    20  17    4.33   400.6    7.2      32.319
2013    5        1    20  23    4.33   400.6    7.2      32.319
2013    5        1    20  30    4.33   400.5    7.2      32.318
2013    5        1    20  36    4.33   400.4    7.2      32.318
2013    5        1    20  42    4.34   400.4    7.2      32.318
2013    5        1    20  49    4.34   400.3    7.2      32.318
2013    5        1    20  55    4.34   400.3    7.2      32.318
2013    5        1    21   2    4.34   400.2    7.2      32.319
2013    5        1    21   8    4.34   400.2    7.2      32.319
2013    5        1    21  15    4.34   400.1    7.2      32.320
2013    5        1    21  21    4.34   400.1    7.2      32.320
2013    5        1    21  27    4.34   400.0    7.2      32.321
2013    5        1    21  34    4.34   400.0    7.2      32.322
2013    5        1    21  40    4.35   399.9    7.3      32.323
2013    5        1    21  47    4.35   399.9    7.3      32.324
2013    5        1    21  53    4.35   399.8    7.3      32.326
2013    5        1    22   0    4.35   399.7    7.3      32.327
2013    5        1    22   6    4.35   399.7    7.3      32.329
2013    5        1    22  13    4.35   399.6    7.3      32.330
2013    5        1    22  19    4.35   399.6    7.3      32.332
2013    5        1    22  25    4.36   399.5    7.3      32.334
2013    5        1    22  32    4.36   399.5    7.3      32.336
2013    5        1    22  38    4.36   399.4    7.3      32.339
2013    5        1    22  45    4.36   399.4    7.3      32.341
2013    5        1    22  51    4.36   399.3    7.3      32.343
2013    5        1    22  58    4.36   399.3    7.3      32.346
2013    5        1    23   4    4.36   399.2    7.3      32.349
2013    5        1    23  10    4.37   399.2    7.3      32.352
2013    5        1    23  17    4.37   399.1    7.3      32.354
2013    5        1    23  23    4.37   399.1    7.3      32.358
2013    5        1    23  30    4.37   399.0    7.3      32.361
2013    5        1    23  36    4.37   399.0    7.3      32.364
2013    5        1    23  43    4.37   398.9    7.3      32.367
2013    5        1    23  49    4.38   398.9    7.3      32.371
2013    5        1    23  55    4.38   398.8    7.3      32.374
2013    5        2     0   2    4.38   398.8    7.3      32.377
2013    5        2     0   8    4.38   398.7    7.3      32.381
2013    5        2     0  15    4.38   398.7    7.3      32.385
2013    5        2     0  21    4.38   398.6    7.3      32.388
2013    5        2     0  28    4.39   398.6    7.3      32.392
2013    5        2     0  34    4.39   398.5    7.4      32.396
2013    5        2     0  41    4.39   398.5    7.4      32.400
2013    5        2     0  47    4.39   398.4    7.4      32.404
2013    5        2     0  53    4.39   398.4    7.4      32.408
2013    5        2     1   0    4.39   398.4    7.4      32.412
2013    5        2     1   6    4.40   398.3    7.4      32.416
2013    5        2     1  13    4.40   398.3    7.4      32.420
2013    5        2     1  19    4.40   398.2    7.4      32.424
2013    5        2     1  26    4.40   398.2    7.4      32.429
2013    5        2     1  32    4.40   398.1    7.4      32.433
2013    5        2     1  38    4.41   398.1    7.4      32.437
2013    5        2     1  45    4.41   398.0    7.4      32.442
2013    5        2     1  51    4.41   398.0    7.4      32.446
2013    5        2     1  58    4.41   397.9    7.4      32.451
2013    5        2     2   4    4.41   397.9    7.4      32.456
2013    5        2     2  11    4.42   397.8    7.4      32.460
2013    5        2     2  17    4.42   397.8    7.4      32.465
2013    5        2     2  23    4.42   397.7    7.4      32.470
2013    5        2     2  30    4.42   397.7    7.4      32.475
2013    5        2     2  36    4.42   397.7    7.4      32.480
2013    5        2     2  43    4.43   397.6    7.4      32.486
2013    5        2     2  49    4.43   397.6    7.5      32.491
2013    5        2     2  56    4.43   397.5    7.5      32.497
2013    5        2     3   2    4.43   397.5    7.5      32.503
2013    5        2     3   9    4.43   397.4    7.5      32.509
2013    5        2     3  15    4.44   397.4    7.5      32.515
2013    5        2     3  21    4.44   397.3    7.5      32.521
2013    5        2     3  28    4.44   397.3    7.5      32.528
2013    5        2     3  34    4.44   397.2    7.5      32.535
2013    5        2     3  41    4.45   397.2    7.5      32.542
2013    5        2     3  47    4.45   397.2    7.5      32.549
2013    5        2     3  54    4.45   397.1    7.5      32.557
2013    5        2     4   0    4.45   397.1    7.5      32.564
2013    5        2     4   7    4.46   397.0    7.5      32.572
2013    5        2     4  13    4.46   397.0    7.5      32.581
2013    5        2     4  19    4.46   397.0    7.5      32.589
2013    5        2     4  26    4.46   396.9    7.5      32.598
2013    5        2     4  32    4.47   396.9    7.5      32.606
2013    5        2     4  39    4.47   396.8    7.5      32.615
2013    5        2     4  45    4.47   396.8    7.5      32.624
2013    5        2     4  52    4.47   396.8    7.5      32.633
2013    5        2     4  58    4.48   396.7    7.6      32.643
2013    5        2     5   4    4.48   396.7    7.6      32.652
2013    5        2     5  11    4.48   396.6    7.6      32.662
2013    5        2     5  17    4.49   396.6    7.6      32.671
2013    5        2     5  24    4.49   396.6    7.6      32.681
2013    5        2     5  30    4.49   396.5    7.6      32.691
2013    5        2     5  37    4.49   396.5    7.6      32.702
2013    5        2     5  43    4.50   396.5    7.6      32.712
2013    5        2     5  49    4.50   396.4    7.6      32.723
2013    5        2     5  56    4.50   396.4    7.6      32.733
2013    5        2     6   2    4.51   396.4    7.6      32.744
2013    5        2     6   9    4.51   396.3    7.6      32.755
2013    5        2     6  15    4.51   396.3    7.6      32.767
2013    5        2     6  22    4.52   396.3    7.6      32.778
2013    5        2     6  28    4.52   396.2    7.6      32.790
2013    5        2     6  35    4.52   396.2    7.6      32.802
2013    5        2     6  41    4.53   396.2    7.6      32.814
2013    5        2     6  47    4.53   396.2    7.7      32.826
2013    5        2     6  54    4.53   396.1    7.7      32.839
2013    5        2     7   0    4.54   396.1    7.7      32.851
2013    5        2     7   7    4.54   396.1    7.7      32.864
2013    5        2     7  13    4.54   396.0    7.7      32.878
2013    5        2     7  20    4.55   396.0    7.7      32.891
2013    5        2     7  26    4.55   396.0    7.7      32.905
2013    5        2     7  32    4.55   396.0    7.7      32.918
2013    5        2     7  39    4.56   395.9    7.7      32.932
2013    5        2     7  45    4.56   395.9    7.7      32.947
2013    5        2     7  52    4.57   395.9    7.7      32.961
2013    5        2     7  58    4.57   395.9    7.7      32.976
2013    5        2     8   5    4.57   395.9    7.7      32.990
2013    5        2     8  11    4.58   395.8    7.7      33.005
2013    5        2     8  17    4.58   395.8    7.8      33.021
2013    5        2     8  24    4.58   395.8    7.8      33.036
2013    5        2     8  30    4.59   395.8    7.8      33.051
2013    5        2     8  37    4.59   395.8    7.8      33.067
2013    5        2     8  43    4.59   395.8    7.8      33.083
2013    5        2     8  50    4.60   395.8    7.8      33.099
2013    5        2     8  56    4.60   395.7    7.8      33.115
2013    5        2     9   3    4.61   395.7    7.8      33.132
2013    5        2     9   9    4.61   395.7    7.8      33.149
2013    5        2     9  15    4.61   395.7    7.8      33.166
2013    5        2     9  22    4.62   395.7    7.8      33.183
2013    5        2     9  28    4.62   395.7    7.8      33.201
2013    5        2     9  35    4.63   395.7    7.9      33.218
2013    5        2     9  41    4.63   395.7    7.9      33.236
2013    5        2     9  48    4.63   395.6    7.9      33.254
2013    5        2     9  54    4.64   395.6    7.9      33.272
2013    5        2    10   0    4.64   395.6    7.9      33.290
2013    5        2    10   7    4.64   395.6    7.9      33.309
2013    5        2    10  13    4.65   395.6    7.9      33.328
2013    5        2    10  20    4.65   395.6    7.9      33.346
2013    5        2    10  26    4.66   395.6    7.9      33.365
2013    5        2    10  33    4.66   395.6    7.9      33.384
2013    5        2    10  39    4.66   395.6    7.9      33.403
2013    5        2    10  45    4.67   395.6    7.9      33.423
2013    5        2    10  52    4.67   395.6    8.0      33.442
2013    5        2    10  58    4.68   395.6    8.0      33.461
2013    5        2    11   5    4.68   395.6    8.0      33.480
2013    5        2    11  11    4.69   395.6    8.0      33.499
2013    5        2    11  18    4.69   395.5    8.0      33.519
2013    5        2    11  24    4.69   395.5    8.0      33.538
2013    5        2    11  31    4.70   395.5    8.0      33.557
2013    5        2    11  37    4.70   395.5    8.0      33.576
2013    5        2    11  43    4.71   395.5    8.0      33.596
2013    5        2    11  50    4.71   395.5    8.0      33.615
2013    5        2    11  56    4.72   395.5    8.0      33.634
2013    5        2    12   3    4.72   395.5    8.0      33.654
2013    5        2    12   9    4.73   395.5    8.0      33.673
2013    5        2    12  16    4.73   395.5    8.1      33.693
2013    5        2    12  22    4.73   395.5    8.1      33.713
2013    5        2    12  29    4.74   395.5    8.1      33.732
2013    5        2    12  35    4.74   395.5    8.1      33.752
2013    5        2    12  41    4.75   395.5    8.1      33.772
2013    5        2    12  48    4.75   395.5    8.1      33.793
2013    5        2    12  54    4.76   395.5    8.1      33.814
2013    5        2    13   1    4.76   395.5    8.1      33.836
2013    5        2    13   7    4.77   395.5    8.1      33.858
2013    5        2    13  14    4.77   395.6    8.1      33.880
2013    5        2    13  20    4.78   395.6    8.1      33.903
2013    5        2    13  26    4.78   395.6    8.1      33.926
2013    5        2    13  33    4.79   395.6    8.2      33.949
2013    5        2    13  39    4.79   395.6    8.2      33.972
2013    5        2    13  46    4.80   395.6    8.2      33.995
2013    5        2    13  52    4.80   395.6    8.2      34.018
2013    5        2    13  59    4.81   395.7    8.2      34.040
2013    5        2    14   5    4.82   395.7    8.2      34.063
2013    5        2    14  11    4.82   395.7    8.2      34.086
2013    5        2    14  18    4.83   395.7    8.2      34.109
2013    5        2    14  24    4.83   395.7    8.2      34.132
2013    5        2    14  31    4.84   395.7    8.2      34.156
2013    5        2    14  37    4.84   395.8    8.2      34.179
2013    5        2    14  44    4.85   395.8    8.2      34.202
2013    5        2    14  50    4.85   395.8    8.3      34.226
2013    5        2    14  56    4.86   395.8    8.3      34.250
2013    5        2    15   3    4.86   395.9    8.3      34.274
2013    5        2    15   9    4.87   395.9    8.3      34.298
2013    5        2    15  16    4.88   395.9    8.3      34.322
2013    5        2    15  22    4.88   395.9    8.3      34.346
2013    5        2    15  29    4.89   396.0    8.3      34.371
2013    5        2    15  35    4.89   396.0    8.3      34.396
2013    5        2    15  42    4.90   396.0    8.3      34.421
2013    5        2    15  48    4.90   396.0    8.3      34.446
2013    5        2    15  54    4.91   396.1    8.3      34.471
2013    5        2    16   1    4.92   396.1    8.4      34.497
2013    5        2    16   7    4.92   396.1    8.4      34.523
2013    5        2    16  14    4.93   396.2    8.4      34.549
2013    5        2    16  20    4.93   396.2    8.4      34.576
2013    5        2    16  27    4.94   396.2    8.4      34.603
2013    5        2    16  33    4.95   396.3    8.4      34.630
2013    5        2    16  39    4.95   396.3    8.4      34.658
2013    5        2    16  46    4.96   396.3    8.4      34.686
2013    5        2    16  52    4.96   396.4    8.4      34.714
2013    5        2    16  59    4.97   396.4    8.5      34.743
2013    5        2    17   5    4.98   396.4    8.5      34.773
2013    5        2    17  12    4.98   396.5    8.5      34.803
2013    5        2    17  18    4.99   396.5    8.5      34.834
2013    5        2    17  24    5.00   396.5    8.5      34.865
2013    5        2    17  31    5.00   396.6    8.5      34.897
2013    5        2    17  37    5.01   396.6    8.5      34.929
2013    5        2    17  44    5.02   396.7    8.5      34.962
2013    5        2    17  50    5.02   396.7    8.6      34.994
2013    5        2    17  57    5.03   396.7    8.6      35.027
2013    5        2    18   3    5.04   396.8    8.6      35.062
2013    5        2    18  10    5.05   396.8    8.6      35.097
2013    5        2    18  16    5.05   396.9    8.6      35.134
2013    5        2    18  22    5.06   396.9    8.6      35.172
2013    5        2    18  29    5.07   397.0    8.6      35.210
2013    5        2    18  35    5.08   397.0    8.6      35.249
2013    5        2    18  42    5.08   397.1    8.7      35.289
2013    5        2    18  48    5.09   397.2    8.7      35.329
2013    5        2    18  55    5.10   397.2    8.7      35.368
2013    5        2    19   1    5.11   397.3    8.7      35.407
2013    5        2    19   7    5.11   397.3    8.7      35.445
2013    5        2    19  14    5.12   397.4    8.7      35.483
2013    5        2    19  20    5.13   397.5    8.7      35.522
2013    5        2    19  27    5.14   397.5    8.7      35.560
2013    5        2    19  33    5.15   397.6    8.8      35.598
2013    5        2    19  40    5.15   397.7    8.8      35.636
2013    5        2    19  46    5.16   397.7    8.8      35.673
2013    5        2    19  53    5.17   397.8    8.8      35.711
2013    5        2    19  59    5.18   397.9    8.8      35.748
2013    5        2    20   5    5.18   398.0    8.8      35.786
2013    5        2    20  12    5.19   398.0    8.8      35.822
2013    5        2    20  18    5.20   398.1    8.8      35.859
2013    5        2    20  25    5.21   398.2    8.8      35.895
2013    5        2    20  31    5.22   398.3    8.9      35.931
2013    5        2    20  38    5.22   398.3    8.9      35.968
2013    5        2    20  44    5.23   398.4    8.9      36.004
2013    5        2    20  50    5.24   398.5    8.9      36.041
2013    5        2    20  57    5.25   398.6    8.9      36.077
2013    5        2    21   3    5.25   398.7    8.9      36.113
2013    5        2    21  10    5.26   398.7    8.9      36.150
2013    5        2    21  16    5.27   398.8    8.9      36.186
2013    5        2    21  23    5.28   398.9    8.9      36.221
2013    5        2    21  29    5.28   399.0    9.0      36.257
2013    5        2    21  35    5.29   399.1    9.0      36.292
2013    5        2    21  42    5.30   399.2    9.0      36.326
2013    5        2    21  48    5.31   399.3    9.0      36.361
2013    5        2    21  55    5.32   399.3    9.0      36.395
2013    5        2    22   1    5.32   399.4    9.0      36.429
2013    5        2    22   8    5.33   399.5    9.0      36.463
2013    5        2    22  14    5.34   399.6    9.0      36.496
2013    5        2    22  21    5.35   399.7    9.0      36.530
2013    5        2    22  27    5.35   399.8    9.0      36.563
2013    5        2    22  33    5.36   399.9    9.1      36.597
2013    5        2    22  40    5.37   399.9    9.1      36.631
2013    5        2    22  46    5.38   400.0    9.1      36.665
2013    5        2    22  53    5.38   400.1    9.1      36.699
2013    5        2    22  59    5.39   400.2    9.1      36.734
2013    5        2    23   6    5.40   400.3    9.1      36.769
2013    5        2    23  12    5.41   400.4    9.1      36.805
2013    5        2    23  18    5.42   400.5    9.1      36.841
2013    5        2    23  25    5.42   400.6    9.1      36.878
2013    5        2    23  31    5.43   400.7    9.2      36.915
2013    5        2    23  38    5.44   400.7    9.2      36.954
2013    5        2    23  44    5.45   400.8    9.2      36.994
2013    5        2    23  51    5.46   400.9    9.2      37.035
2013    5        2    23  57    5.47   401.0    9.2      37.078
2013    5        3     0   3    5.48   401.1    9.2      37.123
2013    5        3     0  10    5.48   401.2    9.2      37.170
2013    5        3     0  16    5.49   401.4    9.3      37.220
2013    5        3     0  23    5.50   401.5    9.3      37.273
2013    5        3     0  29    5.51   401.6    9.3      37.328
2013    5        3     0  36    5.52   401.7    9.3      37.384
2013    5        3     0  42    5.53   401.8    9.3      37.440
2013    5        3     0  49    5.54   402.0    9.3      37.498
2013    5        3     0  55    5.55   402.1    9.3      37.557
2013    5        3     1   1    5.56   402.2    9.4      37.617
2013    5        3     1   8    5.56   402.4    9.4      37.676
2013    5        3     1  14    5.57   402.5    9.4      37.736
2013    5        3     1  21    5.58   402.7    9.4      37.795
2013    5        3     1  27    5.59   402.8    9.4      37.855
2013    5        3     1  34    5.60   403.0    9.4      37.914
2013    5        3     1  40    5.61   403.1    9.4      37.972
2013    5        3     1  46    5.62   403.3    9.5      38.029
2013    5        3     1  53    5.63   403.4    9.5      38.085
2013    5        3     1  59    5.64   403.5    9.5      38.140
2013    5        3     2   6    5.64   403.7    9.5      38.195
2013    5        3     2  12    5.65   403.8    9.5      38.249
2013    5        3     2  19    5.66   404.0    9.5      38.304
2013    5        3     2  25    5.67   404.1    9.5      38.358
2013    5        3     2  32    5.68   404.3    9.5      38.412
2013    5        3     2  38    5.69   404.5    9.5      38.466
2013    5        3     2  44    5.70   404.6    9.6      38.520
2013    5        3     2  51    5.71   404.8    9.6      38.573
2013    5        3     2  57    5.72   404.9    9.6      38.626
2013    5        3     3   4    5.73   405.1    9.6      38.679
2013    5        3     3  10    5.73   405.3    9.6      38.731
2013    5        3     3  17    5.74   405.4    9.6      38.782
2013    5        3     3  23    5.75   405.6    9.6      38.833
2013    5        3     3  29    5.76   405.7    9.6      38.884
2013    5        3     3  36    5.77   405.9    9.6      38.934
2013    5        3     3  42    5.78   406.0    9.6      38.984
2013    5        3     3  49    5.79   406.2    9.6      39.035
2013    5        3     3  55    5.80   406.4    9.7      39.087
2013    5        3     4   2    5.81   406.5    9.7      39.139
2013    5        3     4   8    5.82   406.7    9.7      39.192
2013    5        3     4  14    5.83   406.9    9.7      39.246
2013    5        3     4  21    5.84   407.1    9.7      39.300
2013    5        3     4  27    5.85   407.3    9.7      39.355
2013    5        3     4  34    5.86   407.4    9.7      39.409
2013    5        3     4  40    5.87   407.6    9.7      39.462
2013    5        3     4  47    5.88   407.8    9.7      39.515
2013    5        3     4  53    5.89   408.0    9.7      39.569
2013    5        3     4  59    5.89   408.2    9.7      39.621
2013    5        3     5   6    5.90   408.4    9.7      39.674
2013    5        3     5  12    5.91   408.6    9.7      39.726
2013    5        3     5  19    5.92   408.8    9.8      39.778
2013    5        3     5  25    5.93   408.9    9.8      39.830
2013    5        3     5  32    5.94   409.1    9.8      39.881
2013    5        3     5  38    5.95   409.3    9.8      39.933
2013    5        3     5  45    5.96   409.5    9.8      39.985
2013    5        3     5  51    5.97   409.7    9.8      40.037
2013    5        3     5  57    5.98   409.9    9.8      40.090
2013    5        3     6   4    5.99   410.1    9.8      40.143
2013    5        3     6  10    6.00   410.3    9.8      40.196
2013    5        3     6  17    6.01   410.5    9.8      40.250
2013    5        3     6  23    6.02   410.7    9.8      40.304
2013    5        3     6  30    6.03   411.0    9.8      40.360
2013    5        3     6  36    6.04   411.2    9.8      40.416
2013    5        3     6  42    6.05   411.4    9.8      40.474
2013    5        3     6  49    6.06   411.6    9.8      40.532
2013    5        3     6  55    6.07   411.8    9.8      40.591
2013    5        3     7   2    6.08   412.0    9.9      40.652
2013    5        3     7   8    6.09   412.2    9.9      40.716
2013    5        3     7  15    6.10   412.4    9.9      40.781
2013    5        3     7  21    6.11   412.7    9.9      40.849
2013    5        3     7  27    6.12   412.9    9.9      40.919
2013    5        3     7  34    6.13   413.1    9.9      40.990
2013    5        3     7  40    6.15   413.4    9.9      41.064
2013    5        3     7  47    6.16   413.6    9.9      41.138
2013    5        3     7  53    6.17   413.9    9.9      41.212
2013    5        3     8   0    6.18   414.1    9.9      41.287
2013    5        3     8   6    6.19   414.4    9.9      41.362
2013    5        3     8  13    6.20   414.6   10.0      41.439
2013    5        3     8  19    6.21   414.9   10.0      41.517
2013    5        3     8  25    6.22   415.1   10.0      41.596
2013    5        3     8  32    6.23   415.4   10.0      41.676
2013    5        3     8  38    6.24   415.7   10.0      41.756
2013    5        3     8  45    6.25   415.9   10.0      41.838
2013    5        3     8  51    6.26   416.2   10.0      41.921
2013    5        3     8  58    6.27   416.5   10.0      42.004
2013    5        3     9   4    6.29   416.8   10.0      42.086
2013    5        3     9  10    6.30   417.1   10.0      42.170
2013    5        3     9  17    6.31   417.3   10.0      42.253
2013    5        3     9  23    6.32   417.6   10.0      42.336
2013    5        3     9  30    6.33   417.9   10.0      42.419
2013    5        3     9  36    6.34   418.2   10.1      42.500
2013    5        3     9  43    6.35   418.5   10.1      42.581
2013    5        3     9  49    6.36   418.8   10.1      42.661
2013    5        3     9  56    6.37   419.1   10.1      42.741
2013    5        3    10   2    6.38   419.3   10.1      42.820
2013    5        3    10   8    6.39   419.6   10.1      42.899
2013    5        3    10  15    6.40   419.9   10.1      42.978
2013    5        3    10  21    6.41   420.2   10.1      43.056
2013    5        3    10  28    6.42   420.5   10.1      43.135
2013    5        3    10  34    6.43   420.8   10.1      43.213
2013    5        3    10  41    6.44   421.1   10.1      43.292
2013    5        3    10  47    6.45   421.3   10.1      43.371
2013    5        3    10  53    6.46   421.6   10.1      43.451
2013    5        3    11   0    6.47   421.9   10.1      43.530
2013    5        3    11   6    6.48   422.2   10.1      43.611
2013    5        3    11  13    6.49   422.5   10.1      43.692
2013    5        3    11  19    6.50   422.8   10.1      43.774
2013    5        3    11  26    6.51   423.1   10.1      43.856
2013    5        3    11  32    6.52   423.4   10.1      43.939
2013    5        3    11  38    6.53   423.7   10.1      44.023
2013    5        3    11  45    6.54   424.0   10.1      44.110
2013    5        3    11  51    6.55   424.3   10.1      44.197
2013    5        3    11  58    6.56   424.6   10.1      44.286
2013    5        3    12   4    6.57   424.9   10.1      44.375
2013    5        3    12  11    6.58   425.2   10.1      44.465
2013    5        3    12  17    6.59   425.5   10.2      44.556
2013    5        3    12  23    6.60   425.8   10.2      44.645
2013    5        3    12  30    6.61   426.1   10.2      44.734
2013    5        3    12  36    6.62   426.4   10.2      44.822
2013    5        3    12  43    6.63   426.7   10.2      44.909
2013    5        3    12  49    6.64   427.1   10.2      44.996
2013    5        3    12  56    6.65   427.4   10.2      45.082
2013    5        3    13   2    6.66   427.7   10.2      45.168
2013    5        3    13   9    6.67   428.0   10.2      45.253
2013    5        3    13  15    6.68   428.3   10.2      45.338
2013    5        3    13  21    6.68   428.6   10.2      45.422
2013    5        3    13  28    6.69   429.0   10.2      45.506
2013    5        3    13  34    6.70   429.3   10.2      45.590
2013    5        3    13  41    6.71   429.6   10.2      45.675
2013    5        3    13  47    6.72   429.9   10.2      45.759
2013    5        3    13  54    6.73   430.2   10.2      45.843
2013    5        3    14   0    6.74   430.5   10.2      45.928
2013    5        3    14   6    6.75   430.9   10.2      46.013
2013    5        3    14  13    6.76   431.2   10.2      46.099
2013    5        3    14  19    6.77   431.5   10.2      46.185
2013    5        3    14  26    6.77   431.8   10.2      46.271
2013    5        3    14  32    6.78   432.1   10.2      46.358
2013    5        3    14  39    6.79   432.4   10.2      46.447
2013    5        3    14  45    6.80   432.8   10.2      46.538
2013    5        3    14  51    6.81   433.1   10.2      46.632
2013    5        3    14  58    6.82   433.4   10.2      46.727
2013    5        3    15   4    6.83   433.8   10.2      46.826
2013    5        3    15  11    6.84   434.1   10.2      46.930
2013    5        3    15  17    6.85   434.5   10.2      47.039
2013    5        3    15  24    6.86   434.9   10.2      47.151
2013    5        3    15  30    6.87   435.3   10.2      47.265
2013    5        3    15  37    6.88   435.7   10.2      47.384
2013    5        3    15  43    6.89   436.1   10.2      47.503
2013    5        3    15  49    6.90   436.5   10.2      47.622
2013    5        3    15  56    6.91   436.9   10.2      47.741
2013    5        3    16   2    6.92   437.3   10.2      47.860
2013    5        3    16   9    6.93   437.7   10.2      47.978
2013    5        3    16  15    6.94   438.2   10.2      48.096
2013    5        3    16  22    6.95   438.6   10.2      48.212
2013    5        3    16  28    6.96   439.0   10.2      48.329
2013    5        3    16  34    6.97   439.4   10.2      48.444
2013    5        3    16  41    6.98   439.8   10.2      48.559
2013    5        3    16  47    6.99   440.3   10.2      48.674
2013    5        3    16  54    7.00   440.7   10.2      48.790
2013    5        3    17   0    7.01   441.1   10.2      48.906
2013    5        3    17   7    7.01   441.5   10.2      49.023
2013    5        3    17  13    7.02   441.9   10.2      49.139
2013    5        3    17  19    7.03   442.3   10.2      49.257
2013    5        3    17  26    7.04   442.7   10.2      49.379
2013    5        3    17  32    7.05   443.2   10.2      49.505
2013    5        3    17  39    7.06   443.6   10.2      49.634
2013    5        3    17  45    7.07   444.0   10.2      49.767
2013    5        3    17  52    7.08   444.5   10.2      49.904
2013    5        3    17  58    7.09   444.9   10.2      50.044
2013    5        3    18   4    7.10   445.4   10.2      50.185
2013    5        3    18  11    7.11   445.8   10.2      50.326
2013    5        3    18  17    7.11   446.3   10.2      50.467
2013    5        3    18  24    7.12   446.7   10.2      50.609
2013    5        3    18  30    7.13   447.2   10.2      50.751
2013    5        3    18  37    7.14   447.7   10.2      50.893
2013    5        3    18  43    7.15   448.1   10.2      51.035
2013    5        3    18  50    7.16   448.6   10.2      51.177
2013    5        3    18  56    7.16   449.1   10.2      51.320
2013    5        3    19   2    7.17   449.6   10.2      51.462
2013    5        3    19   9    7.18   450.0   10.2      51.605
2013    5        3    19  15    7.19   450.5   10.2      51.749
2013    5        3    19  22    7.20   451.0   10.2      51.892
2013    5        3    19  28    7.20   451.4   10.1      52.035
2013    5        3    19  35    7.21   451.9   10.1      52.177
2013    5        3    19  41    7.22   452.4   10.1      52.319
2013    5        3    19  47    7.23   452.9   10.1      52.462
2013    5        3    19  54    7.23   453.3   10.1      52.604
2013    5        3    20   0    7.24   453.8   10.1      52.746
2013    5        3    20   7    7.25   454.3   10.1      52.888
2013    5        3    20  13    7.25   454.8   10.1      53.030
2013    5        3    20  20    7.26   455.3   10.1      53.171
2013    5        3    20  26    7.27   455.7   10.1      53.313
2013    5        3    20  32    7.28   456.2   10.1      53.453
2013    5        3    20  39    7.28   456.7   10.1      53.593
2013    5        3    20  45    7.29   457.2   10.0      53.733
2013    5        3    20  52    7.30   457.7   10.0      53.872
2013    5        3    20  58    7.30   458.2   10.0      54.012
2013    5        3    21   5    7.31   458.7   10.0      54.151
2013    5        3    21  11    7.32   459.2   10.0      54.290
2013    5        3    21  17    7.33   459.7   10.0      54.429
2013    5        3    21  24    7.33   460.2   10.0      54.569
2013    5        3    21  30    7.34   460.7   10.0      54.708
2013    5        3    21  37    7.35   461.3   10.0      54.849
2013    5        3    21  43    7.35   461.8   10.0      54.989
2013    5        3    21  50    7.36   462.3   10.0      55.130
2013    5        3    21  56    7.37   462.8    9.9      55.272
2013    5        3    22   3    7.37   463.4    9.9      55.414
2013    5        3    22   9    7.38   463.9    9.9      55.557
2013    5        3    22  15    7.39   464.4    9.9      55.702
2013    5        3    22  22    7.39   465.0    9.9      55.847
2013    5        3    22  28    7.40   465.5    9.9      55.993
2013    5        3    22  35    7.41   466.1    9.9      56.140
2013    5        3    22  41    7.41   466.6    9.9      56.289
2013    5        3    22  48    7.42   467.2    9.9      56.439
2013    5        3    22  54    7.43   467.8    9.9      56.590
2013    5        3    23   0    7.43   468.3    9.8      56.742
2013    5        3    23   7    7.44   468.9    9.8      56.895
2013    5        3    23  13    7.45   469.5    9.8      57.048
2013    5        3    23  20    7.45   470.1    9.8      57.201
2013    5        3    23  26    7.46   470.7    9.8      57.354
2013    5        3    23  33    7.46   471.3    9.8      57.507
2013    5        3    23  39    7.47   471.9    9.8      57.659
2013    5        3    23  46    7.47   472.5    9.8      57.811
2013    5        3    23  52    7.48   473.1    9.7      57.962
2013    5        3    23  58    7.48   473.7    9.7      58.112
2013    5        4     0   5    7.49   474.3    9.7      58.262
2013    5        4     0  11    7.49   474.9    9.7      58.411
2013    5        4     0  18    7.50   475.5    9.7      58.558
2013    5        4     0  24    7.50   476.1    9.7      58.706
2013    5        4     0  31    7.50   476.7    9.7      58.854
2013    5        4     0  37    7.51   477.3    9.6      59.001
2013    5        4     0  43    7.51   477.9    9.6      59.148
2013    5        4     0  50    7.52   478.5    9.6      59.295
2013    5        4     0  56    7.52   479.1    9.6      59.446
2013    5        4     1   3    7.52   479.8    9.6      59.601
2013    5        4     1   9    7.53   480.4    9.6      59.759
2013    5        4     1  16    7.53   481.0    9.6      59.920
2013    5        4     1  22    7.54   481.7    9.5      60.084
2013    5        4     1  28    7.54   482.3    9.5      60.251
2013    5        4     1  35    7.54   483.0    9.5      60.417
2013    5        4     1  41    7.55   483.6    9.5      60.580
2013    5        4     1  48    7.55   484.3    9.5      60.742
2013    5        4     1  54    7.55   485.0    9.5      60.901
2013    5        4     2   1    7.55   485.7    9.4      61.057
2013    5        4     2   7    7.56   486.3    9.4      61.206
2013    5        4     2  14    7.56   487.0    9.4      61.346
2013    5        4     2  20    7.56   487.6    9.4      61.482
2013    5        4     2  26    7.56   488.3    9.3      61.610
2013    5        4     2  33    7.56   488.9    9.3      61.733
2013    5        4     2  39    7.56   489.6    9.3      61.856
2013    5        4     2  46    7.56   490.3    9.3      61.980
2013    5        4     2  52    7.56   490.9    9.2      62.104
2013    5        4     2  59    7.55   491.6    9.2      62.228
2013    5        4     3   5    7.55   492.3    9.2      62.352
2013    5        4     3  11    7.55   493.0    9.2      62.477
2013    5        4     3  18    7.55   493.7    9.1      62.604
2013    5        4     3  24    7.55   494.4    9.1      62.731
2013    5        4     3  31    7.55   495.1    9.1      62.861
2013    5        4     3  37    7.55   495.8    9.0      62.993
2013    5        4     3  44    7.55   496.5    9.0      63.127
2013    5        4     3  50    7.55   497.2    9.0      63.263
2013    5        4     3  56    7.54   498.0    9.0      63.400
2013    5        4     4   3    7.54   498.7    8.9      63.540
2013    5        4     4   9    7.54   499.4    8.9      63.680
2013    5        4     4  16    7.54   500.1    8.9      63.823
2013    5        4     4  22    7.53   500.9    8.9      63.966
2013    5        4     4  29    7.53   501.6    8.8      64.111
2013    5        4     4  35    7.53   502.3    8.8      64.257
2013    5        4     4  41    7.53   503.1    8.8      64.403
2013    5        4     4  48    7.52   503.8    8.7      64.550
2013    5        4     4  54    7.52   504.5    8.7      64.698
2013    5        4     5   1    7.52   505.3    8.7      64.847
2013    5        4     5   7    7.51   506.0    8.7      64.996
2013    5        4     5  14    7.51   506.7    8.6      65.146
2013    5        4     5  20    7.51   507.5    8.6      65.296
2013    5        4     5  27    7.50   508.2    8.6      65.445
2013    5        4     5  33    7.50   509.0    8.5      65.595
2013    5        4     5  39    7.50   509.7    8.5      65.743
2013    5        4     5  46    7.49   510.5    8.5      65.890
2013    5        4     5  52    7.49   511.3    8.5      66.035
2013    5        4     5  59    7.48   512.1    8.4      66.177
2013    5        4     6   5    7.48   512.8    8.4      66.316
2013    5        4     6  12    7.47   513.6    8.4      66.444
2013    5        4     6  18    7.47   514.3    8.3      66.559
2013    5        4     6  24    7.46   515.0    8.3      66.663
2013    5        4     6  31    7.45   515.7    8.3      66.758
2013    5        4     6  37    7.44   516.4    8.2      66.846
2013    5        4     6  44    7.44   517.1    8.2      66.933
2013    5        4     6  50    7.43   517.8    8.2      67.022
2013    5        4     6  57    7.42   518.5    8.1      67.113
2013    5        4     7   3    7.41   519.2    8.1      67.206
2013    5        4     7  10    7.41   519.9    8.1      67.302
2013    5        4     7  16    7.40   520.6    8.0      67.401
2013    5        4     7  22    7.39   521.3    8.0      67.503
2013    5        4     7  29    7.38   522.0    8.0      67.608
2013    5        4     7  35    7.38   522.8    7.9      67.715
2013    5        4     7  42    7.37   523.5    7.9      67.824
2013    5        4     7  48    7.36   524.3    7.9      67.936
2013    5        4     7  55    7.35   525.0    7.9      68.049
2013    5        4     8   1    7.35   525.8    7.8      68.164
2013    5        4     8   7    7.34   526.5    7.8      68.280
2013    5        4     8  14    7.33   527.3    7.8      68.399
2013    5        4     8  20    7.32   528.1    7.8      68.519
2013    5        4     8  27    7.32   528.9    7.7      68.639
2013    5        4     8  33    7.31   529.7    7.7      68.760
2013    5        4     8  40    7.30   530.5    7.7      68.881
2013    5        4     8  46    7.29   531.3    7.6      69.001
2013    5        4     8  52    7.28   532.1    7.6      69.118
2013    5        4     8  59    7.27   532.9    7.6      69.232
2013    5        4     9   5    7.26   533.7    7.5      69.344
2013    5        4     9  12    7.25   534.5    7.5      69.450
2013    5        4     9  18    7.24   535.3    7.5      69.540
2013    5        4     9  25    7.23   536.1    7.4      69.614
2013    5        4     9  31    7.21   536.9    7.4      69.670
2013    5        4     9  38    7.20   537.6    7.4      69.711
2013    5        4     9  44    7.19   538.3    7.3      69.738
2013    5        4     9  50    7.18   539.0    7.3      69.759
2013    5        4     9  57    7.16   539.7    7.2      69.779
2013    5        4    10   3    7.15   540.4    7.2      69.799
2013    5        4    10  10    7.14   541.1    7.2      69.818
2013    5        4    10  16    7.13   541.8    7.1      69.839
2013    5        4    10  23    7.11   542.5    7.1      69.862
2013    5        4    10  29    7.10   543.2    7.1      69.888
2013    5        4    10  35    7.09   543.9    7.1      69.918
2013    5        4    10  42    7.08   544.6    7.0      69.954
2013    5        4    10  48    7.07   545.4    7.0      69.994
2013    5        4    10  55    7.05   546.1    7.0      70.040
2013    5        4    11   1    7.04   546.8    6.9      70.091
2013    5        4    11   8    7.03   547.5    6.9      70.147
2013    5        4    11  14    7.02   548.3    6.9      70.206
2013    5        4    11  20    7.00   549.0    6.9      70.270
2013    5        4    11  27    6.99   549.7    6.8      70.338
2013    5        4    11  33    6.98   550.5    6.8      70.408
2013    5        4    11  40    6.97   551.2    6.8      70.482
2013    5        4    11  46    6.96   551.9    6.7      70.559
2013    5        4    11  53    6.94   552.7    6.7      70.637
2013    5        4    11  59    6.93   553.4    6.7      70.717
2013    5        4    12   5    6.92   554.1    6.7      70.799
2013    5        4    12  12    6.91   554.8    6.6      70.882
2013    5        4    12  18    6.90   555.6    6.6      70.966
2013    5        4    12  25    6.88   556.3    6.6      71.053
2013    5        4    12  31    6.87   557.0    6.6      71.140
2013    5        4    12  38    6.86   557.8    6.5      71.228
2013    5        4    12  44    6.85   558.6    6.5      71.315
2013    5        4    12  51    6.83   559.3    6.5      71.401
2013    5        4    12  57    6.82   560.1    6.4      71.483
2013    5        4    13   3    6.81   560.9    6.4      71.560
2013    5        4    13  10    6.79   561.7    6.4      71.628
2013    5        4    13  16    6.78   562.5    6.4      71.687
2013    5        4    13  23    6.76   563.3    6.3      71.739
2013    5        4    13  29    6.75   564.1    6.3      71.774
2013    5        4    13  36    6.73   564.8    6.3      71.786
2013    5        4    13  42    6.72   565.5    6.2      71.781
2013    5        4    13  48    6.70   566.2    6.2      71.761
2013    5        4    13  55    6.68   566.9    6.2      71.726
2013    5        4    14   1    6.67   567.6    6.1      71.680
2013    5        4    14   8    6.65   568.2    6.1      71.635
2013    5        4    14  14    6.64   568.9    6.1      71.592
2013    5        4    14  21    6.62   569.5    6.0      71.548
2013    5        4    14  27    6.60   570.1    6.0      71.506
2013    5        4    14  34    6.59   570.7    6.0      71.470
2013    5        4    14  40    6.57   571.3    5.9      71.441
2013    5        4    14  46    6.56   571.8    5.9      71.419
2013    5        4    14  53    6.54   572.4    5.9      71.403
2013    5        4    14  59    6.53   573.0    5.9      71.393
2013    5        4    15   6    6.52   573.5    5.8      71.388
2013    5        4    15  12    6.50   574.1    5.8      71.389
2013    5        4    15  19    6.49   574.7    5.8      71.393
2013    5        4    15  25    6.48   575.2    5.8      71.402
2013    5        4    15  31    6.46   575.8    5.8      71.414
2013    5        4    15  38    6.45   576.3    5.7      71.430
2013    5        4    15  44    6.43   576.9    5.7      71.450
2013    5        4    15  51    6.42   577.5    5.7      71.473
2013    5        4    15  57    6.41   578.0    5.7      71.499
2013    5        4    16   4    6.39   578.6    5.7      71.527
2013    5        4    16  10    6.38   579.2    5.6      71.555
2013    5        4    16  16    6.37   579.8    5.6      71.584
2013    5        4    16  23    6.35   580.4    5.6      71.610
2013    5        4    16  29    6.34   581.0    5.6      71.635
2013    5        4    16  36    6.33   581.7    5.6      71.658
2013    5        4    16  42    6.31   582.3    5.5      71.680
2013    5        4    16  49    6.30   582.9    5.5      71.698
2013    5        4    16  55    6.28   583.6    5.5      71.708
2013    5        4    17   1    6.27   584.2    5.5      71.710
2013    5        4    17   8    6.25   584.8    5.4      71.699
2013    5        4    17  14    6.24   585.4    5.4      71.676
2013    5        4    17  21    6.22   585.9    5.4      71.644
2013    5        4    17  27    6.21   586.5    5.4      71.606
2013    5        4    17  34    6.19   587.0    5.3      71.563
2013    5        4    17  40    6.18   587.5    5.3      71.519
2013    5        4    17  47    6.17   588.0    5.3      71.475
2013    5        4    17  53    6.15   588.5    5.3      71.430
2013    5        4    17  59    6.14   589.0    5.3      71.387
2013    5        4    18   6    6.12   589.5    5.2      71.345
2013    5        4    18  12    6.11   589.9    5.2      71.305
2013    5        4    18  19    6.10   590.4    5.2      71.267
2013    5        4    18  25    6.08   590.8    5.2      71.229
2013    5        4    18  32    6.07   591.3    5.2      71.192
2013    5        4    18  38    6.06   591.7    5.1      71.156
2013    5        4    18  44    6.04   592.1    5.1      71.127
2013    5        4    18  51    6.03   592.5    5.1      71.101
2013    5        4    18  57    6.02   592.9    5.1      71.079
2013    5        4    19   4    6.01   593.4    5.1      71.060
2013    5        4    19  10    5.99   593.8    5.1      71.045
2013    5        4    19  17    5.98   594.2    5.1      71.031
2013    5        4    19  23    5.97   594.6    5.0      71.020
2013    5        4    19  29    5.96   595.1    5.0      71.012
2013    5        4    19  36    5.95   595.5    5.0      71.005
2013    5        4    19  42    5.94   596.0    5.0      70.998
2013    5        4    19  49    5.92   596.4    5.0      70.993
2013    5        4    19  55    5.91   596.9    5.0      70.988
2013    5        4    20   2    5.90   597.4    5.0      70.981
2013    5        4    20   8    5.89   597.8    4.9      70.973
2013    5        4    20  15    5.88   598.3    4.9      70.963
2013    5        4    20  21    5.87   598.7    4.9      70.951
2013    5        4    20  27    5.85   599.2    4.9      70.937
2013    5        4    20  34    5.84   599.6    4.9      70.921
2013    5        4    20  40    5.83   600.0    4.9      70.904
2013    5        4    20  47    5.82   600.5    4.8      70.888
2013    5        4    20  53    5.81   601.0    4.8      70.872
2013    5        4    21   0    5.80   601.4    4.8      70.857
2013    5        4    21   6    5.79   601.9    4.8      70.841
2013    5        4    21  12    5.78   602.4    4.8      70.826
2013    5        4    21  19    5.76   602.9    4.8      70.808
2013    5        4    21  25    5.75   603.3    4.8      70.783
2013    5        4    21  32    5.74   603.8    4.7      70.753
2013    5        4    21  38    5.73   604.3    4.7      70.720
2013    5        4    21  45    5.72   604.7    4.7      70.680
2013    5        4    21  51    5.71   605.1    4.7      70.638
2013    5        4    21  58    5.70   605.6    4.7      70.596
2013    5        4    22   4    5.69   606.0    4.7      70.554
2013    5        4    22  10    5.67   606.4    4.6      70.512
2013    5        4    22  17    5.66   606.7    4.6      70.469
2013    5        4    22  23    5.65   607.1    4.6      70.425
2013    5        4    22  30    5.64   607.5    4.6      70.381
2013    5        4    22  36    5.63   607.8    4.6      70.338
2013    5        4    22  43    5.62   608.2    4.6      70.296
2013    5        4    22  49    5.61   608.6    4.6      70.259
2013    5        4    22  55    5.60   608.9    4.6      70.225
2013    5        4    23   2    5.59   609.3    4.5      70.196
2013    5        4    23   8    5.58   609.7    4.5      70.171
2013    5        4    23  15    5.57   610.1    4.5      70.146
2013    5        4    23  21    5.56   610.5    4.5      70.120
2013    5        4    23  28    5.55   610.9    4.5      70.094
2013    5        4    23  34    5.54   611.3    4.5      70.069
2013    5        4    23  40    5.53   611.6    4.5      70.044
2013    5        4    23  47    5.52   612.0    4.5      70.019
2013    5        4    23  53    5.51   612.4    4.4      69.995
2013    5        5     0   0    5.51   612.8    4.4      69.973
2013    5        5     0   6    5.50   613.2    4.4      69.949
2013    5        5     0  13    5.49   613.5    4.4      69.926
2013    5        5     0  19    5.48   613.9    4.4      69.902
2013    5        5     0  25    5.47   614.3    4.4      69.876
2013    5        5     0  32    5.46   614.6    4.4      69.850
2013    5        5     0  38    5.45   615.0    4.4      69.821
2013    5        5     0  45    5.44   615.3    4.3      69.793
2013    5        5     0  51    5.43   615.7    4.3      69.767
2013    5        5     0  58    5.42   616.1    4.3      69.741
2013    5        5     1   4    5.41   616.4    4.3      69.715
2013    5        5     1  10    5.40   616.8    4.3      69.689
2013    5        5     1  17    5.39   617.1    4.3      69.662
2013    5        5     1  23    5.39   617.4    4.3      69.632
2013    5        5     1  30    5.38   617.7    4.3      69.601
2013    5        5     1  36    5.37   618.0    4.3      69.570
2013    5        5     1  43    5.36   618.3    4.3      69.539
2013    5        5     1  49    5.35   618.7    4.2      69.511
2013    5        5     1  56    5.34   619.0    4.2      69.487
2013    5        5     2   2    5.33   619.3    4.2      69.464
2013    5        5     2   8    5.33   619.6    4.2      69.440
2013    5        5     2  15    5.32   620.0    4.2      69.415
2013    5        5     2  21    5.31   620.3    4.2      69.388
2013    5        5     2  28    5.30   620.5    4.2      69.358
2013    5        5     2  34    5.29   620.8    4.2      69.327
2013    5        5     2  41    5.29   621.0    4.2      69.296
2013    5        5     2  47    5.28   621.3    4.2      69.266
2013    5        5     2  53    5.27   621.6    4.1      69.241
2013    5        5     3   0    5.26   621.9    4.1      69.220
2013    5        5     3   6    5.25   622.3    4.1      69.202
2013    5        5     3  13    5.25   622.6    4.1      69.186
2013    5        5     3  19    5.24   623.0    4.1      69.169
2013    5        5     3  26    5.23   623.3    4.1      69.147
2013    5        5     3  32    5.22   623.6    4.1      69.121
2013    5        5     3  39    5.21   623.9    4.1      69.092
2013    5        5     3  45    5.21   624.2    4.1      69.060
2013    5        5     3  51    5.20   624.5    4.1      69.026
2013    5        5     3  58    5.19   624.7    4.0      68.993
2013    5        5     4   4    5.18   625.0    4.0      68.960
2013    5        5     4  11    5.17   625.3    4.0      68.926
2013    5        5     4  17    5.17   625.5    4.0      68.895
2013    5        5     4  24    5.16   625.8    4.0      68.866
2013    5        5     4  30    5.15   626.1    4.0      68.839
2013    5        5     4  36    5.14   626.4    4.0      68.811
2013    5        5     4  43    5.14   626.7    4.0      68.784
2013    5        5     4  49    5.13   626.9    4.0      68.754
2013    5        5     4  56    5.12   627.2    4.0      68.722
2013    5        5     5   2    5.11   627.4    4.0      68.688
2013    5        5     5   9    5.11   627.7    4.0      68.653
2013    5        5     5  15    5.10   628.0    3.9      68.620
2013    5        5     5  22    5.09   628.3    3.9      68.587
2013    5        5     5  28    5.08   628.6    3.9      68.555
2013    5        5     5  34    5.08   628.8    3.9      68.521
2013    5        5     5  41    5.07   629.1    3.9      68.485
2013    5        5     5  47    5.06   629.3    3.9      68.447
2013    5        5     5  54    5.06   629.5    3.9      68.408
2013    5        5     6   0    5.05   629.8    3.9      68.369
2013    5        5     6   7    5.04   630.0    3.9      68.331
2013    5        5     6  13    5.04   630.2    3.9      68.295
2013    5        5     6  19    5.03   630.4    3.9      68.263
2013    5        5     6  26    5.02   630.7    3.9      68.236
2013    5        5     6  32    5.01   631.0    3.8      68.212
2013    5        5     6  39    5.01   631.2    3.8      68.189
2013    5        5     6  45    5.00   631.5    3.8      68.166
2013    5        5     6  52    4.99   631.8    3.8      68.141
2013    5        5     6  58    4.99   632.0    3.8      68.113
2013    5        5     7   4    4.98   632.2    3.8      68.085
2013    5        5     7  11    4.97   632.5    3.8      68.055
2013    5        5     7  17    4.97   632.7    3.8      68.026
2013    5        5     7  24    4.96   633.0    3.8      67.996
2013    5        5     7  30    4.95   633.2    3.8      67.966
2013    5        5     7  37    4.95   633.4    3.8      67.935
2013    5        5     7  43    4.94   633.6    3.8      67.902
2013    5        5     7  49    4.94   633.8    3.8      67.870
2013    5        5     7  56    4.93   634.0    3.7      67.837
2013    5        5     8   2    4.92   634.2    3.7      67.805
2013    5        5     8   9    4.92   634.4    3.7      67.773
2013    5        5     8  15    4.91   634.6    3.7      67.741
2013    5        5     8  22    4.90   634.8    3.7      67.710
2013    5        5     8  28    4.90   635.0    3.7      67.680
2013    5        5     8  34    4.89   635.2    3.7      67.652
2013    5        5     8  41    4.88   635.5    3.7      67.623
2013    5        5     8  47    4.88   635.7    3.7      67.596
2013    5        5     8  54    4.87   635.9    3.7      67.569
2013    5        5     9   0    4.87   636.1    3.7      67.542
2013    5        5     9   7    4.86   636.3    3.7      67.515
2013    5        5     9  13    4.85   636.5    3.7      67.487
2013    5        5     9  20    4.85   636.7    3.7      67.459
2013    5        5     9  26    4.84   636.9    3.7      67.430
2013    5        5     9  32    4.84   637.1    3.7      67.400
2013    5        5     9  39    4.83   637.3    3.6      67.370
2013    5        5     9  45    4.82   637.4    3.6      67.339
2013    5        5     9  52    4.82   637.6    3.6      67.307
2013    5        5     9  58    4.81   637.8    3.6      67.276
2013    5        5    10   5    4.81   638.0    3.6      67.244
2013    5        5    10  11    4.80   638.1    3.6      67.213
2013    5        5    10  17    4.80   638.3    3.6      67.182
2013    5        5    10  24    4.79   638.5    3.6      67.150
2013    5        5    10  30    4.78   638.6    3.6      67.119
2013    5        5    10  37    4.78   638.8    3.6      67.089
2013    5        5    10  43    4.77   639.0    3.6      67.059
2013    5        5    10  50    4.77   639.1    3.6      67.028
2013    5        5    10  56    4.76   639.3    3.6      66.999
2013    5        5    11   3    4.76   639.4    3.6      66.969
2013    5        5    11   9    4.75   639.6    3.6      66.939
2013    5        5    11  15    4.75   639.7    3.6      66.909
2013    5        5    11  22    4.74   639.9    3.6      66.879
2013    5        5    11  28    4.74   640.0    3.5      66.848
2013    5        5    11  35    4.73   640.2    3.5      66.817
2013    5        5    11  41    4.72   640.3    3.5      66.786
2013    5        5    11  48    4.72   640.5    3.5      66.754
2013    5        5    11  54    4.71   640.6    3.5      66.723
2013    5        5    12   0    4.71   640.8    3.5      66.691
2013    5        5    12   7    4.70   640.9    3.5      66.659
2013    5        5    12  13    4.70   641.1    3.5      66.626
2013    5        5    12  20    4.69   641.2    3.5      66.594
2013    5        5    12  26    4.69   641.3    3.5      66.561
2013    5        5    12  33    4.68   641.5    3.5      66.528
2013    5        5    12  39    4.68   641.6    3.5      66.495
2013    5        5    12  45    4.67   641.8    3.5      66.462
2013    5        5    12  52    4.67   641.9    3.5      66.429
2013    5        5    12  58    4.66   642.0    3.5      66.396
2013    5        5    13   5    4.66   642.2    3.5      66.363
2013    5        5    13  11    4.65   642.3    3.5      66.330
2013    5        5    13  18    4.65   642.4    3.5      66.298
2013    5        5    13  24    4.64   642.5    3.5      66.266
2013    5        5    13  31    4.64   642.7    3.5      66.234
2013    5        5    13  37    4.63   642.8    3.4      66.203
2013    5        5    13  43    4.63   642.9    3.4      66.172
2013    5        5    13  50    4.62   643.0    3.4      66.141
2013    5        5    13  56    4.62   643.2    3.4      66.111
2013    5        5    14   3    4.61   643.3    3.4      66.082
2013    5        5    14   9    4.61   643.4    3.4      66.053
2013    5        5    14  16    4.60   643.5    3.4      66.025
2013    5        5    14  22    4.60   643.6    3.4      65.997
2013    5        5    14  28    4.60   643.7    3.4      65.969
2013    5        5    14  35    4.59   643.9    3.4      65.942
2013    5        5    14  41    4.59   644.0    3.4      65.915
2013    5        5    14  48    4.58   644.1    3.4      65.888
2013    5        5    14  54    4.58   644.2    3.4      65.861
2013    5        5    15   1    4.57   644.3    3.4      65.834
2013    5        5    15   7    4.57   644.4    3.4      65.808
2013    5        5    15  13    4.56   644.5    3.4      65.782
2013    5        5    15  20    4.56   644.6    3.4      65.755
2013    5        5    15  26    4.55   644.7    3.4      65.729
2013    5        5    15  33    4.55   644.8    3.4      65.702
2013    5        5    15  39    4.55   644.9    3.4      65.676
2013    5        5    15  46    4.54   645.0    3.4      65.649
2013    5        5    15  52    4.54   645.1    3.4      65.622
2013    5        5    15  58    4.53   645.2    3.4      65.595
2013    5        5    16   5    4.53   645.3    3.4      65.568
2013    5        5    16  11    4.52   645.4    3.3      65.540
2013    5        5    16  18    4.52   645.5    3.3      65.513
2013    5        5    16  24    4.52   645.6    3.3      65.486
2013    5        5    16  31    4.51   645.7    3.3      65.458
2013    5        5    16  37    4.51   645.8    3.3      65.430
2013    5        5    16  44    4.50   645.9    3.3      65.402
2013    5        5    16  50    4.50   646.0    3.3      65.374
2013    5        5    16  56    4.49   646.0    3.3      65.346
2013    5        5    17   3    4.49   646.1    3.3      65.318
2013    5        5    17   9    4.49   646.2    3.3      65.290
2013    5        5    17  16    4.48   646.3    3.3      65.262
2013    5        5    17  22    4.48   646.4    3.3      65.233
2013    5        5    17  29    4.47   646.5    3.3      65.205
2013    5        5    17  35    4.47   646.5    3.3      65.176
2013    5        5    17  41    4.47   646.6    3.3      65.148
2013    5        5    17  48    4.46   646.7    3.3      65.119
2013    5        5    17  54    4.46   646.8    3.3      65.090
2013    5        5    18   1    4.45   646.9    3.3      65.060
2013    5        5    18   7    4.45   646.9    3.3      65.031
2013    5        5    18  14    4.45   647.0    3.3      65.001
2013    5        5    18  20    4.44   647.1    3.3      64.971
2013    5        5    18  26    4.44   647.1    3.3      64.941
2013    5        5    18  33    4.43   647.2    3.3      64.911
2013    5        5    18  39    4.43   647.3    3.3      64.880
2013    5        5    18  46    4.43   647.3    3.3      64.849
2013    5        5    18  52    4.42   647.4    3.3      64.818
2013    5        5    18  59    4.42   647.5    3.3      64.787
2013    5        5    19   5    4.41   647.5    3.3      64.756
2013    5        5    19  12    4.41   647.6    3.3      64.725
2013    5        5    19  18    4.41   647.7    3.2      64.693
2013    5        5    19  24    4.40   647.7    3.2      64.662
2013    5        5    19  31    4.40   647.8    3.2      64.630
2013    5        5    19  37    4.40   647.9    3.2      64.599
2013    5        5    19  44    4.39   647.9    3.2      64.568
2013    5        5    19  50    4.39   648.0    3.2      64.537
2013    5        5    19  57    4.38   648.0    3.2      64.506
2013    5        5    20   3    4.38   648.1    3.2      64.475
2013    5        5    20   9    4.38   648.1    3.2      64.444
2013    5        5    20  16    4.37   648.2    3.2      64.414
2013    5        5    20  22    4.37   648.3    3.2      64.384
2013    5        5    20  29    4.37   648.3    3.2      64.355
2013    5        5    20  35    4.36   648.4    3.2      64.325
2013    5        5    20  42    4.36   648.4    3.2      64.296
2013    5        5    20  48    4.36   648.5    3.2      64.267
2013    5        5    20  55    4.35   648.5    3.2      64.238
2013    5        5    21   1    4.35   648.6    3.2      64.210
2013    5        5    21   7    4.35   648.6    3.2      64.182
2013    5        5    21  14    4.34   648.7    3.2      64.154
2013    5        5    21  20    4.34   648.7    3.2      64.126
2013    5        5    21  27    4.34   648.8    3.2      64.098
2013    5        5    21  33    4.33   648.8    3.2      64.071
2013    5        5    21  40    4.33   648.9    3.2      64.044
2013    5        5    21  46    4.33   648.9    3.2      64.017
2013    5        5    21  52    4.32   648.9    3.2      63.990
2013    5        5    21  59    4.32   649.0    3.2      63.963
2013    5        5    22   5    4.32   649.0    3.2      63.937
2013    5        5    22  12    4.31   649.1    3.2      63.910
2013    5        5    22  18    4.31   649.1    3.2      63.884
2013    5        5    22  25    4.31   649.1    3.2      63.858
2013    5        5    22  31    4.30   649.2    3.2      63.832
2013    5        5    22  37    4.30   649.2    3.2      63.807
2013    5        5    22  44    4.30   649.3    3.2      63.781
2013    5        5    22  50    4.29   649.3    3.2      63.756
2013    5        5    22  57    4.29   649.3    3.2      63.730
2013    5        5    23   3    4.29   649.4    3.1      63.705
2013    5        5    23  10    4.28   649.4    3.1      63.680
2013    5        5    23  16    4.28   649.4    3.1      63.655
2013    5        5    23  22    4.28   649.5    3.1      63.631
2013    5        5    23  29    4.27   649.5    3.1      63.606
2013    5        5    23  35    4.27   649.5    3.1      63.581
2013    5        5    23  42    4.27   649.6    3.1      63.557
2013    5        5    23  48    4.26   649.6    3.1      63.532
2013    5        5    23  55    4.26   649.6    3.1      63.507
2013    5        6     0   1    4.26   649.7    3.1      63.482
2013    5        6     0   7    4.25   649.7    3.1      63.458
2013    5        6     0  14    4.25   649.7    3.1      63.432
2013    5        6     0  20    4.25   649.7    3.1      63.407
2013    5        6     0  27    4.25   649.8    3.1      63.382
2013    5        6     0  33    4.24   649.8    3.1      63.357
2013    5        6     0  40    4.24   649.8    3.1      63.331
2013    5        6     0  46    4.24   649.8    3.1      63.305
2013    5        6     0  53    4.23   649.9    3.1      63.279
2013    5        6     0  59    4.23   649.9    3.1      63.252
2013    5        6     1   5    4.23   649.9    3.1      63.226
2013    5        6     1  12    4.22   649.9    3.1      63.199
2013    5        6     1  18    4.22   649.9    3.1      63.172
2013    5        6     1  25    4.22   650.0    3.1      63.145
2013    5        6     1  31    4.22   650.0    3.1      63.117
2013    5        6     1  38    4.21   650.0    3.1      63.090
2013    5        6     1  44    4.21   650.0    3.1      63.062
2013    5        6     1  50    4.21   650.0    3.1      63.033
2013    5        6     1  57    4.20   650.0    3.1      63.005
2013    5        6     2   3    4.20   650.0    3.1      62.977
2013    5        6     2  10    4.20   650.1    3.1      62.948
2013    5        6     2  16    4.20   650.1    3.1      62.919
2013    5        6     2  23    4.19   650.1    3.1      62.890
2013    5        6     2  29    4.19   650.1    3.1      62.861
2013    5        6     2  36    4.19   650.1    3.1      62.832
2013    5        6     2  42    4.18   650.1    3.1      62.802
2013    5        6     2  48    4.18   650.1    3.1      62.773
2013    5        6     2  55    4.18   650.1    3.1      62.743
2013    5        6     3   1    4.18   650.1    3.1      62.714
2013    5        6     3   8    4.17   650.2    3.1      62.684
2013    5        6     3  14    4.17   650.2    3.1      62.655
2013    5        6     3  21    4.17   650.2    3.1      62.625
2013    5        6     3  27    4.17   650.2    3.1      62.596
2013    5        6     3  33    4.16   650.2    3.1      62.566
2013    5        6     3  40    4.16   650.2    3.1      62.537
2013    5        6     3  46    4.16   650.2    3.1      62.508
2013    5        6     3  53    4.15   650.2    3.1      62.479
2013    5        6     3  59    4.15   650.2    3.1      62.450
2013    5        6     4   6    4.15   650.2    3.0      62.421
2013    5        6     4  12    4.15   650.2    3.0      62.393
2013    5        6     4  18    4.14   650.2    3.0      62.365
2013    5        6     4  25    4.14   650.2    3.0      62.337
2013    5        6     4  31    4.14   650.2    3.0      62.310
2013    5        6     4  38    4.14   650.2    3.0      62.283
2013    5        6     4  44    4.13   650.2    3.0      62.256
2013    5        6     4  51    4.13   650.2    3.0      62.230
2013    5        6     4  57    4.13   650.2    3.0      62.204
2013    5        6     5   3    4.13   650.2    3.0      62.178
2013    5        6     5  10    4.12   650.2    3.0      62.153
2013    5        6     5  16    4.12   650.2    3.0      62.128
2013    5        6     5  23    4.12   650.2    3.0      62.103
2013    5        6     5  29    4.12   650.2    3.0      62.078
2013    5        6     5  36    4.11   650.2    3.0      62.053
2013    5        6     5  42    4.11   650.2    3.0      62.029
2013    5        6     5  49    4.11   650.2    3.0      62.004
2013    5        6     5  55    4.11   650.2    3.0      61.980
2013    5        6     6   1    4.10   650.1    3.0      61.956
2013    5        6     6   8    4.10   650.1    3.0      61.932
2013    5        6     6  14    4.10   650.1    3.0      61.908
2013    5        6     6  21    4.10   650.1    3.0      61.884
2013    5        6     6  27    4.09   650.1    3.0      61.859
2013    5        6     6  34    4.09   650.1    3.0      61.835
2013    5        6     6  40    4.09   650.1    3.0      61.811
2013    5        6     6  46    4.09   650.1    3.0      61.787
2013    5        6     6  53    4.08   650.1    3.0      61.763
2013    5        6     6  59    4.08   650.0    3.0      61.738
2013    5        6     7   6    4.08   650.0    3.0      61.714
2013    5        6     7  12    4.08   650.0    3.0      61.690
2013    5        6     7  19    4.07   650.0    3.0      61.665
2013    5        6     7  25    4.07   650.0    3.0      61.641
2013    5        6     7  31    4.07   650.0    3.0      61.617
2013    5        6     7  38    4.07   650.0    3.0      61.592
2013    5        6     7  44    4.06   649.9    3.0      61.568
2013    5        6     7  51    4.06   649.9    3.0      61.544
2013    5        6     7  57    4.06   649.9    3.0      61.520
2013    5        6     8   4    4.06   649.9    3.0      61.496
2013    5        6     8  10    4.06   649.9    3.0      61.472
2013    5        6     8  17    4.05   649.8    3.0      61.448
2013    5        6     8  23    4.05   649.8    3.0      61.424
2013    5        6     8  29    4.05   649.8    3.0      61.400
2013    5        6     8  36    4.05   649.8    3.0      61.376
2013    5        6     8  42    4.04   649.8    3.0      61.352
2013    5        6     8  49    4.04   649.7    3.0      61.328
2013    5        6     8  55    4.04   649.7    3.0      61.304
2013    5        6     9   2    4.04   649.7    3.0      61.280
2013    5        6     9   8    4.03   649.7    3.0      61.256
2013    5        6     9  14    4.03   649.7    3.0      61.232
2013    5        6     9  21    4.03   649.6    3.0      61.208
2013    5        6     9  27    4.03   649.6    3.0      61.184
2013    5        6     9  34    4.03   649.6    3.0      61.159
2013    5        6     9  40    4.02   649.6    3.0      61.134
2013    5        6     9  47    4.02   649.5    3.0      61.110
2013    5        6     9  53    4.02   649.5    3.0      61.085
2013    5        6    10   0    4.02   649.5    3.0      61.060
2013    5        6    10   6    4.02   649.5    3.0      61.035
2013    5        6    10  12    4.01   649.4    3.0      61.010
2013    5        6    10  19    4.01   649.4    3.0      60.984
2013    5        6    10  25    4.01   649.4    3.0      60.959
2013    5        6    10  32    4.01   649.3    3.0      60.933
2013    5        6    10  38    4.01   649.3    3.0      60.908
2013    5        6    10  45    4.00   649.3    3.0      60.882
2013    5        6    10  51    4.00   649.3    3.0      60.857
2013    5        6    10  57    4.00   649.2    3.0      60.831
2013    5        6    11   4    4.00   649.2    3.0      60.805
2013    5        6    11  10    3.99   649.2    3.0      60.779
2013    5        6    11  17    3.99   649.1    3.0      60.754
2013    5        6    11  23    3.99   649.1    3.0      60.728
2013    5        6    11  30    3.99   649.1    3.0      60.703
2013    5        6    11  36    3.99   649.0    3.0      60.678
2013    5        6    11  42    3.98   649.0    3.0      60.653
2013    5        6    11  49    3.98   649.0    3.0      60.628
2013    5        6    11  55    3.98   648.9    3.0      60.604
2013    5        6    12   2    3.98   648.9    3.0      60.580
2013    5        6    12   8    3.98   648.9    3.0      60.556
2013    5        6    12  15    3.97   648.8    2.9      60.532
2013    5        6    12  21    3.97   648.8    2.9      60.508
2013    5        6    12  27    3.97   648.8    2.9      60.485
2013    5        6    12  34    3.97   648.7    2.9      60.462
2013    5        6    12  40    3.97   648.7    2.9      60.438
2013    5        6    12  47    3.97   648.7    2.9      60.415
2013    5        6    12  53    3.96   648.6    2.9      60.392
2013    5        6    13   0    3.96   648.6    2.9      60.369
2013    5        6    13   6    3.96   648.6    2.9      60.346
2013    5        6    13  12    3.96   648.5    2.9      60.322
2013    5        6    13  19    3.96   648.5    2.9      60.299
2013    5        6    13  25    3.95   648.5    2.9      60.275
2013    5        6    13  32    3.95   648.4    2.9      60.251
2013    5        6    13  38    3.95   648.4    2.9      60.226
2013    5        6    13  45    3.95   648.3    2.9      60.201
2013    5        6    13  51    3.95   648.3    2.9      60.177
2013    5        6    13  58    3.94   648.3    2.9      60.151
2013    5        6    14   4    3.94   648.2    2.9      60.125
2013    5        6    14  10    3.94   648.2    2.9      60.099
2013    5        6    14  17    3.94   648.1    2.9      60.073
2013    5        6    14  23    3.94   648.1    2.9      60.047
2013    5        6    14  30    3.93   648.0    2.9      60.020
2013    5        6    14  36    3.93   648.0    2.9      59.994
2013    5        6    14  43    3.93   647.9    2.9      59.967
2013    5        6    14  49    3.93   647.9    2.9      59.940
2013    5        6    14  55    3.93   647.8    2.9      59.914
2013    5        6    15   2    3.92   647.8    2.9      59.887
2013    5        6    15   8    3.92   647.7    2.9      59.861
2013    5        6    15  15    3.92   647.7    2.9      59.835
2013    5        6    15  21    3.92   647.6    2.9      59.809
2013    5        6    15  28    3.92   647.6    2.9      59.784
2013    5        6    15  34    3.91   647.5    2.9      59.759
2013    5        6    15  40    3.91   647.5    2.9      59.734
2013    5        6    15  47    3.91   647.4    2.9      59.710
2013    5        6    15  53    3.91   647.3    2.9      59.687
2013    5        6    16   0    3.91   647.3    2.9      59.664
2013    5        6    16   6    3.90   647.2    2.9      59.641
2013    5        6    16  13    3.90   647.2    2.9      59.619
2013    5        6    16  19    3.90   647.1    2.9      59.598
2013    5        6    16  26    3.90   647.1    2.9      59.577
2013    5        6    16  32    3.90   647.0    2.9      59.556
2013    5        6    16  38    3.90   647.0    2.9      59.535
2013    5        6    16  45    3.89   646.9    2.9      59.515
2013    5        6    16  51    3.89   646.9    2.9      59.495
2013    5        6    16  58    3.89   646.8    2.9      59.474
2013    5        6    17   4    3.89   646.7    2.9      59.454
2013    5        6    17  11    3.89   646.7    2.9      59.434
2013    5        6    17  17    3.88   646.6    2.9      59.414
2013    5        6    17  23    3.88   646.6    2.9      59.394
2013    5        6    17  30    3.88   646.5    2.9      59.373
2013    5        6    17  36    3.88   646.5    2.9      59.352
2013    5        6    17  43    3.88   646.4    2.9      59.331
2013    5        6    17  49    3.88   646.4    2.9      59.310
2013    5        6    17  56    3.87   646.3    2.9      59.288
2013    5        6    18   2    3.87   646.2    2.9      59.266
2013    5        6    18   9    3.87   646.2    2.9      59.243
2013    5        6    18  15    3.87   646.1    2.9      59.221
2013    5        6    18  21    3.87   646.1    2.9      59.198
2013    5        6    18  28    3.87   646.0    2.9      59.175
2013    5        6    18  34    3.86   645.9    2.9      59.151
2013    5        6    18  41    3.86   645.9    2.9      59.128
2013    5        6    18  47    3.86   645.8    2.9      59.104
2013    5        6    18  54    3.86   645.8    2.9      59.080
2013    5        6    19   0    3.86   645.7    2.9      59.056
2013    5        6    19   6    3.86   645.6    2.9      59.032
2013    5        6    19  13    3.85   645.6    2.9      59.008
2013    5        6    19  19    3.85   645.5    2.9      58.984
2013    5        6    19  26    3.85   645.5    2.9      58.960
2013    5        6    19  32    3.85   645.4    2.9      58.936
2013    5        6    19  39    3.85   645.3    2.9      58.913
2013    5        6    19  45    3.85   645.3    2.9      58.889
2013    5        6    19  51    3.84   645.2    2.9      58.865
2013    5        6    19  58    3.84   645.1    2.9      58.841
2013    5        6    20   4    3.84   645.1    2.9      58.817
2013    5        6    20  11    3.84   645.0    2.9      58.794
2013    5        6    20  17    3.84   644.9    2.9      58.770
2013    5        6    20  24    3.84   644.9    2.9      58.746
2013    5        6    20  30    3.83   644.8    2.9      58.722
2013    5        6    20  36    3.83   644.8    2.9      58.698
2013    5        6    20  43    3.83   644.7    2.9      58.674
2013    5        6    20  49    3.83   644.6    2.9      58.649
2013    5        6    20  56    3.83   644.6    2.9      58.625
2013    5        6    21   2    3.82   644.5    2.9      58.600
2013    5        6    21   9    3.82   644.4    2.9      58.576
2013    5        6    21  15    3.82   644.4    2.9      58.550
2013    5        6    21  21    3.82   644.3    2.9      58.525
2013    5        6    21  28    3.82   644.2    2.9      58.500
2013    5        6    21  34    3.82   644.1    2.9      58.474
2013    5        6    21  41    3.81   644.1    2.9      58.449
2013    5        6    21  47    3.81   644.0    2.9      58.423
2013    5        6    21  54    3.81   643.9    2.9      58.397
2013    5        6    22   0    3.81   643.9    2.9      58.371
2013    5        6    22   7    3.81   643.8    2.9      58.345
2013    5        6    22  13    3.81   643.7    2.9      58.319
2013    5        6    22  19    3.80   643.6    2.9      58.293
2013    5        6    22  26    3.80   643.6    2.9      58.267
2013    5        6    22  32    3.80   643.5    2.9      58.241
2013    5        6    22  39    3.80   643.4    2.9      58.215
2013    5        6    22  45    3.80   643.3    2.9      58.189
2013    5        6    22  52    3.80   643.3    2.9      58.163
2013    5        6    22  58    3.79   643.2    2.9      58.137
2013    5        6    23   4    3.79   643.1    2.9      58.111
2013    5        6    23  11    3.79   643.0    2.9      58.085
2013    5        6    23  17    3.79   643.0    2.9      58.060
2013    5        6    23  24    3.79   642.9    2.9      58.034
2013    5        6    23  30    3.79   642.8    2.9      58.009
2013    5        6    23  37    3.78   642.7    2.9      57.983
2013    5        6    23  43    3.78   642.6    2.9      57.958
2013    5        6    23  50    3.78   642.6    2.9      57.932
2013    5        6    23  56    3.78   642.5    2.9      57.907
2013    5        7     0   2    3.78   642.4    2.9      57.882
2013    5        7     0   9    3.78   642.3    2.9      57.857
2013    5        7     0  15    3.78   642.2    2.9      57.832
2013    5        7     0  22    3.77   642.1    2.9      57.807
2013    5        7     0  28    3.77   642.1    2.9      57.782
2013    5        7     0  35    3.77   642.0    2.9      57.757
2013    5        7     0  41    3.77   641.9    2.9      57.731
2013    5        7     0  47    3.77   641.8    2.9      57.706
2013    5        7     0  54    3.77   641.7    2.9      57.681
2013    5        7     1   0    3.76   641.6    2.9      57.656
2013    5        7     1   7    3.76   641.5    2.9      57.631
2013    5        7     1  13    3.76   641.4    2.9      57.606
2013    5        7     1  20    3.76   641.3    2.9      57.581
2013    5        7     1  26    3.76   641.2    2.9      57.556
2013    5        7     1  32    3.76   641.1    2.9      57.531
2013    5        7     1  39    3.75   641.1    2.9      57.507
2013    5        7     1  45    3.75   641.0    2.9      57.482
2013    5        7     1  52    3.75   640.9    2.9      57.458
2013    5        7     1  58    3.75   640.8    2.9      57.434
2013    5        7     2   5    3.75   640.7    2.9      57.410
2013    5        7     2  11    3.75   640.6    2.9      57.387
2013    5        7     2  18    3.75   640.5    2.9      57.363
2013    5        7     2  24    3.74   640.4    2.9      57.340
2013    5        7     2  30    3.74   640.3    2.9      57.317
2013    5        7     2  37    3.74   640.2    2.9      57.295
2013    5        7     2  43    3.74   640.1    2.9      57.272
2013    5        7     2  50    3.74   640.0    2.9      57.250
2013    5        7     2  56    3.74   639.9    2.9      57.229
2013    5        7     3   3    3.74   639.8    2.9      57.207
2013    5        7     3   9    3.73   639.7    2.9      57.185
2013    5        7     3  15    3.73   639.6    2.9      57.164
2013    5        7     3  22    3.73   639.5    2.9      57.142
2013    5        7     3  28    3.73   639.4    2.9      57.120
2013    5        7     3  35    3.73   639.3    2.9      57.098
2013    5        7     3  41    3.73   639.3    2.9      57.076
2013    5        7     3  48    3.72   639.2    2.9      57.054
2013    5        7     3  54    3.72   639.1    2.9      57.032
2013    5        7     4   0    3.72   639.0    2.9      57.010
2013    5        7     4   7    3.72   638.9    2.9      56.988
2013    5        7     4  13    3.72   638.8    2.9      56.966
2013    5        7     4  20    3.72   638.7    2.9      56.944
2013    5        7     4  26    3.72   638.6    2.9      56.922
2013    5        7     4  33    3.71   638.5    2.9      56.899
2013    5        7     4  39    3.71   638.4    2.9      56.877
2013    5        7     4  45    3.71   638.3    2.9      56.854
2013    5        7     4  52    3.71   638.2    2.9      56.831
2013    5        7     4  58    3.71   638.1    2.9      56.807
2013    5        7     5   5    3.71   638.1    2.9      56.783
2013    5        7     5  11    3.70   638.0    2.9      56.759
2013    5        7     5  18    3.70   637.9    2.9      56.734
2013    5        7     5  24    3.70   637.8    2.9      56.709
2013    5        7     5  31    3.70   637.7    2.9      56.683
2013    5        7     5  37    3.70   637.6    2.9      56.657
2013    5        7     5  43    3.70   637.5    2.9      56.630
2013    5        7     5  50    3.69   637.4    2.9      56.603
2013    5        7     5  56    3.69   637.3    2.9      56.575
2013    5        7     6   3    3.69   637.2    2.9      56.547
2013    5        7     6   9    3.69   637.1    2.9      56.518
2013    5        7     6  16    3.69   637.0    2.9      56.489
2013    5        7     6  22    3.69   636.9    2.9      56.459
2013    5        7     6  28    3.69   636.8    2.9      56.429
2013    5        7     6  35    3.68   636.7    2.9      56.399
2013    5        7     6  41    3.68   636.6    2.9      56.368
2013    5        7     6  48    3.68   636.5    2.9      56.336
2013    5        7     6  54    3.68   636.4    2.9      56.305
2013    5        7     7   1    3.68   636.3    2.9      56.274
2013    5        7     7   7    3.68   636.2    2.9      56.242
2013    5        7     7  13    3.67   636.1    2.9      56.210
2013    5        7     7  20    3.67   636.0    2.9      56.179
2013    5        7     7  26    3.67   635.9    2.9      56.148
2013    5        7     7  33    3.67   635.8    2.9      56.117
2013    5        7     7  39    3.67   635.7    2.9      56.086
2013    5        7     7  46    3.67   635.6    2.9      56.056
2013    5        7     7  52    3.66   635.4    2.9      56.026
2013    5        7     7  59    3.66   635.3    2.9      55.997
2013    5        7     8   5    3.66   635.2    2.9      55.968
2013    5        7     8  11    3.66   635.1    2.8      55.939
2013    5        7     8  18    3.66   635.0    2.8      55.911
2013    5        7     8  24    3.66   634.9    2.8      55.884
2013    5        7     8  31    3.66   634.7    2.8      55.857
2013    5        7     8  37    3.65   634.6    2.8      55.830
2013    5        7     8  44    3.65   634.5    2.8      55.803
2013    5        7     8  50    3.65   634.4    2.8      55.775
2013    5        7     8  56    3.65   634.3    2.8      55.748
2013    5        7     9   3    3.65   634.1    2.8      55.721
2013    5        7     9   9    3.65   634.0    2.8      55.694
2013    5        7     9  16    3.65   633.9    2.8      55.666
2013    5        7     9  22    3.64   633.8    2.8      55.639
2013    5        7     9  29    3.64   633.6    2.8      55.612
2013    5        7     9  35    3.64   633.5    2.8      55.584
2013    5        7     9  41    3.64   633.4    2.8      55.557
2013    5        7     9  48    3.64   633.3    2.8      55.530
2013    5        7     9  54    3.64   633.2    2.8      55.503
2013    5        7    10   1    3.64   633.0    2.8      55.476
2013    5        7    10   7    3.63   632.9    2.8      55.449
2013    5        7    10  14    3.63   632.8    2.8      55.423
2013    5        7    10  20    3.63   632.7    2.8      55.396
2013    5        7    10  26    3.63   632.6    2.8      55.370
2013    5        7    10  33    3.63   632.4    2.8      55.343
2013    5        7    10  39    3.63   632.3    2.8      55.317
2013    5        7    10  46    3.62   632.2    2.8      55.290
2013    5        7    10  52    3.62   632.1    2.8      55.263
2013    5        7    10  59    3.62   631.9    2.8      55.237
2013    5        7    11   5    3.62   631.8    2.8      55.210
2013    5        7    11  12    3.62   631.7    2.8      55.184
2013    5        7    11  18    3.62   631.6    2.8      55.157
2013    5        7    11  24    3.62   631.4    2.8      55.131
2013    5        7    11  31    3.61   631.3    2.8      55.105
2013    5        7    11  37    3.61   631.2    2.8      55.079
2013    5        7    11  44    3.61   631.1    2.8      55.054
2013    5        7    11  50    3.61   630.9    2.8      55.029
2013    5        7    11  57    3.61   630.8    2.8      55.005
2013    5        7    12   3    3.61   630.7    2.8      54.980
2013    5        7    12   9    3.60   630.5    2.8      54.956
2013    5        7    12  16    3.60   630.4    2.8      54.932
2013    5        7    12  22    3.60   630.3    2.8      54.907
2013    5        7    12  29    3.60   630.1    2.8      54.882
2013    5        7    12  35    3.60   630.0    2.8      54.857
2013    5        7    12  42    3.60   629.9    2.8      54.832
2013    5        7    12  48    3.60   629.8    2.8      54.807
2013    5        7    12  54    3.59   629.6    2.8      54.782
2013    5        7    13   1    3.59   629.5    2.8      54.757
2013    5        7    13   7    3.59   629.4    2.8      54.732
2013    5        7    13  14    3.59   629.2    2.8      54.707
2013    5        7    13  20    3.59   629.1    2.8      54.681
2013    5        7    13  27    3.59   629.0    2.8      54.654
2013    5        7    13  33    3.58   628.9    2.8      54.627
2013    5        7    13  40    3.58   628.7    2.8      54.598
2013    5        7    13  46    3.58   628.6    2.8      54.569
2013    5        7    13  52    3.58   628.5    2.8      54.540
2013    5        7    13  59    3.58   628.4    2.8      54.510
2013    5        7    14   5    3.58   628.2    2.8      54.479
2013    5        7    14  12    3.58   628.1    2.8      54.449
2013    5        7    14  18    3.57   628.0    2.8      54.418
2013    5        7    14  25    3.57   627.8    2.8      54.386
2013    5        7    14  31    3.57   627.7    2.8      54.355
2013    5        7    14  37    3.57   627.6    2.8      54.324
2013    5        7    14  44    3.57   627.5    2.8      54.292
2013    5        7    14  50    3.57   627.3    2.8      54.261
2013    5        7    14  57    3.56   627.2    2.8      54.230
2013    5        7    15   3    3.56   627.1    2.8      54.199
2013    5        7    15  10    3.56   626.9    2.8      54.168
2013    5        7    15  16    3.56   626.8    2.8      54.137
2013    5        7    15  23    3.56   626.7    2.8      54.107
2013    5        7    15  29    3.56   626.5    2.8      54.077
2013    5        7    15  35    3.55   626.4    2.8      54.047
2013    5        7    15  42    3.55   626.3    2.8      54.017
2013    5        7    15  48    3.55   626.1    2.8      53.986
2013    5        7    15  55    3.55   626.0    2.8      53.956
2013    5        7    16   1    3.55   625.9    2.8      53.924
2013    5        7    16   8    3.55   625.7    2.8      53.892
2013    5        7    16  14    3.55   625.6    2.8      53.860
2013    5        7    16  20    3.54   625.5    2.8      53.827
2013    5        7    16  27    3.54   625.3    2.8      53.794
2013    5        7    16  33    3.54   625.2    2.8      53.760
2013    5        7    16  40    3.54   625.0    2.8      53.726
2013    5        7    16  46    3.54   624.9    2.8      53.693
2013    5        7    16  53    3.54   624.8    2.8      53.659
2013    5        7    16  59    3.53   624.6    2.8      53.625
2013    5        7    17   5    3.53   624.5    2.8      53.591
2013    5        7    17  12    3.53   624.3    2.8      53.558
2013    5        7    17  18    3.53   624.2    2.8      53.525
2013    5        7    17  25    3.53   624.0    2.8      53.492
2013    5        7    17  31    3.53   623.9    2.8      53.460
2013    5        7    17  38    3.52   623.7    2.8      53.427
2013    5        7    17  44    3.52   623.6    2.8      53.394
2013    5        7    17  50    3.52   623.4    2.8      53.360
2013    5        7    17  57    3.52   623.3    2.8      53.325
2013    5        7    18   3    3.52   623.1    2.8      53.290
2013    5        7    18  10    3.52   623.0    2.8      53.255
2013    5        7    18  16    3.52   622.8    2.8      53.220
2013    5        7    18  23    3.51   622.7    2.8      53.184
2013    5        7    18  29    3.51   622.5    2.8      53.149
2013    5        7    18  35    3.51   622.4    2.8      53.113
2013    5        7    18  42    3.51   622.2    2.8      53.078
2013    5        7    18  48    3.51   622.1    2.8      53.042
2013    5        7    18  55    3.51   621.9    2.8      53.008
2013    5        7    19   1    3.50   621.7    2.8      52.974
2013    5        7    19   8    3.50   621.6    2.8      52.940
2013    5        7    19  14    3.50   621.4    2.8      52.907
2013    5        7    19  21    3.50   621.3    2.8      52.875
2013    5        7    19  27    3.50   621.1    2.8      52.843
2013    5        7    19  33    3.50   620.9    2.8      52.811
2013    5        7    19  40    3.49   620.8    2.8      52.779
2013    5        7    19  46    3.49   620.6    2.8      52.747
2013    5        7    19  53    3.49   620.4    2.8      52.717
2013    5        7    19  59    3.49   620.3    2.8      52.686
2013    5        7    20   6    3.49   620.1    2.8      52.656
2013    5        7    20  12    3.49   619.9    2.8      52.626
2013    5        7    20  18    3.49   619.7    2.8      52.598
2013    5        7    20  25    3.48   619.6    2.8      52.569
2013    5        7    20  31    3.48   619.4    2.8      52.542
2013    5        7    20  38    3.48   619.2    2.8      52.515
2013    5        7    20  44    3.48   619.1    2.8      52.488
2013    5        7    20  51    3.48   618.9    2.8      52.461
2013    5        7    20  57    3.48   618.7    2.8      52.434
2013    5        7    21   4    3.47   618.6    2.8      52.407
2013    5        7    21  10    3.47   618.4    2.8      52.379
2013    5        7    21  16    3.47   618.2    2.8      52.352
2013    5        7    21  23    3.47   618.1    2.8      52.323
2013    5        7    21  29    3.47   617.9    2.8      52.295
2013    5        7    21  36    3.47   617.7    2.8      52.266
2013    5        7    21  42    3.47   617.6    2.8      52.237
2013    5        7    21  49    3.46   617.4    2.8      52.208
2013    5        7    21  55    3.46   617.3    2.8      52.178
2013    5        7    22   1    3.46   617.1    2.8      52.148
2013    5        7    22   8    3.46   616.9    2.9      52.117
2013    5        7    22  14    3.46   616.8    2.9      52.086
2013    5        7    22  21    3.46   616.6    2.9      52.054
2013    5        7    22  27    3.45   616.4    2.9      52.022
2013    5        7    22  34    3.45   616.3    2.9      51.989
2013    5        7    22  40    3.45   616.1    2.9      51.956
2013    5        7    22  46    3.45   615.9    2.9      51.922
2013    5        7    22  53    3.45   615.8    2.9      51.888
2013    5        7    22  59    3.45   615.6    2.9      51.853
2013    5        7    23   6    3.45   615.4    2.9      51.817
2013    5        7    23  12    3.44   615.3    2.9      51.782
2013    5        7    23  19    3.44   615.1    2.9      51.746
2013    5        7    23  25    3.44   614.9    2.9      51.710
2013    5        7    23  32    3.44   614.8    2.9      51.673
2013    5        7    23  38    3.44   614.6    2.9      51.636
2013    5        7    23  44    3.44   614.4    2.9      51.600
2013    5        7    23  51    3.43   614.3    2.9      51.563
2013    5        7    23  57    3.43   614.1    2.9      51.526
2013    5        8     0   4    3.43   613.9    2.9      51.489
