year    month   day   hour  minute  B_enl V_enl   n_enl       T_enl
[year] [month] [day] [hour][minute] [nT]  [km/s]  [cm-3]      [kK]
2014    8        5     0   0    4.66   591.6    3.2      55.770
2014    8        5     0   6    4.65   591.4    3.2      55.735
2014    8        5     0  11    4.65   591.3    3.2      55.701
2014    8        5     0  17    4.65   591.1    3.2      55.666
2014    8        5     0  22    4.65   591.0    3.2      55.633
2014    8        5     0  28    4.65   590.8    3.2      55.600
2014    8        5     0  33    4.65   590.7    3.2      55.568
2014    8        5     0  39    4.64   590.5    3.2      55.537
2014    8        5     0  45    4.64   590.4    3.2      55.507
2014    8        5     0  50    4.64   590.2    3.2      55.477
2014    8        5     0  56    4.64   590.1    3.2      55.449
2014    8        5     1   1    4.64   589.9    3.2      55.422
2014    8        5     1   7    4.64   589.8    3.2      55.395
2014    8        5     1  12    4.63   589.6    3.2      55.370
2014    8        5     1  18    4.63   589.5    3.2      55.345
2014    8        5     1  24    4.63   589.3    3.2      55.322
2014    8        5     1  29    4.63   589.1    3.2      55.299
2014    8        5     1  35    4.63   589.0    3.2      55.278
2014    8        5     1  40    4.63   588.8    3.2      55.257
2014    8        5     1  46    4.63   588.7    3.2      55.237
2014    8        5     1  51    4.62   588.5    3.2      55.219
2014    8        5     1  57    4.62   588.4    3.2      55.201
2014    8        5     2   2    4.62   588.2    3.2      55.184
2014    8        5     2   8    4.62   588.1    3.2      55.169
2014    8        5     2  14    4.62   587.9    3.2      55.154
2014    8        5     2  19    4.62   587.8    3.2      55.142
2014    8        5     2  25    4.62   587.7    3.2      55.132
2014    8        5     2  30    4.62   587.5    3.2      55.123
2014    8        5     2  36    4.61   587.4    3.2      55.116
2014    8        5     2  41    4.61   587.3    3.2      55.111
2014    8        5     2  47    4.61   587.1    3.2      55.105
2014    8        5     2  53    4.61   587.0    3.2      55.100
2014    8        5     2  58    4.61   586.9    3.2      55.095
2014    8        5     3   4    4.61   586.7    3.2      55.090
2014    8        5     3   9    4.61   586.6    3.2      55.085
2014    8        5     3  15    4.60   586.5    3.2      55.079
2014    8        5     3  20    4.60   586.4    3.2      55.074
2014    8        5     3  26    4.60   586.2    3.2      55.068
2014    8        5     3  32    4.60   586.1    3.2      55.062
2014    8        5     3  37    4.60   586.0    3.2      55.055
2014    8        5     3  43    4.60   585.9    3.2      55.048
2014    8        5     3  48    4.59   585.8    3.2      55.041
2014    8        5     3  54    4.59   585.6    3.2      55.033
2014    8        5     3  59    4.59   585.5    3.2      55.024
2014    8        5     4   5    4.59   585.4    3.2      55.015
2014    8        5     4  11    4.59   585.3    3.2      55.005
2014    8        5     4  16    4.59   585.1    3.2      54.994
2014    8        5     4  22    4.58   585.0    3.2      54.983
2014    8        5     4  27    4.58   584.9    3.2      54.971
2014    8        5     4  33    4.58   584.7    3.2      54.959
2014    8        5     4  38    4.58   584.6    3.2      54.945
2014    8        5     4  44    4.58   584.5    3.2      54.931
2014    8        5     4  49    4.57   584.3    3.2      54.917
2014    8        5     4  55    4.57   584.2    3.2      54.901
2014    8        5     5   1    4.57   584.1    3.2      54.885
2014    8        5     5   6    4.57   583.9    3.2      54.869
2014    8        5     5  12    4.57   583.8    3.2      54.852
2014    8        5     5  17    4.57   583.6    3.2      54.834
2014    8        5     5  23    4.56   583.5    3.2      54.816
2014    8        5     5  28    4.56   583.4    3.2      54.797
2014    8        5     5  34    4.56   583.2    3.2      54.778
2014    8        5     5  40    4.56   583.1    3.2      54.759
2014    8        5     5  45    4.56   582.9    3.2      54.739
2014    8        5     5  51    4.56   582.8    3.2      54.720
2014    8        5     5  56    4.55   582.6    3.2      54.701
2014    8        5     6   2    4.55   582.5    3.2      54.682
2014    8        5     6   7    4.55   582.4    3.2      54.663
2014    8        5     6  13    4.55   582.2    3.2      54.645
2014    8        5     6  19    4.55   582.1    3.2      54.625
2014    8        5     6  24    4.55   581.9    3.2      54.604
2014    8        5     6  30    4.54   581.8    3.2      54.583
2014    8        5     6  35    4.54   581.7    3.2      54.561
2014    8        5     6  41    4.54   581.5    3.2      54.538
2014    8        5     6  46    4.54   581.4    3.2      54.514
2014    8        5     6  52    4.54   581.2    3.2      54.490
2014    8        5     6  58    4.54   581.1    3.2      54.464
2014    8        5     7   3    4.54   581.0    3.2      54.438
2014    8        5     7   9    4.53   580.8    3.2      54.411
2014    8        5     7  14    4.53   580.7    3.2      54.384
2014    8        5     7  20    4.53   580.5    3.2      54.356
2014    8        5     7  25    4.53   580.4    3.2      54.327
2014    8        5     7  31    4.53   580.2    3.2      54.298
2014    8        5     7  36    4.53   580.1    3.2      54.268
2014    8        5     7  42    4.52   580.0    3.2      54.238
2014    8        5     7  48    4.52   579.8    3.2      54.208
2014    8        5     7  53    4.52   579.7    3.2      54.177
2014    8        5     7  59    4.52   579.5    3.2      54.146
2014    8        5     8   4    4.52   579.4    3.2      54.115
2014    8        5     8  10    4.52   579.2    3.2      54.084
2014    8        5     8  15    4.52   579.1    3.2      54.052
2014    8        5     8  21    4.51   578.9    3.2      54.021
2014    8        5     8  27    4.51   578.8    3.2      53.989
2014    8        5     8  32    4.51   578.6    3.2      53.957
2014    8        5     8  38    4.51   578.5    3.2      53.925
2014    8        5     8  43    4.51   578.3    3.2      53.894
2014    8        5     8  49    4.51   578.2    3.2      53.862
2014    8        5     8  54    4.51   578.0    3.2      53.830
2014    8        5     9   0    4.50   577.9    3.2      53.799
2014    8        5     9   6    4.50   577.7    3.2      53.767
2014    8        5     9  11    4.50   577.6    3.2      53.736
2014    8        5     9  17    4.50   577.4    3.2      53.704
2014    8        5     9  22    4.50   577.3    3.2      53.673
2014    8        5     9  28    4.50   577.1    3.2      53.643
2014    8        5     9  33    4.50   576.9    3.2      53.612
2014    8        5     9  39    4.49   576.8    3.2      53.582
2014    8        5     9  45    4.49   576.6    3.2      53.552
2014    8        5     9  50    4.49   576.5    3.2      53.522
2014    8        5     9  56    4.49   576.3    3.2      53.493
2014    8        5    10   1    4.49   576.2    3.2      53.464
2014    8        5    10   7    4.49   576.0    3.2      53.436
2014    8        5    10  12    4.49   575.8    3.2      53.409
2014    8        5    10  18    4.48   575.7    3.2      53.382
2014    8        5    10  23    4.48   575.5    3.2      53.355
2014    8        5    10  29    4.48   575.4    3.2      53.329
2014    8        5    10  35    4.48   575.2    3.2      53.303
2014    8        5    10  40    4.48   575.0    3.2      53.278
2014    8        5    10  46    4.48   574.9    3.2      53.254
2014    8        5    10  51    4.48   574.7    3.2      53.229
2014    8        5    10  57    4.47   574.6    3.2      53.206
2014    8        5    11   2    4.47   574.4    3.2      53.182
2014    8        5    11   8    4.47   574.2    3.2      53.159
2014    8        5    11  14    4.47   574.1    3.2      53.136
2014    8        5    11  19    4.47   573.9    3.2      53.114
2014    8        5    11  25    4.47   573.7    3.2      53.091
2014    8        5    11  30    4.46   573.6    3.2      53.070
2014    8        5    11  36    4.46   573.4    3.2      53.048
2014    8        5    11  41    4.46   573.2    3.2      53.027
2014    8        5    11  47    4.46   573.0    3.2      53.006
2014    8        5    11  53    4.46   572.9    3.2      52.986
2014    8        5    11  58    4.46   572.7    3.2      52.965
2014    8        5    12   4    4.45   572.5    3.2      52.946
2014    8        5    12   9    4.45   572.3    3.2      52.927
2014    8        5    12  15    4.45   572.2    3.2      52.908
2014    8        5    12  20    4.45   572.0    3.2      52.890
2014    8        5    12  26    4.45   571.8    3.2      52.873
2014    8        5    12  32    4.45   571.6    3.2      52.856
2014    8        5    12  37    4.45   571.5    3.2      52.841
2014    8        5    12  43    4.45   571.3    3.2      52.826
2014    8        5    12  48    4.44   571.1    3.2      52.812
2014    8        5    12  54    4.44   570.9    3.2      52.799
2014    8        5    12  59    4.44   570.8    3.2      52.788
2014    8        5    13   5    4.44   570.6    3.2      52.779
2014    8        5    13  10    4.44   570.4    3.2      52.770
2014    8        5    13  16    4.44   570.3    3.2      52.763
2014    8        5    13  22    4.44   570.1    3.2      52.757
2014    8        5    13  27    4.44   570.0    3.2      52.752
2014    8        5    13  33    4.44   569.8    3.2      52.746
2014    8        5    13  38    4.43   569.7    3.2      52.741
2014    8        5    13  44    4.43   569.5    3.2      52.736
2014    8        5    13  49    4.43   569.4    3.2      52.730
2014    8        5    13  55    4.43   569.2    3.3      52.724
2014    8        5    14   1    4.43   569.1    3.3      52.717
2014    8        5    14   6    4.43   568.9    3.3      52.710
2014    8        5    14  12    4.43   568.8    3.3      52.702
2014    8        5    14  17    4.43   568.6    3.3      52.694
2014    8        5    14  23    4.43   568.5    3.3      52.685
2014    8        5    14  28    4.42   568.3    3.3      52.675
2014    8        5    14  34    4.42   568.2    3.3      52.664
2014    8        5    14  40    4.42   568.0    3.3      52.652
2014    8        5    14  45    4.42   567.9    3.3      52.639
2014    8        5    14  51    4.42   567.7    3.3      52.625
2014    8        5    14  56    4.42   567.6    3.3      52.610
2014    8        5    15   2    4.42   567.4    3.3      52.594
2014    8        5    15   7    4.42   567.2    3.3      52.578
2014    8        5    15  13    4.41   567.1    3.3      52.560
2014    8        5    15  19    4.41   566.9    3.3      52.542
2014    8        5    15  24    4.41   566.8    3.3      52.523
2014    8        5    15  30    4.41   566.6    3.3      52.504
2014    8        5    15  35    4.41   566.4    3.3      52.484
2014    8        5    15  41    4.41   566.3    3.3      52.463
2014    8        5    15  46    4.41   566.1    3.3      52.442
2014    8        5    15  52    4.41   566.0    3.3      52.420
2014    8        5    15  57    4.40   565.8    3.3      52.398
2014    8        5    16   3    4.40   565.6    3.3      52.375
2014    8        5    16   9    4.40   565.5    3.3      52.352
2014    8        5    16  14    4.40   565.3    3.3      52.328
2014    8        5    16  20    4.40   565.1    3.3      52.304
2014    8        5    16  25    4.40   565.0    3.3      52.280
2014    8        5    16  31    4.40   564.8    3.3      52.256
2014    8        5    16  36    4.40   564.7    3.3      52.232
2014    8        5    16  42    4.39   564.5    3.3      52.207
2014    8        5    16  48    4.39   564.3    3.3      52.182
2014    8        5    16  53    4.39   564.2    3.3      52.158
2014    8        5    16  59    4.39   564.0    3.3      52.133
2014    8        5    17   4    4.39   563.8    3.3      52.108
2014    8        5    17  10    4.39   563.7    3.3      52.082
2014    8        5    17  15    4.39   563.5    3.3      52.057
2014    8        5    17  21    4.39   563.3    3.3      52.031
2014    8        5    17  27    4.39   563.2    3.3      52.005
2014    8        5    17  32    4.38   563.0    3.3      51.980
2014    8        5    17  38    4.38   562.9    3.3      51.953
2014    8        5    17  43    4.38   562.7    3.3      51.927
2014    8        5    17  49    4.38   562.5    3.3      51.900
2014    8        5    17  54    4.38   562.4    3.3      51.873
2014    8        5    18   0    4.38   562.2    3.3      51.845
2014    8        5    18   6    4.38   562.0    3.3      51.818
2014    8        5    18  11    4.38   561.9    3.3      51.790
2014    8        5    18  17    4.37   561.7    3.3      51.762
2014    8        5    18  22    4.37   561.5    3.3      51.733
2014    8        5    18  28    4.37   561.3    3.3      51.705
2014    8        5    18  33    4.37   561.2    3.3      51.676
2014    8        5    18  39    4.37   561.0    3.3      51.648
2014    8        5    18  44    4.37   560.8    3.3      51.619
2014    8        5    18  50    4.37   560.6    3.3      51.591
2014    8        5    18  56    4.37   560.5    3.3      51.562
2014    8        5    19   1    4.37   560.3    3.3      51.534
2014    8        5    19   7    4.36   560.1    3.3      51.506
2014    8        5    19  12    4.36   559.9    3.3      51.479
2014    8        5    19  18    4.36   559.7    3.3      51.451
2014    8        5    19  23    4.36   559.6    3.3      51.424
2014    8        5    19  29    4.36   559.4    3.3      51.398
2014    8        5    19  35    4.36   559.2    3.3      51.372
2014    8        5    19  40    4.36   559.0    3.3      51.346
2014    8        5    19  46    4.36   558.8    3.3      51.322
2014    8        5    19  51    4.36   558.7    3.3      51.297
2014    8        5    19  57    4.35   558.5    3.3      51.274
2014    8        5    20   2    4.35   558.3    3.3      51.251
2014    8        5    20   8    4.35   558.1    3.3      51.229
2014    8        5    20  14    4.35   558.0    3.3      51.207
2014    8        5    20  19    4.35   557.8    3.3      51.186
2014    8        5    20  25    4.35   557.6    3.3      51.166
2014    8        5    20  30    4.35   557.4    3.3      51.146
2014    8        5    20  36    4.35   557.3    3.3      51.126
2014    8        5    20  41    4.35   557.1    3.3      51.107
2014    8        5    20  47    4.35   556.9    3.3      51.088
2014    8        5    20  53    4.35   556.8    3.3      51.070
2014    8        5    20  58    4.35   556.6    3.3      51.052
2014    8        5    21   4    4.34   556.4    3.3      51.033
2014    8        5    21   9    4.34   556.3    3.3      51.015
2014    8        5    21  15    4.34   556.1    3.3      50.997
2014    8        5    21  20    4.34   555.9    3.3      50.978
2014    8        5    21  26    4.34   555.8    3.3      50.960
2014    8        5    21  31    4.34   555.6    3.3      50.941
2014    8        5    21  37    4.34   555.4    3.3      50.922
2014    8        5    21  43    4.34   555.2    3.3      50.902
2014    8        5    21  48    4.34   555.1    3.3      50.882
2014    8        5    21  54    4.34   554.9    3.3      50.862
2014    8        5    21  59    4.33   554.7    3.3      50.841
2014    8        5    22   5    4.33   554.5    3.3      50.820
2014    8        5    22  10    4.33   554.3    3.3      50.799
2014    8        5    22  16    4.33   554.2    3.3      50.777
2014    8        5    22  22    4.33   554.0    3.3      50.756
2014    8        5    22  27    4.33   553.8    3.3      50.734
2014    8        5    22  33    4.33   553.6    3.3      50.712
2014    8        5    22  38    4.33   553.4    3.3      50.691
2014    8        5    22  44    4.33   553.2    3.3      50.669
2014    8        5    22  49    4.33   553.0    3.3      50.648
2014    8        5    22  55    4.32   552.8    3.3      50.627
2014    8        5    23   1    4.32   552.7    3.3      50.606
2014    8        5    23   6    4.32   552.5    3.3      50.587
2014    8        5    23  12    4.32   552.3    3.3      50.567
2014    8        5    23  17    4.32   552.1    3.3      50.548
2014    8        5    23  23    4.32   551.9    3.3      50.529
2014    8        5    23  28    4.32   551.7    3.3      50.512
2014    8        5    23  34    4.32   551.5    3.3      50.494
2014    8        5    23  39    4.32   551.4    3.4      50.478
2014    8        5    23  45    4.32   551.2    3.4      50.462
2014    8        5    23  51    4.32   551.0    3.4      50.448
2014    8        5    23  56    4.32   550.8    3.4      50.434
2014    8        6     0   2    4.32   550.7    3.4      50.421
2014    8        6     0   7    4.32   550.5    3.4      50.408
2014    8        6     0  13    4.31   550.3    3.4      50.396
2014    8        6     0  18    4.31   550.2    3.4      50.384
2014    8        6     0  24    4.31   550.0    3.4      50.372
2014    8        6     0  30    4.31   549.8    3.4      50.361
2014    8        6     0  35    4.31   549.6    3.4      50.349
2014    8        6     0  41    4.31   549.5    3.4      50.337
2014    8        6     0  46    4.31   549.3    3.4      50.325
2014    8        6     0  52    4.31   549.2    3.4      50.313
2014    8        6     0  57    4.31   549.0    3.4      50.300
2014    8        6     1   3    4.31   548.8    3.4      50.287
2014    8        6     1   9    4.31   548.7    3.4      50.274
2014    8        6     1  14    4.31   548.5    3.4      50.261
2014    8        6     1  20    4.31   548.3    3.4      50.247
2014    8        6     1  25    4.31   548.2    3.4      50.232
2014    8        6     1  31    4.31   548.0    3.4      50.217
2014    8        6     1  36    4.30   547.8    3.4      50.202
2014    8        6     1  42    4.30   547.7    3.4      50.186
2014    8        6     1  48    4.30   547.5    3.4      50.169
2014    8        6     1  53    4.30   547.3    3.4      50.152
2014    8        6     1  59    4.30   547.1    3.4      50.135
2014    8        6     2   4    4.30   547.0    3.4      50.117
2014    8        6     2  10    4.30   546.8    3.4      50.099
2014    8        6     2  15    4.30   546.6    3.4      50.080
2014    8        6     2  21    4.30   546.5    3.4      50.061
2014    8        6     2  27    4.30   546.3    3.4      50.042
2014    8        6     2  32    4.30   546.1    3.4      50.022
2014    8        6     2  38    4.30   546.0    3.4      50.002
2014    8        6     2  43    4.30   545.8    3.4      49.982
2014    8        6     2  49    4.29   545.6    3.4      49.961
2014    8        6     2  54    4.29   545.4    3.4      49.940
2014    8        6     3   0    4.29   545.3    3.4      49.919
2014    8        6     3   5    4.29   545.1    3.4      49.897
2014    8        6     3  11    4.29   544.9    3.4      49.875
2014    8        6     3  17    4.29   544.7    3.4      49.853
2014    8        6     3  22    4.29   544.6    3.4      49.831
2014    8        6     3  28    4.29   544.4    3.4      49.808
2014    8        6     3  33    4.29   544.2    3.4      49.785
2014    8        6     3  39    4.29   544.0    3.4      49.762
2014    8        6     3  44    4.29   543.9    3.4      49.739
2014    8        6     3  50    4.29   543.7    3.4      49.716
2014    8        6     3  56    4.29   543.5    3.4      49.692
2014    8        6     4   1    4.28   543.3    3.4      49.668
2014    8        6     4   7    4.28   543.2    3.4      49.644
2014    8        6     4  12    4.28   543.0    3.4      49.620
2014    8        6     4  18    4.28   542.8    3.4      49.595
2014    8        6     4  23    4.28   542.6    3.4      49.571
2014    8        6     4  29    4.28   542.4    3.4      49.546
2014    8        6     4  35    4.28   542.3    3.4      49.520
2014    8        6     4  40    4.28   542.1    3.4      49.495
2014    8        6     4  46    4.28   541.9    3.4      49.470
2014    8        6     4  51    4.28   541.7    3.4      49.444
2014    8        6     4  57    4.28   541.5    3.4      49.418
2014    8        6     5   2    4.28   541.4    3.4      49.392
2014    8        6     5   8    4.28   541.2    3.4      49.366
2014    8        6     5  13    4.27   541.0    3.4      49.341
2014    8        6     5  19    4.27   540.8    3.4      49.315
2014    8        6     5  25    4.27   540.6    3.4      49.289
2014    8        6     5  30    4.27   540.4    3.4      49.263
2014    8        6     5  36    4.27   540.2    3.4      49.238
2014    8        6     5  41    4.27   540.0    3.4      49.213
2014    8        6     5  47    4.27   539.9    3.4      49.188
2014    8        6     5  52    4.27   539.7    3.4      49.163
2014    8        6     5  58    4.27   539.5    3.4      49.139
2014    8        6     6   4    4.27   539.3    3.4      49.115
2014    8        6     6   9    4.27   539.1    3.4      49.092
2014    8        6     6  15    4.27   538.9    3.4      49.069
2014    8        6     6  20    4.27   538.8    3.4      49.047
2014    8        6     6  26    4.27   538.6    3.4      49.025
2014    8        6     6  31    4.27   538.4    3.4      49.004
2014    8        6     6  37    4.27   538.2    3.4      48.983
2014    8        6     6  43    4.27   538.0    3.5      48.963
2014    8        6     6  48    4.27   537.9    3.5      48.943
2014    8        6     6  54    4.27   537.7    3.5      48.924
2014    8        6     6  59    4.26   537.5    3.5      48.905
2014    8        6     7   5    4.26   537.3    3.5      48.886
2014    8        6     7  10    4.26   537.2    3.5      48.868
2014    8        6     7  16    4.26   537.0    3.5      48.849
2014    8        6     7  22    4.26   536.8    3.5      48.832
2014    8        6     7  27    4.26   536.6    3.5      48.814
2014    8        6     7  33    4.26   536.5    3.5      48.796
2014    8        6     7  38    4.26   536.3    3.5      48.778
2014    8        6     7  44    4.26   536.1    3.5      48.761
2014    8        6     7  49    4.26   536.0    3.5      48.743
2014    8        6     7  55    4.26   535.8    3.5      48.725
2014    8        6     8   0    4.26   535.6    3.5      48.707
2014    8        6     8   6    4.26   535.4    3.5      48.689
2014    8        6     8  12    4.26   535.3    3.5      48.671
2014    8        6     8  17    4.26   535.1    3.5      48.652
2014    8        6     8  23    4.26   534.9    3.5      48.634
2014    8        6     8  28    4.26   534.8    3.5      48.615
2014    8        6     8  34    4.26   534.6    3.5      48.596
2014    8        6     8  39    4.26   534.4    3.5      48.576
2014    8        6     8  45    4.26   534.2    3.5      48.557
2014    8        6     8  51    4.26   534.1    3.5      48.537
2014    8        6     8  56    4.25   533.9    3.5      48.517
2014    8        6     9   2    4.25   533.7    3.5      48.497
2014    8        6     9   7    4.25   533.5    3.5      48.476
2014    8        6     9  13    4.25   533.4    3.5      48.456
2014    8        6     9  18    4.25   533.2    3.5      48.435
2014    8        6     9  24    4.25   533.0    3.5      48.414
2014    8        6     9  30    4.25   532.8    3.5      48.393
2014    8        6     9  35    4.25   532.7    3.5      48.373
2014    8        6     9  41    4.25   532.5    3.5      48.352
2014    8        6     9  46    4.25   532.3    3.5      48.331
2014    8        6     9  52    4.25   532.1    3.5      48.310
2014    8        6     9  57    4.25   531.9    3.5      48.289
2014    8        6    10   3    4.25   531.8    3.5      48.268
2014    8        6    10   9    4.25   531.6    3.5      48.248
2014    8        6    10  14    4.25   531.4    3.5      48.227
2014    8        6    10  20    4.25   531.2    3.5      48.206
2014    8        6    10  25    4.25   531.1    3.5      48.186
2014    8        6    10  31    4.25   530.9    3.5      48.165
2014    8        6    10  36    4.24   530.7    3.5      48.145
2014    8        6    10  42    4.24   530.5    3.5      48.125
2014    8        6    10  47    4.24   530.3    3.5      48.105
2014    8        6    10  53    4.24   530.2    3.5      48.084
2014    8        6    10  59    4.24   530.0    3.5      48.065
2014    8        6    11   4    4.24   529.8    3.5      48.045
2014    8        6    11  10    4.24   529.6    3.5      48.025
2014    8        6    11  15    4.24   529.5    3.5      48.005
2014    8        6    11  21    4.24   529.3    3.5      47.985
2014    8        6    11  26    4.24   529.1    3.5      47.966
2014    8        6    11  32    4.24   528.9    3.5      47.946
2014    8        6    11  38    4.24   528.7    3.5      47.926
2014    8        6    11  43    4.24   528.6    3.6      47.907
2014    8        6    11  49    4.24   528.4    3.6      47.887
2014    8        6    11  54    4.24   528.2    3.6      47.868
2014    8        6    12   0    4.24   528.0    3.6      47.848
2014    8        6    12   5    4.24   527.9    3.6      47.829
2014    8        6    12  11    4.24   527.7    3.6      47.809
2014    8        6    12  17    4.24   527.5    3.6      47.789
2014    8        6    12  22    4.24   527.3    3.6      47.770
2014    8        6    12  28    4.24   527.2    3.6      47.750
2014    8        6    12  33    4.24   527.0    3.6      47.731
2014    8        6    12  39    4.24   526.8    3.6      47.711
2014    8        6    12  44    4.24   526.6    3.6      47.691
2014    8        6    12  50    4.24   526.5    3.6      47.672
2014    8        6    12  56    4.24   526.3    3.6      47.652
2014    8        6    13   1    4.24   526.1    3.6      47.632
2014    8        6    13   7    4.23   525.9    3.6      47.612
2014    8        6    13  12    4.23   525.8    3.6      47.593
2014    8        6    13  18    4.23   525.6    3.6      47.573
2014    8        6    13  23    4.23   525.4    3.6      47.553
2014    8        6    13  29    4.23   525.3    3.6      47.532
2014    8        6    13  34    4.23   525.1    3.6      47.512
2014    8        6    13  40    4.23   524.9    3.6      47.491
2014    8        6    13  46    4.23   524.7    3.6      47.471
2014    8        6    13  51    4.23   524.6    3.6      47.450
2014    8        6    13  57    4.23   524.4    3.6      47.429
2014    8        6    14   2    4.23   524.2    3.6      47.408
2014    8        6    14   8    4.23   524.1    3.6      47.386
2014    8        6    14  13    4.23   523.9    3.6      47.365
2014    8        6    14  19    4.23   523.7    3.6      47.343
2014    8        6    14  25    4.23   523.6    3.6      47.321
2014    8        6    14  30    4.23   523.4    3.6      47.299
2014    8        6    14  36    4.23   523.2    3.6      47.277
2014    8        6    14  41    4.23   523.0    3.6      47.254
2014    8        6    14  47    4.23   522.9    3.6      47.232
2014    8        6    14  52    4.23   522.7    3.6      47.209
2014    8        6    14  58    4.23   522.5    3.6      47.186
2014    8        6    15   4    4.23   522.4    3.6      47.163
2014    8        6    15   9    4.23   522.2    3.6      47.139
2014    8        6    15  15    4.23   522.0    3.6      47.116
2014    8        6    15  20    4.23   521.8    3.6      47.092
2014    8        6    15  26    4.23   521.7    3.6      47.069
2014    8        6    15  31    4.22   521.5    3.6      47.045
2014    8        6    15  37    4.22   521.3    3.6      47.021
2014    8        6    15  42    4.22   521.1    3.6      46.997
2014    8        6    15  48    4.22   521.0    3.6      46.973
2014    8        6    15  54    4.22   520.8    3.6      46.949
2014    8        6    15  59    4.22   520.6    3.6      46.925
2014    8        6    16   5    4.22   520.4    3.6      46.901
2014    8        6    16  10    4.22   520.3    3.6      46.877
2014    8        6    16  16    4.22   520.1    3.6      46.853
2014    8        6    16  21    4.22   519.9    3.6      46.829
2014    8        6    16  27    4.22   519.7    3.6      46.805
2014    8        6    16  33    4.22   519.6    3.6      46.782
2014    8        6    16  38    4.22   519.4    3.6      46.758
2014    8        6    16  44    4.22   519.2    3.6      46.735
2014    8        6    16  49    4.22   519.0    3.6      46.712
2014    8        6    16  55    4.22   518.9    3.6      46.688
2014    8        6    17   0    4.22   518.7    3.6      46.666
2014    8        6    17   6    4.22   518.5    3.6      46.643
2014    8        6    17  12    4.22   518.4    3.6      46.620
2014    8        6    17  17    4.22   518.2    3.6      46.598
2014    8        6    17  23    4.22   518.0    3.6      46.576
2014    8        6    17  28    4.22   517.8    3.6      46.554
2014    8        6    17  34    4.22   517.7    3.6      46.532
2014    8        6    17  39    4.21   517.5    3.6      46.510
2014    8        6    17  45    4.21   517.3    3.6      46.488
2014    8        6    17  51    4.21   517.1    3.7      46.467
2014    8        6    17  56    4.21   517.0    3.7      46.445
2014    8        6    18   2    4.21   516.8    3.7      46.424
2014    8        6    18   7    4.21   516.6    3.7      46.402
2014    8        6    18  13    4.21   516.5    3.7      46.380
2014    8        6    18  18    4.21   516.3    3.7      46.359
2014    8        6    18  24    4.21   516.1    3.7      46.337
2014    8        6    18  29    4.21   516.0    3.7      46.315
2014    8        6    18  35    4.21   515.8    3.7      46.294
2014    8        6    18  41    4.21   515.6    3.7      46.272
2014    8        6    18  46    4.21   515.4    3.7      46.249
2014    8        6    18  52    4.21   515.3    3.7      46.227
2014    8        6    18  57    4.21   515.1    3.7      46.205
2014    8        6    19   3    4.21   514.9    3.7      46.183
2014    8        6    19   8    4.21   514.8    3.7      46.160
2014    8        6    19  14    4.21   514.6    3.7      46.137
2014    8        6    19  20    4.21   514.4    3.7      46.114
2014    8        6    19  25    4.21   514.3    3.7      46.092
2014    8        6    19  31    4.21   514.1    3.7      46.068
2014    8        6    19  36    4.21   513.9    3.7      46.045
2014    8        6    19  42    4.21   513.7    3.7      46.022
2014    8        6    19  47    4.21   513.6    3.7      45.998
2014    8        6    19  53    4.21   513.4    3.7      45.974
2014    8        6    19  59    4.21   513.2    3.7      45.950
2014    8        6    20   4    4.21   513.1    3.7      45.926
2014    8        6    20  10    4.21   512.9    3.7      45.902
2014    8        6    20  15    4.21   512.7    3.7      45.878
2014    8        6    20  21    4.21   512.6    3.7      45.854
2014    8        6    20  26    4.21   512.4    3.7      45.829
2014    8        6    20  32    4.20   512.2    3.7      45.805
2014    8        6    20  38    4.20   512.1    3.7      45.780
2014    8        6    20  43    4.20   511.9    3.7      45.755
2014    8        6    20  49    4.20   511.7    3.7      45.730
2014    8        6    20  54    4.20   511.5    3.7      45.706
2014    8        6    21   0    4.20   511.4    3.7      45.681
2014    8        6    21   5    4.20   511.2    3.7      45.656
2014    8        6    21  11    4.20   511.0    3.7      45.630
2014    8        6    21  16    4.20   510.9    3.7      45.605
2014    8        6    21  22    4.20   510.7    3.7      45.580
2014    8        6    21  28    4.20   510.5    3.7      45.555
2014    8        6    21  33    4.20   510.3    3.7      45.530
2014    8        6    21  39    4.20   510.2    3.7      45.505
2014    8        6    21  44    4.20   510.0    3.7      45.480
2014    8        6    21  50    4.20   509.8    3.7      45.456
2014    8        6    21  55    4.20   509.7    3.7      45.431
2014    8        6    22   1    4.20   509.5    3.7      45.406
2014    8        6    22   7    4.20   509.3    3.7      45.381
2014    8        6    22  12    4.20   509.1    3.7      45.356
2014    8        6    22  18    4.20   509.0    3.7      45.332
2014    8        6    22  23    4.20   508.8    3.7      45.307
2014    8        6    22  29    4.20   508.6    3.7      45.283
2014    8        6    22  34    4.20   508.4    3.7      45.258
2014    8        6    22  40    4.19   508.3    3.7      45.234
2014    8        6    22  46    4.19   508.1    3.8      45.210
2014    8        6    22  51    4.19   507.9    3.8      45.185
2014    8        6    22  57    4.19   507.8    3.8      45.161
2014    8        6    23   2    4.19   507.6    3.8      45.137
2014    8        6    23   8    4.19   507.4    3.8      45.113
2014    8        6    23  13    4.19   507.2    3.8      45.089
2014    8        6    23  19    4.19   507.1    3.8      45.065
2014    8        6    23  25    4.19   506.9    3.8      45.042
2014    8        6    23  30    4.19   506.7    3.8      45.018
2014    8        6    23  36    4.19   506.5    3.8      44.994
2014    8        6    23  41    4.19   506.4    3.8      44.971
2014    8        6    23  47    4.19   506.2    3.8      44.947
2014    8        6    23  52    4.19   506.0    3.8      44.923
2014    8        6    23  58    4.19   505.9    3.8      44.900
2014    8        7     0   3    4.19   505.7    3.8      44.876
2014    8        7     0   9    4.19   505.5    3.8      44.853
2014    8        7     0  15    4.19   505.3    3.8      44.830
2014    8        7     0  20    4.19   505.2    3.8      44.806
2014    8        7     0  26    4.19   505.0    3.8      44.783
2014    8        7     0  31    4.19   504.8    3.8      44.759
2014    8        7     0  37    4.19   504.7    3.8      44.736
2014    8        7     0  42    4.19   504.5    3.8      44.712
2014    8        7     0  48    4.19   504.3    3.8      44.689
2014    8        7     0  54    4.19   504.1    3.8      44.666
2014    8        7     0  59    4.19   504.0    3.8      44.642
2014    8        7     1   5    4.19   503.8    3.8      44.618
2014    8        7     1  10    4.18   503.6    3.8      44.595
2014    8        7     1  16    4.18   503.5    3.8      44.571
2014    8        7     1  21    4.18   503.3    3.8      44.547
2014    8        7     1  27    4.18   503.1    3.8      44.523
2014    8        7     1  33    4.18   503.0    3.8      44.500
2014    8        7     1  38    4.18   502.8    3.8      44.476
2014    8        7     1  44    4.18   502.6    3.8      44.452
2014    8        7     1  49    4.18   502.5    3.8      44.428
2014    8        7     1  55    4.18   502.3    3.8      44.404
2014    8        7     2   0    4.18   502.1    3.8      44.380
2014    8        7     2   6    4.18   502.0    3.8      44.355
2014    8        7     2  11    4.18   501.8    3.8      44.331
2014    8        7     2  17    4.18   501.6    3.8      44.307
2014    8        7     2  23    4.18   501.5    3.8      44.283
2014    8        7     2  28    4.18   501.3    3.8      44.258
2014    8        7     2  34    4.18   501.1    3.8      44.234
2014    8        7     2  39    4.18   501.0    3.8      44.209
2014    8        7     2  45    4.18   500.8    3.8      44.185
2014    8        7     2  50    4.18   500.6    3.8      44.160
2014    8        7     2  56    4.18   500.4    3.8      44.136
2014    8        7     3   2    4.18   500.3    3.8      44.111
2014    8        7     3   7    4.18   500.1    3.8      44.086
2014    8        7     3  13    4.18   499.9    3.8      44.061
2014    8        7     3  18    4.18   499.8    3.8      44.037
2014    8        7     3  24    4.18   499.6    3.8      44.012
2014    8        7     3  29    4.18   499.4    3.8      43.987
2014    8        7     3  35    4.17   499.3    3.8      43.962
2014    8        7     3  41    4.17   499.1    3.8      43.936
2014    8        7     3  46    4.17   498.9    3.9      43.911
2014    8        7     3  52    4.17   498.8    3.9      43.886
2014    8        7     3  57    4.17   498.6    3.9      43.861
2014    8        7     4   3    4.17   498.4    3.9      43.835
2014    8        7     4   8    4.17   498.3    3.9      43.810
2014    8        7     4  14    4.17   498.1    3.9      43.784
2014    8        7     4  20    4.17   497.9    3.9      43.758
2014    8        7     4  25    4.17   497.8    3.9      43.733
2014    8        7     4  31    4.17   497.6    3.9      43.707
2014    8        7     4  36    4.17   497.4    3.9      43.681
2014    8        7     4  42    4.17   497.2    3.9      43.655
2014    8        7     4  47    4.17   497.1    3.9      43.628
2014    8        7     4  53    4.17   496.9    3.9      43.602
2014    8        7     4  58    4.17   496.7    3.9      43.576
2014    8        7     5   4    4.17   496.6    3.9      43.549
2014    8        7     5  10    4.17   496.4    3.9      43.523
2014    8        7     5  15    4.17   496.2    3.9      43.496
2014    8        7     5  21    4.17   496.0    3.9      43.469
2014    8        7     5  26    4.16   495.9    3.9      43.442
2014    8        7     5  32    4.16   495.7    3.9      43.415
2014    8        7     5  37    4.16   495.5    3.9      43.388
2014    8        7     5  43    4.16   495.4    3.9      43.360
2014    8        7     5  49    4.16   495.2    3.9      43.333
2014    8        7     5  54    4.16   495.0    3.9      43.305
2014    8        7     6   0    4.16   494.8    3.9      43.277
2014    8        7     6   5    4.16   494.7    3.9      43.249
2014    8        7     6  11    4.16   494.5    3.9      43.222
2014    8        7     6  16    4.16   494.3    3.9      43.194
2014    8        7     6  22    4.16   494.2    3.9      43.165
2014    8        7     6  28    4.16   494.0    3.9      43.137
2014    8        7     6  33    4.16   493.8    3.9      43.109
2014    8        7     6  39    4.16   493.6    3.9      43.080
2014    8        7     6  44    4.16   493.5    3.9      43.052
2014    8        7     6  50    4.16   493.3    3.9      43.023
2014    8        7     6  55    4.16   493.1    3.9      42.994
2014    8        7     7   1    4.16   492.9    3.9      42.965
2014    8        7     7   7    4.16   492.8    3.9      42.937
2014    8        7     7  12    4.15   492.6    3.9      42.908
2014    8        7     7  18    4.15   492.4    3.9      42.879
2014    8        7     7  23    4.15   492.3    3.9      42.849
2014    8        7     7  29    4.15   492.1    3.9      42.820
2014    8        7     7  34    4.15   491.9    3.9      42.791
2014    8        7     7  40    4.15   491.7    3.9      42.762
2014    8        7     7  45    4.15   491.6    3.9      42.733
2014    8        7     7  51    4.15   491.4    3.9      42.704
2014    8        7     7  57    4.15   491.2    3.9      42.675
2014    8        7     8   2    4.15   491.0    3.9      42.646
2014    8        7     8   8    4.15   490.9    3.9      42.617
2014    8        7     8  13    4.15   490.7    3.9      42.588
2014    8        7     8  19    4.15   490.5    3.9      42.559
2014    8        7     8  24    4.15   490.3    3.9      42.530
2014    8        7     8  30    4.15   490.2    3.9      42.502
2014    8        7     8  36    4.15   490.0    3.9      42.473
2014    8        7     8  41    4.15   489.8    3.9      42.445
2014    8        7     8  47    4.15   489.6    3.9      42.417
2014    8        7     8  52    4.15   489.5    3.9      42.389
2014    8        7     8  58    4.15   489.3    3.9      42.361
2014    8        7     9   3    4.14   489.1    4.0      42.334
2014    8        7     9   9    4.14   488.9    4.0      42.306
2014    8        7     9  15    4.14   488.8    4.0      42.279
2014    8        7     9  20    4.14   488.6    4.0      42.252
2014    8        7     9  26    4.14   488.4    4.0      42.225
2014    8        7     9  31    4.14   488.2    4.0      42.199
2014    8        7     9  37    4.14   488.1    4.0      42.172
2014    8        7     9  42    4.14   487.9    4.0      42.147
2014    8        7     9  48    4.14   487.7    4.0      42.121
2014    8        7     9  54    4.14   487.5    4.0      42.095
2014    8        7     9  59    4.14   487.4    4.0      42.069
2014    8        7    10   5    4.14   487.2    4.0      42.044
2014    8        7    10  10    4.14   487.0    4.0      42.019
2014    8        7    10  16    4.14   486.9    4.0      41.994
2014    8        7    10  21    4.14   486.7    4.0      41.969
2014    8        7    10  27    4.14   486.5    4.0      41.945
2014    8        7    10  33    4.14   486.3    4.0      41.920
2014    8        7    10  38    4.14   486.2    4.0      41.896
2014    8        7    10  44    4.14   486.0    4.0      41.871
2014    8        7    10  49    4.14   485.8    4.0      41.847
2014    8        7    10  55    4.14   485.6    4.0      41.822
2014    8        7    11   0    4.14   485.5    4.0      41.798
2014    8        7    11   6    4.14   485.3    4.0      41.774
2014    8        7    11  11    4.13   485.1    4.0      41.749
2014    8        7    11  17    4.13   485.0    4.0      41.725
2014    8        7    11  23    4.13   484.8    4.0      41.700
2014    8        7    11  28    4.13   484.6    4.0      41.676
2014    8        7    11  34    4.13   484.5    4.0      41.651
2014    8        7    11  39    4.13   484.3    4.0      41.627
2014    8        7    11  45    4.13   484.1    4.0      41.602
2014    8        7    11  50    4.13   483.9    4.0      41.576
2014    8        7    11  56    4.13   483.8    4.0      41.551
2014    8        7    12   2    4.13   483.6    4.0      41.526
2014    8        7    12   7    4.13   483.4    4.0      41.500
2014    8        7    12  13    4.13   483.3    4.0      41.474
2014    8        7    12  18    4.13   483.1    4.0      41.448
2014    8        7    12  24    4.13   482.9    4.0      41.422
2014    8        7    12  29    4.13   482.7    4.0      41.395
2014    8        7    12  35    4.13   482.6    4.0      41.368
2014    8        7    12  41    4.13   482.4    4.0      41.342
2014    8        7    12  46    4.13   482.2    4.0      41.314
2014    8        7    12  52    4.12   482.1    4.0      41.287
2014    8        7    12  57    4.12   481.9    4.0      41.260
2014    8        7    13   3    4.12   481.7    4.0      41.232
2014    8        7    13   8    4.12   481.5    4.0      41.204
2014    8        7    13  14    4.12   481.4    4.0      41.175
2014    8        7    13  20    4.12   481.2    4.1      41.147
2014    8        7    13  25    4.12   481.0    4.1      41.118
2014    8        7    13  31    4.12   480.8    4.1      41.090
2014    8        7    13  36    4.12   480.7    4.1      41.061
2014    8        7    13  42    4.12   480.5    4.1      41.032
2014    8        7    13  47    4.12   480.3    4.1      41.002
2014    8        7    13  53    4.12   480.2    4.1      40.972
2014    8        7    13  59    4.12   480.0    4.1      40.943
2014    8        7    14   4    4.12   479.8    4.1      40.913
2014    8        7    14  10    4.12   479.6    4.1      40.883
2014    8        7    14  15    4.12   479.5    4.1      40.852
2014    8        7    14  21    4.11   479.3    4.1      40.822
2014    8        7    14  26    4.11   479.1    4.1      40.792
2014    8        7    14  32    4.11   478.9    4.1      40.761
2014    8        7    14  37    4.11   478.8    4.1      40.730
2014    8        7    14  43    4.11   478.6    4.1      40.700
2014    8        7    14  49    4.11   478.4    4.1      40.669
2014    8        7    14  54    4.11   478.2    4.1      40.638
2014    8        7    15   0    4.11   478.1    4.1      40.607
2014    8        7    15   5    4.11   477.9    4.1      40.576
2014    8        7    15  11    4.11   477.7    4.1      40.545
2014    8        7    15  16    4.11   477.5    4.1      40.514
2014    8        7    15  22    4.11   477.3    4.1      40.483
2014    8        7    15  28    4.11   477.2    4.1      40.452
2014    8        7    15  33    4.11   477.0    4.1      40.421
2014    8        7    15  39    4.11   476.8    4.1      40.390
2014    8        7    15  44    4.11   476.6    4.1      40.359
2014    8        7    15  50    4.10   476.5    4.1      40.329
2014    8        7    15  55    4.10   476.3    4.1      40.298
2014    8        7    16   1    4.10   476.1    4.1      40.268
2014    8        7    16   7    4.10   475.9    4.1      40.237
2014    8        7    16  12    4.10   475.8    4.1      40.207
2014    8        7    16  18    4.10   475.6    4.1      40.177
2014    8        7    16  23    4.10   475.4    4.1      40.147
2014    8        7    16  29    4.10   475.2    4.1      40.117
2014    8        7    16  34    4.10   475.0    4.1      40.087
2014    8        7    16  40    4.10   474.9    4.1      40.057
2014    8        7    16  46    4.10   474.7    4.1      40.027
2014    8        7    16  51    4.10   474.5    4.1      39.998
2014    8        7    16  57    4.10   474.3    4.1      39.969
2014    8        7    17   2    4.10   474.2    4.1      39.939
2014    8        7    17   8    4.10   474.0    4.1      39.910
2014    8        7    17  13    4.10   473.8    4.1      39.882
2014    8        7    17  19    4.10   473.6    4.1      39.853
2014    8        7    17  25    4.10   473.4    4.1      39.824
2014    8        7    17  30    4.09   473.3    4.1      39.795
2014    8        7    17  36    4.09   473.1    4.1      39.767
2014    8        7    17  41    4.09   472.9    4.1      39.739
2014    8        7    17  47    4.09   472.7    4.1      39.710
2014    8        7    17  52    4.09   472.6    4.1      39.682
2014    8        7    17  58    4.09   472.4    4.1      39.654
2014    8        7    18   3    4.09   472.2    4.1      39.626
2014    8        7    18   9    4.09   472.0    4.1      39.597
2014    8        7    18  15    4.09   471.9    4.2      39.569
2014    8        7    18  20    4.09   471.7    4.2      39.541
2014    8        7    18  26    4.09   471.5    4.2      39.513
2014    8        7    18  31    4.09   471.3    4.2      39.485
2014    8        7    18  37    4.09   471.2    4.2      39.457
2014    8        7    18  42    4.09   471.0    4.2      39.428
2014    8        7    18  48    4.09   470.8    4.2      39.400
2014    8        7    18  54    4.09   470.6    4.2      39.372
2014    8        7    18  59    4.09   470.5    4.2      39.343
2014    8        7    19   5    4.09   470.3    4.2      39.315
2014    8        7    19  10    4.09   470.1    4.2      39.286
2014    8        7    19  16    4.08   469.9    4.2      39.257
2014    8        7    19  21    4.08   469.7    4.2      39.228
2014    8        7    19  27    4.08   469.6    4.2      39.199
2014    8        7    19  33    4.08   469.4    4.2      39.170
2014    8        7    19  38    4.08   469.2    4.2      39.141
2014    8        7    19  44    4.08   469.0    4.2      39.112
2014    8        7    19  49    4.08   468.8    4.2      39.083
2014    8        7    19  55    4.08   468.7    4.2      39.053
2014    8        7    20   0    4.08   468.5    4.2      39.024
2014    8        7    20   6    4.08   468.3    4.2      38.995
2014    8        7    20  12    4.08   468.1    4.2      38.965
2014    8        7    20  17    4.08   467.9    4.2      38.936
2014    8        7    20  23    4.08   467.8    4.2      38.906
2014    8        7    20  28    4.08   467.6    4.2      38.877
2014    8        7    20  34    4.08   467.4    4.2      38.847
2014    8        7    20  39    4.08   467.2    4.2      38.818
2014    8        7    20  45    4.07   467.0    4.2      38.789
2014    8        7    20  50    4.07   466.9    4.2      38.759
2014    8        7    20  56    4.07   466.7    4.2      38.730
2014    8        7    21   2    4.07   466.5    4.2      38.700
2014    8        7    21   7    4.07   466.3    4.2      38.671
2014    8        7    21  13    4.07   466.2    4.2      38.642
2014    8        7    21  18    4.07   466.0    4.2      38.612
2014    8        7    21  24    4.07   465.8    4.2      38.583
2014    8        7    21  29    4.07   465.6    4.2      38.553
2014    8        7    21  35    4.07   465.4    4.2      38.524
2014    8        7    21  41    4.07   465.3    4.2      38.495
2014    8        7    21  46    4.07   465.1    4.2      38.465
2014    8        7    21  52    4.07   464.9    4.2      38.436
2014    8        7    21  57    4.07   464.7    4.2      38.407
2014    8        7    22   3    4.07   464.5    4.2      38.377
2014    8        7    22   8    4.07   464.4    4.3      38.348
2014    8        7    22  14    4.07   464.2    4.3      38.318
2014    8        7    22  20    4.07   464.0    4.3      38.289
2014    8        7    22  25    4.06   463.8    4.3      38.260
2014    8        7    22  31    4.06   463.7    4.3      38.230
2014    8        7    22  36    4.06   463.5    4.3      38.201
2014    8        7    22  42    4.06   463.3    4.3      38.171
2014    8        7    22  47    4.06   463.1    4.3      38.142
2014    8        7    22  53    4.06   462.9    4.3      38.112
2014    8        7    22  59    4.06   462.8    4.3      38.083
2014    8        7    23   4    4.06   462.6    4.3      38.054
2014    8        7    23  10    4.06   462.4    4.3      38.024
2014    8        7    23  15    4.06   462.2    4.3      37.995
2014    8        7    23  21    4.06   462.1    4.3      37.965
2014    8        7    23  26    4.06   461.9    4.3      37.936
2014    8        7    23  32    4.06   461.7    4.3      37.906
2014    8        7    23  38    4.06   461.5    4.3      37.877
2014    8        7    23  43    4.06   461.4    4.3      37.847
2014    8        7    23  49    4.06   461.2    4.3      37.818
2014    8        7    23  54    4.06   461.0    4.3      37.788
2014    8        8     0   0    4.06   460.8    4.3      37.758
2014    8        8     0   5    4.05   460.6    4.3      37.728
2014    8        8     0  11    4.05   460.5    4.3      37.699
2014    8        8     0  16    4.05   460.3    4.3      37.669
2014    8        8     0  22    4.05   460.1    4.3      37.639
2014    8        8     0  28    4.05   459.9    4.3      37.609
2014    8        8     0  33    4.05   459.8    4.3      37.579
2014    8        8     0  39    4.05   459.6    4.3      37.549
2014    8        8     0  44    4.05   459.4    4.3      37.519
2014    8        8     0  50    4.05   459.2    4.3      37.489
2014    8        8     0  55    4.05   459.0    4.3      37.459
2014    8        8     1   1    4.05   458.9    4.3      37.428
2014    8        8     1   7    4.05   458.7    4.3      37.398
2014    8        8     1  12    4.05   458.5    4.3      37.367
2014    8        8     1  18    4.05   458.3    4.3      37.337
2014    8        8     1  23    4.05   458.2    4.3      37.306
2014    8        8     1  29    4.05   458.0    4.3      37.275
2014    8        8     1  34    4.04   457.8    4.3      37.245
2014    8        8     1  40    4.04   457.6    4.3      37.214
2014    8        8     1  46    4.04   457.4    4.3      37.183
2014    8        8     1  51    4.04   457.2    4.3      37.152
2014    8        8     1  57    4.04   457.1    4.3      37.121
2014    8        8     2   2    4.04   456.9    4.3      37.090
2014    8        8     2   8    4.04   456.7    4.3      37.058
2014    8        8     2  13    4.04   456.5    4.3      37.027
2014    8        8     2  19    4.04   456.3    4.3      36.996
2014    8        8     2  25    4.04   456.2    4.4      36.964
2014    8        8     2  30    4.04   456.0    4.4      36.933
2014    8        8     2  36    4.04   455.8    4.4      36.902
2014    8        8     2  41    4.04   455.6    4.4      36.870
2014    8        8     2  47    4.04   455.4    4.4      36.839
2014    8        8     2  52    4.04   455.2    4.4      36.807
2014    8        8     2  58    4.03   455.0    4.4      36.776
2014    8        8     3   3    4.03   454.9    4.4      36.744
2014    8        8     3   9    4.03   454.7    4.4      36.713
2014    8        8     3  15    4.03   454.5    4.4      36.681
2014    8        8     3  20    4.03   454.3    4.4      36.650
2014    8        8     3  26    4.03   454.1    4.4      36.618
2014    8        8     3  31    4.03   453.9    4.4      36.587
2014    8        8     3  37    4.03   453.7    4.4      36.556
2014    8        8     3  42    4.03   453.6    4.4      36.525
2014    8        8     3  48    4.03   453.4    4.4      36.493
2014    8        8     3  54    4.03   453.2    4.4      36.462
2014    8        8     3  59    4.03   453.0    4.4      36.431
2014    8        8     4   5    4.03   452.8    4.4      36.400
2014    8        8     4  10    4.03   452.6    4.4      36.370
2014    8        8     4  16    4.03   452.4    4.4      36.339
2014    8        8     4  21    4.03   452.2    4.4      36.308
2014    8        8     4  27    4.03   452.1    4.4      36.278
2014    8        8     4  33    4.02   451.9    4.4      36.247
2014    8        8     4  38    4.02   451.7    4.4      36.217
2014    8        8     4  44    4.02   451.5    4.4      36.186
2014    8        8     4  49    4.02   451.3    4.4      36.156
2014    8        8     4  55    4.02   451.1    4.4      36.126
2014    8        8     5   0    4.02   450.9    4.4      36.096
2014    8        8     5   6    4.02   450.8    4.4      36.066
2014    8        8     5  12    4.02   450.6    4.4      36.036
2014    8        8     5  17    4.02   450.4    4.4      36.006
2014    8        8     5  23    4.02   450.2    4.4      35.976
2014    8        8     5  28    4.02   450.0    4.4      35.946
2014    8        8     5  34    4.02   449.8    4.4      35.916
2014    8        8     5  39    4.02   449.6    4.4      35.887
2014    8        8     5  45    4.02   449.4    4.4      35.857
2014    8        8     5  50    4.02   449.3    4.4      35.828
2014    8        8     5  56    4.02   449.1    4.4      35.798
2014    8        8     6   2    4.02   448.9    4.4      35.769
2014    8        8     6   7    4.02   448.7    4.4      35.739
2014    8        8     6  13    4.02   448.5    4.4      35.710
2014    8        8     6  18    4.02   448.3    4.4      35.681
2014    8        8     6  24    4.01   448.1    4.5      35.652
2014    8        8     6  29    4.01   447.9    4.5      35.623
2014    8        8     6  35    4.01   447.8    4.5      35.594
2014    8        8     6  41    4.01   447.6    4.5      35.565
2014    8        8     6  46    4.01   447.4    4.5      35.536
2014    8        8     6  52    4.01   447.2    4.5      35.507
2014    8        8     6  57    4.01   447.0    4.5      35.479
2014    8        8     7   3    4.01   446.8    4.5      35.450
2014    8        8     7   8    4.01   446.6    4.5      35.421
2014    8        8     7  14    4.01   446.4    4.5      35.393
2014    8        8     7  20    4.01   446.3    4.5      35.364
2014    8        8     7  25    4.01   446.1    4.5      35.335
2014    8        8     7  31    4.01   445.9    4.5      35.307
2014    8        8     7  36    4.01   445.7    4.5      35.278
2014    8        8     7  42    4.01   445.5    4.5      35.250
2014    8        8     7  47    4.01   445.3    4.5      35.221
2014    8        8     7  53    4.01   445.1    4.5      35.193
2014    8        8     7  59    4.01   444.9    4.5      35.164
2014    8        8     8   4    4.01   444.8    4.5      35.136
2014    8        8     8  10    4.01   444.6    4.5      35.107
2014    8        8     8  15    4.00   444.4    4.5      35.079
2014    8        8     8  21    4.00   444.2    4.5      35.050
2014    8        8     8  26    4.00   444.0    4.5      35.021
2014    8        8     8  32    4.00   443.8    4.5      34.993
2014    8        8     8  38    4.00   443.6    4.5      34.964
2014    8        8     8  43    4.00   443.4    4.5      34.935
2014    8        8     8  49    4.00   443.2    4.5      34.907
2014    8        8     8  54    4.00   443.0    4.5      34.878
2014    8        8     9   0    4.00   442.9    4.5      34.849
2014    8        8     9   5    4.00   442.7    4.5      34.820
2014    8        8     9  11    4.00   442.5    4.5      34.791
2014    8        8     9  16    4.00   442.3    4.5      34.762
2014    8        8     9  22    4.00   442.1    4.5      34.733
2014    8        8     9  28    4.00   441.9    4.5      34.704
2014    8        8     9  33    4.00   441.7    4.5      34.675
2014    8        8     9  39    4.00   441.5    4.5      34.646
2014    8        8     9  44    4.00   441.3    4.5      34.617
2014    8        8     9  50    4.00   441.1    4.5      34.587
2014    8        8     9  55    4.00   440.9    4.6      34.558
2014    8        8    10   1    4.00   440.7    4.6      34.529
2014    8        8    10   7    3.99   440.6    4.6      34.499
2014    8        8    10  12    3.99   440.4    4.6      34.470
2014    8        8    10  18    3.99   440.2    4.6      34.440
2014    8        8    10  23    3.99   440.0    4.6      34.411
2014    8        8    10  29    3.99   439.8    4.6      34.381
2014    8        8    10  34    3.99   439.6    4.6      34.352
2014    8        8    10  40    3.99   439.4    4.6      34.322
2014    8        8    10  46    3.99   439.2    4.6      34.292
2014    8        8    10  51    3.99   439.0    4.6      34.262
2014    8        8    10  57    3.99   438.8    4.6      34.232
2014    8        8    11   2    3.99   438.6    4.6      34.203
2014    8        8    11   8    3.99   438.4    4.6      34.172
2014    8        8    11  13    3.99   438.2    4.6      34.143
2014    8        8    11  19    3.99   438.0    4.6      34.113
2014    8        8    11  25    3.99   437.8    4.6      34.083
2014    8        8    11  30    3.99   437.6    4.6      34.053
2014    8        8    11  36    3.99   437.4    4.6      34.023
2014    8        8    11  41    3.99   437.2    4.6      33.993
2014    8        8    11  47    3.99   437.0    4.6      33.963
2014    8        8    11  52    3.99   436.8    4.6      33.933
2014    8        8    11  58    3.98   436.6    4.6      33.903
2014    8        8    12   3    3.98   436.4    4.6      33.873
2014    8        8    12   9    3.98   436.2    4.6      33.843
2014    8        8    12  15    3.98   436.0    4.6      33.813
2014    8        8    12  20    3.98   435.8    4.6      33.783
2014    8        8    12  26    3.98   435.6    4.6      33.753
2014    8        8    12  31    3.98   435.4    4.6      33.724
2014    8        8    12  37    3.98   435.2    4.6      33.694
2014    8        8    12  42    3.98   435.0    4.6      33.664
2014    8        8    12  48    3.98   434.8    4.6      33.635
2014    8        8    12  54    3.98   434.6    4.6      33.606
2014    8        8    12  59    3.98   434.4    4.6      33.577
2014    8        8    13   5    3.98   434.2    4.6      33.547
2014    8        8    13  10    3.98   434.0    4.6      33.518
2014    8        8    13  16    3.98   433.8    4.6      33.489
2014    8        8    13  21    3.98   433.6    4.6      33.461
2014    8        8    13  27    3.98   433.4    4.7      33.432
2014    8        8    13  33    3.98   433.2    4.7      33.403
2014    8        8    13  38    3.98   433.0    4.7      33.375
2014    8        8    13  44    3.98   432.8    4.7      33.347
2014    8        8    13  49    3.98   432.5    4.7      33.319
2014    8        8    13  55    3.98   432.3    4.7      33.291
2014    8        8    14   0    3.98   432.1    4.7      33.263
2014    8        8    14   6    3.98   431.9    4.7      33.235
2014    8        8    14  12    3.98   431.7    4.7      33.207
2014    8        8    14  17    3.98   431.5    4.7      33.180
2014    8        8    14  23    3.98   431.3    4.7      33.153
2014    8        8    14  28    3.98   431.1    4.7      33.126
2014    8        8    14  34    3.98   430.9    4.7      33.099
2014    8        8    14  39    3.98   430.7    4.7      33.072
2014    8        8    14  45    3.98   430.5    4.7      33.045
2014    8        8    14  51    3.98   430.3    4.7      33.018
2014    8        8    14  56    3.98   430.1    4.7      32.992
2014    8        8    15   2    3.98   429.9    4.7      32.965
2014    8        8    15   7    3.98   429.6    4.7      32.939
2014    8        8    15  13    3.98   429.4    4.7      32.913
2014    8        8    15  18    3.97   429.2    4.7      32.887
2014    8        8    15  24    3.97   429.0    4.7      32.861
2014    8        8    15  29    3.97   428.8    4.7      32.835
2014    8        8    15  35    3.97   428.6    4.7      32.809
2014    8        8    15  41    3.97   428.4    4.7      32.784
2014    8        8    15  46    3.97   428.2    4.7      32.758
2014    8        8    15  52    3.97   428.0    4.7      32.733
2014    8        8    15  57    3.97   427.8    4.7      32.707
2014    8        8    16   3    3.97   427.6    4.7      32.682
2014    8        8    16   8    3.97   427.4    4.8      32.656
2014    8        8    16  14    3.97   427.2    4.8      32.631
2014    8        8    16  20    3.97   427.0    4.8      32.606
2014    8        8    16  25    3.97   426.8    4.8      32.581
2014    8        8    16  31    3.97   426.5    4.8      32.555
2014    8        8    16  36    3.97   426.3    4.8      32.530
2014    8        8    16  42    3.97   426.1    4.8      32.505
2014    8        8    16  47    3.97   425.9    4.8      32.480
2014    8        8    16  53    3.97   425.7    4.8      32.454
2014    8        8    16  59    3.97   425.5    4.8      32.429
2014    8        8    17   4    3.97   425.3    4.8      32.404
2014    8        8    17  10    3.98   425.1    4.8      32.378
2014    8        8    17  15    3.98   424.9    4.8      32.353
2014    8        8    17  21    3.98   424.7    4.8      32.328
2014    8        8    17  26    3.98   424.5    4.8      32.302
2014    8        8    17  32    3.98   424.3    4.8      32.277
2014    8        8    17  37    3.98   424.1    4.8      32.251
2014    8        8    17  43    3.98   423.9    4.8      32.225
2014    8        8    17  49    3.98   423.7    4.8      32.200
2014    8        8    17  54    3.98   423.4    4.8      32.174
2014    8        8    18   0    3.98   423.2    4.8      32.148
2014    8        8    18   5    3.98   423.0    4.8      32.122
2014    8        8    18  11    3.98   422.8    4.8      32.096
2014    8        8    18  16    3.98   422.6    4.8      32.070
2014    8        8    18  22    3.98   422.4    4.8      32.044
2014    8        8    18  28    3.98   422.2    4.9      32.018
2014    8        8    18  33    3.98   422.0    4.9      31.991
2014    8        8    18  39    3.98   421.8    4.9      31.965
2014    8        8    18  44    3.98   421.6    4.9      31.939
2014    8        8    18  50    3.98   421.4    4.9      31.913
2014    8        8    18  55    3.98   421.2    4.9      31.886
2014    8        8    19   1    3.98   420.9    4.9      31.860
2014    8        8    19   7    3.98   420.7    4.9      31.834
2014    8        8    19  12    3.98   420.5    4.9      31.807
2014    8        8    19  18    3.98   420.3    4.9      31.781
2014    8        8    19  23    3.98   420.1    4.9      31.755
2014    8        8    19  29    3.98   419.9    4.9      31.728
2014    8        8    19  34    3.98   419.7    4.9      31.702
2014    8        8    19  40    3.98   419.5    4.9      31.676
2014    8        8    19  46    3.98   419.2    4.9      31.650
2014    8        8    19  51    3.98   419.0    4.9      31.624
2014    8        8    19  57    3.98   418.8    4.9      31.598
2014    8        8    20   2    3.98   418.6    4.9      31.572
2014    8        8    20   8    3.98   418.4    4.9      31.546
2014    8        8    20  13    3.98   418.2    4.9      31.520
2014    8        8    20  19    3.98   418.0    4.9      31.495
2014    8        8    20  25    3.98   417.8    4.9      31.469
2014    8        8    20  30    3.98   417.5    4.9      31.444
2014    8        8    20  36    3.98   417.3    4.9      31.419
2014    8        8    20  41    3.98   417.1    4.9      31.394
2014    8        8    20  47    3.98   416.9    5.0      31.369
2014    8        8    20  52    3.98   416.7    5.0      31.344
2014    8        8    20  58    3.98   416.5    5.0      31.319
2014    8        8    21   4    3.98   416.3    5.0      31.295
2014    8        8    21   9    3.98   416.0    5.0      31.271
2014    8        8    21  15    3.98   415.8    5.0      31.247
2014    8        8    21  20    3.99   415.6    5.0      31.223
2014    8        8    21  26    3.99   415.4    5.0      31.199
2014    8        8    21  31    3.99   415.2    5.0      31.175
2014    8        8    21  37    3.99   415.0    5.0      31.152
2014    8        8    21  42    3.99   414.8    5.0      31.129
2014    8        8    21  48    3.99   414.5    5.0      31.106
2014    8        8    21  54    3.99   414.3    5.0      31.083
2014    8        8    21  59    3.99   414.1    5.0      31.060
2014    8        8    22   5    3.99   413.9    5.0      31.038
2014    8        8    22  10    3.99   413.7    5.0      31.016
2014    8        8    22  16    3.99   413.5    5.0      30.994
2014    8        8    22  21    3.99   413.3    5.0      30.972
2014    8        8    22  27    3.99   413.0    5.0      30.950
2014    8        8    22  33    3.99   412.8    5.0      30.929
2014    8        8    22  38    4.00   412.6    5.1      30.907
2014    8        8    22  44    4.00   412.4    5.1      30.886
2014    8        8    22  49    4.00   412.2    5.1      30.865
2014    8        8    22  55    4.00   412.0    5.1      30.844
2014    8        8    23   0    4.00   411.8    5.1      30.823
2014    8        8    23   6    4.00   411.6    5.1      30.803
2014    8        8    23  12    4.00   411.3    5.1      30.782
2014    8        8    23  17    4.00   411.1    5.1      30.762
2014    8        8    23  23    4.00   410.9    5.1      30.742
2014    8        8    23  28    4.00   410.7    5.1      30.721
2014    8        8    23  34    4.00   410.5    5.1      30.701
2014    8        8    23  39    4.01   410.3    5.1      30.681
2014    8        8    23  45    4.01   410.1    5.1      30.661
2014    8        8    23  50    4.01   409.9    5.1      30.642
2014    8        8    23  56    4.01   409.7    5.1      30.622
2014    8        9     0   2    4.01   409.5    5.1      30.602
2014    8        9     0   7    4.01   409.2    5.1      30.582
2014    8        9     0  13    4.01   409.0    5.1      30.563
2014    8        9     0  18    4.01   408.8    5.2      30.543
2014    8        9     0  24    4.01   408.6    5.2      30.523
2014    8        9     0  29    4.01   408.4    5.2      30.504
2014    8        9     0  35    4.02   408.2    5.2      30.484
2014    8        9     0  41    4.02   408.0    5.2      30.465
2014    8        9     0  46    4.02   407.8    5.2      30.445
2014    8        9     0  52    4.02   407.6    5.2      30.425
2014    8        9     0  57    4.02   407.4    5.2      30.406
2014    8        9     1   3    4.02   407.2    5.2      30.386
2014    8        9     1   8    4.02   407.0    5.2      30.367
2014    8        9     1  14    4.02   406.8    5.2      30.347
2014    8        9     1  20    4.03   406.5    5.2      30.328
2014    8        9     1  25    4.03   406.3    5.2      30.308
2014    8        9     1  31    4.03   406.1    5.2      30.288
2014    8        9     1  36    4.03   405.9    5.2      30.269
2014    8        9     1  42    4.03   405.7    5.2      30.249
2014    8        9     1  47    4.03   405.5    5.2      30.230
2014    8        9     1  53    4.03   405.3    5.3      30.210
2014    8        9     1  59    4.03   405.1    5.3      30.191
2014    8        9     2   4    4.04   404.9    5.3      30.171
2014    8        9     2  10    4.04   404.7    5.3      30.152
2014    8        9     2  15    4.04   404.5    5.3      30.133
2014    8        9     2  21    4.04   404.3    5.3      30.113
2014    8        9     2  26    4.04   404.1    5.3      30.094
2014    8        9     2  32    4.04   403.9    5.3      30.075
2014    8        9     2  38    4.04   403.7    5.3      30.055
2014    8        9     2  43    4.04   403.5    5.3      30.036
2014    8        9     2  49    4.05   403.2    5.3      30.017
2014    8        9     2  54    4.05   403.0    5.3      29.998
2014    8        9     3   0    4.05   402.8    5.3      29.979
2014    8        9     3   5    4.05   402.6    5.3      29.960
2014    8        9     3  11    4.05   402.4    5.3      29.942
2014    8        9     3  16    4.05   402.2    5.3      29.923
2014    8        9     3  22    4.06   402.0    5.4      29.904
2014    8        9     3  28    4.06   401.8    5.4      29.886
2014    8        9     3  33    4.06   401.6    5.4      29.868
2014    8        9     3  39    4.06   401.4    5.4      29.850
2014    8        9     3  44    4.06   401.2    5.4      29.832
2014    8        9     3  50    4.06   401.0    5.4      29.814
2014    8        9     3  55    4.07   400.8    5.4      29.796
2014    8        9     4   1    4.07   400.6    5.4      29.779
2014    8        9     4   7    4.07   400.4    5.4      29.761
2014    8        9     4  12    4.07   400.2    5.4      29.744
2014    8        9     4  18    4.07   400.0    5.4      29.727
2014    8        9     4  23    4.07   399.8    5.4      29.710
2014    8        9     4  29    4.08   399.6    5.4      29.693
2014    8        9     4  34    4.08   399.4    5.4      29.677
2014    8        9     4  40    4.08   399.2    5.4      29.660
2014    8        9     4  46    4.08   399.0    5.5      29.644
2014    8        9     4  51    4.08   398.8    5.5      29.628
2014    8        9     4  57    4.09   398.6    5.5      29.613
2014    8        9     5   2    4.09   398.4    5.5      29.597
2014    8        9     5   8    4.09   398.2    5.5      29.582
2014    8        9     5  13    4.09   398.0    5.5      29.567
2014    8        9     5  19    4.09   397.8    5.5      29.552
2014    8        9     5  25    4.10   397.6    5.5      29.537
2014    8        9     5  30    4.10   397.4    5.5      29.523
2014    8        9     5  36    4.10   397.2    5.5      29.508
2014    8        9     5  41    4.10   397.0    5.5      29.494
2014    8        9     5  47    4.11   396.8    5.5      29.480
2014    8        9     5  52    4.11   396.6    5.5      29.466
2014    8        9     5  58    4.11   396.4    5.5      29.453
2014    8        9     6   4    4.11   396.2    5.6      29.439
2014    8        9     6   9    4.11   396.0    5.6      29.426
2014    8        9     6  15    4.12   395.8    5.6      29.413
2014    8        9     6  20    4.12   395.6    5.6      29.400
2014    8        9     6  26    4.12   395.5    5.6      29.387
2014    8        9     6  31    4.12   395.3    5.6      29.375
2014    8        9     6  37    4.13   395.1    5.6      29.362
2014    8        9     6  42    4.13   394.9    5.6      29.350
2014    8        9     6  48    4.13   394.7    5.6      29.338
2014    8        9     6  54    4.13   394.5    5.6      29.326
2014    8        9     6  59    4.14   394.3    5.6      29.314
2014    8        9     7   5    4.14   394.1    5.6      29.302
2014    8        9     7  10    4.14   393.9    5.6      29.290
2014    8        9     7  16    4.14   393.7    5.7      29.279
2014    8        9     7  21    4.15   393.6    5.7      29.267
2014    8        9     7  27    4.15   393.4    5.7      29.256
2014    8        9     7  33    4.15   393.2    5.7      29.245
2014    8        9     7  38    4.15   393.0    5.7      29.233
2014    8        9     7  44    4.16   392.8    5.7      29.223
2014    8        9     7  49    4.16   392.6    5.7      29.212
2014    8        9     7  55    4.16   392.4    5.7      29.201
2014    8        9     8   0    4.16   392.2    5.7      29.190
2014    8        9     8   6    4.17   392.1    5.7      29.179
2014    8        9     8  12    4.17   391.9    5.7      29.169
2014    8        9     8  17    4.17   391.7    5.7      29.158
2014    8        9     8  23    4.17   391.5    5.8      29.148
2014    8        9     8  28    4.18   391.3    5.8      29.137
2014    8        9     8  34    4.18   391.1    5.8      29.127
2014    8        9     8  39    4.18   390.9    5.8      29.117
2014    8        9     8  45    4.18   390.8    5.8      29.107
2014    8        9     8  51    4.19   390.6    5.8      29.097
2014    8        9     8  56    4.19   390.4    5.8      29.087
2014    8        9     9   2    4.19   390.2    5.8      29.077
2014    8        9     9   7    4.20   390.0    5.8      29.068
2014    8        9     9  13    4.20   389.9    5.8      29.058
2014    8        9     9  18    4.20   389.7    5.8      29.049
2014    8        9     9  24    4.20   389.5    5.8      29.039
2014    8        9     9  29    4.21   389.3    5.9      29.030
2014    8        9     9  35    4.21   389.1    5.9      29.021
2014    8        9     9  41    4.21   388.9    5.9      29.012
2014    8        9     9  46    4.22   388.8    5.9      29.003
2014    8        9     9  52    4.22   388.6    5.9      28.994
2014    8        9     9  57    4.22   388.4    5.9      28.986
2014    8        9    10   3    4.22   388.2    5.9      28.977
2014    8        9    10   8    4.23   388.1    5.9      28.969
2014    8        9    10  14    4.23   387.9    5.9      28.960
2014    8        9    10  20    4.23   387.7    5.9      28.952
2014    8        9    10  25    4.24   387.5    5.9      28.945
2014    8        9    10  31    4.24   387.3    5.9      28.937
2014    8        9    10  36    4.24   387.2    6.0      28.929
2014    8        9    10  42    4.25   387.0    6.0      28.922
2014    8        9    10  47    4.25   386.8    6.0      28.914
2014    8        9    10  53    4.25   386.6    6.0      28.907
2014    8        9    10  59    4.26   386.5    6.0      28.900
2014    8        9    11   4    4.26   386.3    6.0      28.893
2014    8        9    11  10    4.26   386.1    6.0      28.887
2014    8        9    11  15    4.26   385.9    6.0      28.880
2014    8        9    11  21    4.27   385.8    6.0      28.874
2014    8        9    11  26    4.27   385.6    6.0      28.868
2014    8        9    11  32    4.27   385.4    6.0      28.862
2014    8        9    11  38    4.28   385.3    6.1      28.857
2014    8        9    11  43    4.28   385.1    6.1      28.851
2014    8        9    11  49    4.29   384.9    6.1      28.846
2014    8        9    11  54    4.29   384.8    6.1      28.841
2014    8        9    12   0    4.29   384.6    6.1      28.836
2014    8        9    12   5    4.30   384.4    6.1      28.831
2014    8        9    12  11    4.30   384.3    6.1      28.827
2014    8        9    12  16    4.30   384.1    6.1      28.823
2014    8        9    12  22    4.31   383.9    6.1      28.819
2014    8        9    12  28    4.31   383.8    6.1      28.815
2014    8        9    12  33    4.31   383.6    6.1      28.811
2014    8        9    12  39    4.32   383.4    6.2      28.808
2014    8        9    12  44    4.32   383.3    6.2      28.805
2014    8        9    12  50    4.33   383.1    6.2      28.802
2014    8        9    12  55    4.33   382.9    6.2      28.800
2014    8        9    13   1    4.33   382.8    6.2      28.798
2014    8        9    13   7    4.34   382.6    6.2      28.796
2014    8        9    13  12    4.34   382.5    6.2      28.794
2014    8        9    13  18    4.34   382.3    6.2      28.793
2014    8        9    13  23    4.35   382.1    6.2      28.792
2014    8        9    13  29    4.35   382.0    6.2      28.791
2014    8        9    13  34    4.36   381.8    6.3      28.790
2014    8        9    13  40    4.36   381.7    6.3      28.790
2014    8        9    13  46    4.36   381.5    6.3      28.790
2014    8        9    13  51    4.37   381.4    6.3      28.791
2014    8        9    13  57    4.37   381.2    6.3      28.791
2014    8        9    14   2    4.38   381.1    6.3      28.792
2014    8        9    14   8    4.38   380.9    6.3      28.793
2014    8        9    14  13    4.39   380.8    6.3      28.795
2014    8        9    14  19    4.39   380.6    6.3      28.797
2014    8        9    14  25    4.39   380.5    6.4      28.799
2014    8        9    14  30    4.40   380.3    6.4      28.801
2014    8        9    14  36    4.40   380.2    6.4      28.804
2014    8        9    14  41    4.41   380.0    6.4      28.806
2014    8        9    14  47    4.41   379.9    6.4      28.809
2014    8        9    14  52    4.42   379.7    6.4      28.813
2014    8        9    14  58    4.42   379.6    6.4      28.816
2014    8        9    15   3    4.42   379.4    6.4      28.820
2014    8        9    15   9    4.43   379.3    6.4      28.824
2014    8        9    15  15    4.43   379.2    6.5      28.828
2014    8        9    15  20    4.44   379.0    6.5      28.832
2014    8        9    15  26    4.44   378.9    6.5      28.837
2014    8        9    15  31    4.45   378.7    6.5      28.842
2014    8        9    15  37    4.45   378.6    6.5      28.846
2014    8        9    15  42    4.45   378.5    6.5      28.851
2014    8        9    15  48    4.46   378.3    6.5      28.857
2014    8        9    15  54    4.46   378.2    6.5      28.862
2014    8        9    15  59    4.47   378.1    6.5      28.867
2014    8        9    16   5    4.47   377.9    6.6      28.873
2014    8        9    16  10    4.48   377.8    6.6      28.878
2014    8        9    16  16    4.48   377.7    6.6      28.884
2014    8        9    16  21    4.49   377.5    6.6      28.890
2014    8        9    16  27    4.49   377.4    6.6      28.896
2014    8        9    16  33    4.50   377.3    6.6      28.902
2014    8        9    16  38    4.50   377.1    6.6      28.908
2014    8        9    16  44    4.50   377.0    6.6      28.914
2014    8        9    16  49    4.51   376.9    6.6      28.921
2014    8        9    16  55    4.51   376.7    6.7      28.927
2014    8        9    17   0    4.52   376.6    6.7      28.934
2014    8        9    17   6    4.52   376.5    6.7      28.940
2014    8        9    17  12    4.53   376.4    6.7      28.947
2014    8        9    17  17    4.53   376.2    6.7      28.954
2014    8        9    17  23    4.54   376.1    6.7      28.960
2014    8        9    17  28    4.54   376.0    6.7      28.967
2014    8        9    17  34    4.55   375.9    6.7      28.974
2014    8        9    17  39    4.55   375.7    6.7      28.981
2014    8        9    17  45    4.56   375.6    6.8      28.989
2014    8        9    17  51    4.56   375.5    6.8      28.996
2014    8        9    17  56    4.57   375.4    6.8      29.003
2014    8        9    18   2    4.57   375.3    6.8      29.011
2014    8        9    18   7    4.58   375.1    6.8      29.018
2014    8        9    18  13    4.58   375.0    6.8      29.026
2014    8        9    18  18    4.59   374.9    6.8      29.034
2014    8        9    18  24    4.59   374.8    6.8      29.042
2014    8        9    18  29    4.60   374.7    6.8      29.050
2014    8        9    18  35    4.60   374.5    6.9      29.058
2014    8        9    18  41    4.61   374.4    6.9      29.067
2014    8        9    18  46    4.61   374.3    6.9      29.076
2014    8        9    18  52    4.62   374.2    6.9      29.084
2014    8        9    18  57    4.62   374.1    6.9      29.093
2014    8        9    19   3    4.63   374.0    6.9      29.102
2014    8        9    19   8    4.63   373.8    6.9      29.112
2014    8        9    19  14    4.64   373.7    6.9      29.121
2014    8        9    19  20    4.64   373.6    6.9      29.131
2014    8        9    19  25    4.65   373.5    7.0      29.141
2014    8        9    19  31    4.65   373.4    7.0      29.151
2014    8        9    19  36    4.66   373.3    7.0      29.161
2014    8        9    19  42    4.66   373.2    7.0      29.172
2014    8        9    19  47    4.67   373.1    7.0      29.183
2014    8        9    19  53    4.67   373.0    7.0      29.194
2014    8        9    19  59    4.68   372.9    7.0      29.205
2014    8        9    20   4    4.68   372.8    7.0      29.217
2014    8        9    20  10    4.69   372.6    7.1      29.228
2014    8        9    20  15    4.69   372.5    7.1      29.241
2014    8        9    20  21    4.70   372.4    7.1      29.253
2014    8        9    20  26    4.71   372.3    7.1      29.265
2014    8        9    20  32    4.71   372.2    7.1      29.279
2014    8        9    20  38    4.72   372.1    7.1      29.292
2014    8        9    20  43    4.72   372.0    7.1      29.305
2014    8        9    20  49    4.73   371.9    7.1      29.319
2014    8        9    20  54    4.73   371.8    7.1      29.333
2014    8        9    21   0    4.74   371.7    7.2      29.348
2014    8        9    21   5    4.75   371.6    7.2      29.362
2014    8        9    21  11    4.75   371.5    7.2      29.377
2014    8        9    21  16    4.76   371.4    7.2      29.392
2014    8        9    21  22    4.76   371.4    7.2      29.408
2014    8        9    21  28    4.77   371.3    7.2      29.424
2014    8        9    21  33    4.77   371.2    7.2      29.440
2014    8        9    21  39    4.78   371.1    7.3      29.456
2014    8        9    21  44    4.79   371.0    7.3      29.473
2014    8        9    21  50    4.79   370.9    7.3      29.490
2014    8        9    21  55    4.80   370.8    7.3      29.507
2014    8        9    22   1    4.80   370.7    7.3      29.525
2014    8        9    22   7    4.81   370.6    7.3      29.542
2014    8        9    22  12    4.82   370.5    7.3      29.560
2014    8        9    22  18    4.82   370.5    7.3      29.579
2014    8        9    22  23    4.83   370.4    7.4      29.597
2014    8        9    22  29    4.84   370.3    7.4      29.616
2014    8        9    22  34    4.84   370.2    7.4      29.635
2014    8        9    22  40    4.85   370.1    7.4      29.654
2014    8        9    22  46    4.85   370.0    7.4      29.673
2014    8        9    22  51    4.86   370.0    7.4      29.692
2014    8        9    22  57    4.87   369.9    7.4      29.712
2014    8        9    23   2    4.87   369.8    7.4      29.732
2014    8        9    23   8    4.88   369.7    7.5      29.752
2014    8        9    23  13    4.88   369.6    7.5      29.772
2014    8        9    23  19    4.89   369.6    7.5      29.793
2014    8        9    23  25    4.90   369.5    7.5      29.813
2014    8        9    23  30    4.90   369.4    7.5      29.834
2014    8        9    23  36    4.91   369.3    7.5      29.854
2014    8        9    23  41    4.92   369.3    7.5      29.875
2014    8        9    23  47    4.92   369.2    7.5      29.896
2014    8        9    23  52    4.93   369.1    7.6      29.917
2014    8        9    23  58    4.94   369.0    7.6      29.938
2014    8       10     0   3    4.94   369.0    7.6      29.959
2014    8       10     0   9    4.95   368.9    7.6      29.980
2014    8       10     0  15    4.95   368.8    7.6      30.002
2014    8       10     0  20    4.96   368.8    7.6      30.023
2014    8       10     0  26    4.97   368.7    7.6      30.044
2014    8       10     0  31    4.97   368.6    7.6      30.066
2014    8       10     0  37    4.98   368.5    7.7      30.087
2014    8       10     0  42    4.99   368.5    7.7      30.109
2014    8       10     0  48    4.99   368.4    7.7      30.131
2014    8       10     0  54    5.00   368.3    7.7      30.152
2014    8       10     0  59    5.00   368.3    7.7      30.174
2014    8       10     1   5    5.01   368.2    7.7      30.196
2014    8       10     1  10    5.02   368.1    7.7      30.218
2014    8       10     1  16    5.02   368.1    7.7      30.239
2014    8       10     1  21    5.03   368.0    7.8      30.261
2014    8       10     1  27    5.04   368.0    7.8      30.283
2014    8       10     1  33    5.04   367.9    7.8      30.305
2014    8       10     1  38    5.05   367.8    7.8      30.327
2014    8       10     1  44    5.06   367.8    7.8      30.349
2014    8       10     1  49    5.06   367.7    7.8      30.371
2014    8       10     1  55    5.07   367.6    7.8      30.393
2014    8       10     2   0    5.08   367.6    7.8      30.415
2014    8       10     2   6    5.08   367.5    7.8      30.437
2014    8       10     2  12    5.09   367.5    7.9      30.459
2014    8       10     2  17    5.10   367.4    7.9      30.482
2014    8       10     2  23    5.10   367.4    7.9      30.504
2014    8       10     2  28    5.11   367.3    7.9      30.526
2014    8       10     2  34    5.12   367.2    7.9      30.548
2014    8       10     2  39    5.12   367.2    7.9      30.570
2014    8       10     2  45    5.13   367.1    7.9      30.592
2014    8       10     2  50    5.14   367.1    7.9      30.615
2014    8       10     2  56    5.14   367.0    8.0      30.637
2014    8       10     3   2    5.15   367.0    8.0      30.659
2014    8       10     3   7    5.16   366.9    8.0      30.682
2014    8       10     3  13    5.16   366.8    8.0      30.704
2014    8       10     3  18    5.17   366.8    8.0      30.726
2014    8       10     3  24    5.18   366.7    8.0      30.749
2014    8       10     3  29    5.18   366.7    8.0      30.771
2014    8       10     3  35    5.19   366.6    8.0      30.794
2014    8       10     3  41    5.20   366.6    8.1      30.817
2014    8       10     3  46    5.21   366.5    8.1      30.839
2014    8       10     3  52    5.21   366.5    8.1      30.862
2014    8       10     3  57    5.22   366.4    8.1      30.885
2014    8       10     4   3    5.23   366.3    8.1      30.908
2014    8       10     4   8    5.24   366.3    8.1      30.931
2014    8       10     4  14    5.24   366.2    8.1      30.955
2014    8       10     4  20    5.25   366.2    8.1      30.978
2014    8       10     4  25    5.26   366.1    8.2      31.002
2014    8       10     4  31    5.27   366.1    8.2      31.026
2014    8       10     4  36    5.28   366.0    8.2      31.051
2014    8       10     4  42    5.28   366.0    8.2      31.076
2014    8       10     4  47    5.29   365.9    8.2      31.102
2014    8       10     4  53    5.30   365.9    8.2      31.128
2014    8       10     4  59    5.31   365.8    8.2      31.154
2014    8       10     5   4    5.32   365.8    8.3      31.181
2014    8       10     5  10    5.32   365.7    8.3      31.209
2014    8       10     5  15    5.33   365.7    8.3      31.238
2014    8       10     5  21    5.34   365.6    8.3      31.267
2014    8       10     5  26    5.35   365.6    8.3      31.298
2014    8       10     5  32    5.36   365.6    8.3      31.330
2014    8       10     5  37    5.37   365.5    8.4      31.363
2014    8       10     5  43    5.38   365.5    8.4      31.398
2014    8       10     5  49    5.38   365.5    8.4      31.435
2014    8       10     5  54    5.39   365.5    8.4      31.474
2014    8       10     6   0    5.40   365.4    8.4      31.513
2014    8       10     6   5    5.41   365.4    8.4      31.553
2014    8       10     6  11    5.42   365.4    8.4      31.595
2014    8       10     6  16    5.43   365.4    8.5      31.637
2014    8       10     6  22    5.44   365.4    8.5      31.679
2014    8       10     6  28    5.44   365.4    8.5      31.721
2014    8       10     6  33    5.45   365.4    8.5      31.763
2014    8       10     6  39    5.46   365.3    8.5      31.805
2014    8       10     6  44    5.47   365.3    8.5      31.847
2014    8       10     6  50    5.48   365.3    8.5      31.889
2014    8       10     6  55    5.48   365.3    8.5      31.930
2014    8       10     7   1    5.49   365.3    8.6      31.971
2014    8       10     7   7    5.50   365.3    8.6      32.012
2014    8       10     7  12    5.51   365.3    8.6      32.052
2014    8       10     7  18    5.52   365.3    8.6      32.093
2014    8       10     7  23    5.52   365.3    8.6      32.132
2014    8       10     7  29    5.53   365.3    8.6      32.172
2014    8       10     7  34    5.54   365.3    8.6      32.211
2014    8       10     7  40    5.55   365.2    8.6      32.250
2014    8       10     7  46    5.56   365.2    8.7      32.288
2014    8       10     7  51    5.56   365.2    8.7      32.327
2014    8       10     7  57    5.57   365.2    8.7      32.365
2014    8       10     8   2    5.58   365.2    8.7      32.403
2014    8       10     8   8    5.59   365.2    8.7      32.441
2014    8       10     8  13    5.60   365.2    8.7      32.479
2014    8       10     8  19    5.60   365.2    8.7      32.516
2014    8       10     8  25    5.61   365.2    8.7      32.554
2014    8       10     8  30    5.62   365.2    8.8      32.591
2014    8       10     8  36    5.63   365.2    8.8      32.628
2014    8       10     8  41    5.64   365.2    8.8      32.665
2014    8       10     8  47    5.64   365.2    8.8      32.702
2014    8       10     8  52    5.65   365.2    8.8      32.738
2014    8       10     8  58    5.66   365.2    8.8      32.775
2014    8       10     9   3    5.67   365.1    8.8      32.812
2014    8       10     9   9    5.68   365.1    8.8      32.848
2014    8       10     9  15    5.68   365.1    8.8      32.885
2014    8       10     9  20    5.69   365.1    8.9      32.921
2014    8       10     9  26    5.70   365.1    8.9      32.958
2014    8       10     9  31    5.71   365.1    8.9      32.994
2014    8       10     9  37    5.72   365.1    8.9      33.031
2014    8       10     9  42    5.73   365.1    8.9      33.068
2014    8       10     9  48    5.74   365.1    8.9      33.105
2014    8       10     9  54    5.74   365.1    8.9      33.142
2014    8       10     9  59    5.75   365.1    8.9      33.179
2014    8       10    10   5    5.76   365.1    9.0      33.216
2014    8       10    10  10    5.77   365.1    9.0      33.254
2014    8       10    10  16    5.78   365.1    9.0      33.292
2014    8       10    10  21    5.79   365.1    9.0      33.330
2014    8       10    10  27    5.80   365.1    9.0      33.369
2014    8       10    10  33    5.81   365.1    9.0      33.408
2014    8       10    10  38    5.82   365.1    9.0      33.448
2014    8       10    10  44    5.83   365.1    9.1      33.488
2014    8       10    10  49    5.84   365.1    9.1      33.529
2014    8       10    10  55    5.85   365.1    9.1      33.570
2014    8       10    11   0    5.86   365.1    9.1      33.613
2014    8       10    11   6    5.87   365.1    9.1      33.656
2014    8       10    11  12    5.88   365.1    9.1      33.700
2014    8       10    11  17    5.89   365.1    9.2      33.744
2014    8       10    11  23    5.91   365.2    9.2      33.788
2014    8       10    11  28    5.92   365.2    9.2      33.834
2014    8       10    11  34    5.93   365.2    9.2      33.882
2014    8       10    11  39    5.94   365.2    9.2      33.934
2014    8       10    11  45    5.95   365.3    9.3      33.989
2014    8       10    11  50    5.96   365.3    9.3      34.047
2014    8       10    11  56    5.98   365.3    9.3      34.107
2014    8       10    12   2    5.99   365.4    9.3      34.171
2014    8       10    12   7    6.00   365.5    9.3      34.238
2014    8       10    12  13    6.01   365.5    9.4      34.307
2014    8       10    12  18    6.02   365.6    9.4      34.377
2014    8       10    12  24    6.04   365.7    9.4      34.446
2014    8       10    12  29    6.05   365.7    9.4      34.515
2014    8       10    12  35    6.06   365.8    9.4      34.584
2014    8       10    12  41    6.07   365.8    9.5      34.652
2014    8       10    12  46    6.08   365.9    9.5      34.719
2014    8       10    12  52    6.09   366.0    9.5      34.785
2014    8       10    12  57    6.11   366.0    9.5      34.851
2014    8       10    13   3    6.12   366.1    9.5      34.917
2014    8       10    13   8    6.13   366.2    9.6      34.981
2014    8       10    13  14    6.14   366.2    9.6      35.045
2014    8       10    13  20    6.15   366.3    9.6      35.108
2014    8       10    13  25    6.16   366.3    9.6      35.171
2014    8       10    13  31    6.17   366.4    9.6      35.233
2014    8       10    13  36    6.18   366.5    9.6      35.296
2014    8       10    13  42    6.19   366.6    9.6      35.358
2014    8       10    13  47    6.20   366.6    9.7      35.421
2014    8       10    13  53    6.21   366.7    9.7      35.484
2014    8       10    13  59    6.22   366.8    9.7      35.547
2014    8       10    14   4    6.23   366.8    9.7      35.610
2014    8       10    14  10    6.24   366.9    9.7      35.672
2014    8       10    14  15    6.25   367.0    9.7      35.735
2014    8       10    14  21    6.26   367.0    9.7      35.797
2014    8       10    14  26    6.27   367.1    9.7      35.859
2014    8       10    14  32    6.28   367.1    9.8      35.921
2014    8       10    14  37    6.29   367.2    9.8      35.982
2014    8       10    14  43    6.30   367.3    9.8      36.042
2014    8       10    14  49    6.31   367.3    9.8      36.102
2014    8       10    14  54    6.32   367.4    9.8      36.162
2014    8       10    15   0    6.33   367.4    9.8      36.222
2014    8       10    15   5    6.34   367.5    9.8      36.281
2014    8       10    15  11    6.34   367.6    9.8      36.339
2014    8       10    15  16    6.35   367.6    9.8      36.398
2014    8       10    15  22    6.36   367.7    9.8      36.456
2014    8       10    15  28    6.37   367.8    9.9      36.513
2014    8       10    15  33    6.38   367.8    9.9      36.571
2014    8       10    15  39    6.39   367.9    9.9      36.628
2014    8       10    15  44    6.40   367.9    9.9      36.684
2014    8       10    15  50    6.41   368.0    9.9      36.741
2014    8       10    15  55    6.42   368.1    9.9      36.798
2014    8       10    16   1    6.43   368.1    9.9      36.854
2014    8       10    16   7    6.44   368.2    9.9      36.910
2014    8       10    16  12    6.45   368.2    9.9      36.967
2014    8       10    16  18    6.46   368.3    9.9      37.023
2014    8       10    16  23    6.47   368.4   10.0      37.080
2014    8       10    16  29    6.48   368.4   10.0      37.137
2014    8       10    16  34    6.49   368.5   10.0      37.194
2014    8       10    16  40    6.50   368.6   10.0      37.251
2014    8       10    16  46    6.51   368.6   10.0      37.308
2014    8       10    16  51    6.52   368.7   10.0      37.366
2014    8       10    16  57    6.53   368.8   10.0      37.424
2014    8       10    17   2    6.54   368.8   10.0      37.483
2014    8       10    17   8    6.55   368.9   10.0      37.542
2014    8       10    17  13    6.56   369.0   10.1      37.602
2014    8       10    17  19    6.57   369.1   10.1      37.663
2014    8       10    17  24    6.58   369.1   10.1      37.724
2014    8       10    17  30    6.59   369.2   10.1      37.786
2014    8       10    17  36    6.60   369.3   10.1      37.849
2014    8       10    17  41    6.62   369.4   10.1      37.913
2014    8       10    17  47    6.63   369.5   10.1      37.977
2014    8       10    17  52    6.64   369.6   10.1      38.042
2014    8       10    17  58    6.65   369.7   10.2      38.109
2014    8       10    18   3    6.66   369.8   10.2      38.176
2014    8       10    18   9    6.67   369.9   10.2      38.244
2014    8       10    18  15    6.69   370.0   10.2      38.313
2014    8       10    18  20    6.70   370.1   10.2      38.384
2014    8       10    18  26    6.71   370.2   10.2      38.456
2014    8       10    18  31    6.73   370.3   10.3      38.529
2014    8       10    18  37    6.74   370.4   10.3      38.602
2014    8       10    18  42    6.75   370.5   10.3      38.677
2014    8       10    18  48    6.76   370.6   10.3      38.753
2014    8       10    18  54    6.78   370.7   10.3      38.832
2014    8       10    18  59    6.79   370.8   10.4      38.914
2014    8       10    19   5    6.81   371.0   10.4      39.000
2014    8       10    19  10    6.82   371.1   10.4      39.089
2014    8       10    19  16    6.83   371.3   10.4      39.182
2014    8       10    19  21    6.85   371.4   10.5      39.278
2014    8       10    19  27    6.86   371.6   10.5      39.376
2014    8       10    19  32    6.88   371.7   10.5      39.478
2014    8       10    19  38    6.89   371.9   10.6      39.582
2014    8       10    19  44    6.90   372.1   10.6      39.689
2014    8       10    19  49    6.92   372.2   10.6      39.800
2014    8       10    19  55    6.93   372.4   10.6      39.916
2014    8       10    20   0    6.94   372.6   10.7      40.035
2014    8       10    20   6    6.96   372.8   10.7      40.158
2014    8       10    20  11    6.97   373.0   10.7      40.286
2014    8       10    20  17    6.98   373.2   10.7      40.417
2014    8       10    20  23    7.00   373.5   10.8      40.551
2014    8       10    20  28    7.01   373.7   10.8      40.687
2014    8       10    20  34    7.02   373.9   10.8      40.821
2014    8       10    20  39    7.03   374.1   10.8      40.955
2014    8       10    20  45    7.05   374.3   10.8      41.087
2014    8       10    20  50    7.06   374.5   10.9      41.219
2014    8       10    20  56    7.07   374.7   10.9      41.350
2014    8       10    21   2    7.08   374.9   10.9      41.480
2014    8       10    21   7    7.09   375.1   10.9      41.608
2014    8       10    21  13    7.10   375.3   10.9      41.734
2014    8       10    21  18    7.11   375.5   10.9      41.859
2014    8       10    21  24    7.13   375.7   11.0      41.982
2014    8       10    21  29    7.14   375.9   11.0      42.103
2014    8       10    21  35    7.15   376.1   11.0      42.222
2014    8       10    21  41    7.16   376.3   11.0      42.339
2014    8       10    21  46    7.17   376.5   11.0      42.454
2014    8       10    21  52    7.18   376.7   11.0      42.567
2014    8       10    21  57    7.19   376.9   11.0      42.678
2014    8       10    22   3    7.20   377.1   11.0      42.787
2014    8       10    22   8    7.20   377.3   11.0      42.894
2014    8       10    22  14    7.21   377.5   11.0      42.999
2014    8       10    22  20    7.22   377.7   11.0      43.102
2014    8       10    22  25    7.23   377.9   11.0      43.203
2014    8       10    22  31    7.24   378.1   11.0      43.302
2014    8       10    22  36    7.25   378.3   11.0      43.399
2014    8       10    22  42    7.26   378.4   11.0      43.494
2014    8       10    22  47    7.27   378.6   11.0      43.587
2014    8       10    22  53    7.28   378.8   11.0      43.678
2014    8       10    22  58    7.28   379.0   11.0      43.767
2014    8       10    23   4    7.29   379.2   11.0      43.855
2014    8       10    23  10    7.30   379.4   11.0      43.941
2014    8       10    23  15    7.31   379.5   11.0      44.025
2014    8       10    23  21    7.32   379.7   11.0      44.108
2014    8       10    23  26    7.33   379.9   11.0      44.190
2014    8       10    23  32    7.33   380.1   11.0      44.270
2014    8       10    23  37    7.34   380.3   11.0      44.349
2014    8       10    23  43    7.35   380.4   11.0      44.427
2014    8       10    23  49    7.36   380.6   11.0      44.505
2014    8       10    23  54    7.37   380.8   11.0      44.581
2014    8       11     0   0    7.37   381.0   11.0      44.656
2014    8       11     0   5    7.38   381.2   11.0      44.731
2014    8       11     0  11    7.39   381.3   11.0      44.805
2014    8       11     0  16    7.40   381.5   11.0      44.878
2014    8       11     0  22    7.41   381.7   11.0      44.952
2014    8       11     0  28    7.42   381.9   11.0      45.024
2014    8       11     0  33    7.42   382.1   11.0      45.097
2014    8       11     0  39    7.43   382.3   11.0      45.169
2014    8       11     0  44    7.44   382.4   11.0      45.241
2014    8       11     0  50    7.45   382.6   11.0      45.313
2014    8       11     0  55    7.46   382.8   11.0      45.385
2014    8       11     1   1    7.46   383.0   11.0      45.458
2014    8       11     1   7    7.47   383.2   11.0      45.530
2014    8       11     1  12    7.48   383.4   11.0      45.603
2014    8       11     1  18    7.49   383.6   11.0      45.676
2014    8       11     1  23    7.50   383.7   11.0      45.750
2014    8       11     1  29    7.51   383.9   11.0      45.824
2014    8       11     1  34    7.52   384.1   11.0      45.898
2014    8       11     1  40    7.52   384.3   11.0      45.973
2014    8       11     1  45    7.53   384.5   11.0      46.048
2014    8       11     1  51    7.54   384.7   11.0      46.124
2014    8       11     1  57    7.55   384.9   11.0      46.200
2014    8       11     2   2    7.56   385.1   11.0      46.277
2014    8       11     2   8    7.57   385.3   11.0      46.355
2014    8       11     2  13    7.58   385.5   11.1      46.432
2014    8       11     2  19    7.59   385.6   11.1      46.509
2014    8       11     2  24    7.60   385.8   11.1      46.587
2014    8       11     2  30    7.61   386.0   11.1      46.665
2014    8       11     2  36    7.62   386.2   11.1      46.746
2014    8       11     2  41    7.63   386.4   11.1      46.832
2014    8       11     2  47    7.64   386.6   11.1      46.922
2014    8       11     2  52    7.65   386.8   11.1      47.016
2014    8       11     2  58    7.66   387.1   11.1      47.116
2014    8       11     3   3    7.67   387.3   11.1      47.221
2014    8       11     3   9    7.68   387.5   11.2      47.331
2014    8       11     3  15    7.69   387.8   11.2      47.446
2014    8       11     3  20    7.70   388.0   11.2      47.566
2014    8       11     3  26    7.71   388.2   11.2      47.686
2014    8       11     3  31    7.72   388.4   11.2      47.809
2014    8       11     3  37    7.73   388.7   11.2      47.933
2014    8       11     3  42    7.74   388.9   11.2      48.060
2014    8       11     3  48    7.75   389.1   11.3      48.190
2014    8       11     3  53    7.76   389.4   11.3      48.324
2014    8       11     3  59    7.77   389.6   11.3      48.462
2014    8       11     4   5    7.78   389.8   11.3      48.599
2014    8       11     4  10    7.79   390.1   11.3      48.737
2014    8       11     4  16    7.80   390.3   11.3      48.884
2014    8       11     4  21    7.81   390.6   11.4      49.039
2014    8       11     4  27    7.82   390.9   11.4      49.202
2014    8       11     4  32    7.83   391.2   11.4      49.371
2014    8       11     4  38    7.85   391.5   11.4      49.544
2014    8       11     4  44    7.86   391.8   11.5      49.722
2014    8       11     4  49    7.87   392.2   11.5      49.906
2014    8       11     4  55    7.88   392.5   11.5      50.094
2014    8       11     5   0    7.89   392.9   11.5      50.281
2014    8       11     5   6    7.90   393.3   11.5      50.464
2014    8       11     5  11    7.91   393.6   11.5      50.643
2014    8       11     5  17    7.92   394.0   11.5      50.818
2014    8       11     5  23    7.93   394.4   11.6      50.988
2014    8       11     5  28    7.93   394.7   11.6      51.154
2014    8       11     5  34    7.94   395.1   11.6      51.317
2014    8       11     5  39    7.95   395.5   11.6      51.475
2014    8       11     5  45    7.96   395.9   11.6      51.628
2014    8       11     5  50    7.96   396.2   11.6      51.774
2014    8       11     5  56    7.97   396.6   11.6      51.915
2014    8       11     6   2    7.97   397.0   11.6      52.051
2014    8       11     6   7    7.98   397.3   11.6      52.182
2014    8       11     6  13    7.99   397.7   11.6      52.309
2014    8       11     6  18    7.99   398.0   11.6      52.432
2014    8       11     6  24    7.99   398.4   11.5      52.551
2014    8       11     6  29    8.00   398.7   11.5      52.667
2014    8       11     6  35    8.00   399.1   11.5      52.780
2014    8       11     6  41    8.01   399.4   11.5      52.889
2014    8       11     6  46    8.01   399.8   11.5      52.996
2014    8       11     6  52    8.02   400.1   11.5      53.101
2014    8       11     6  57    8.02   400.4   11.5      53.204
2014    8       11     7   3    8.02   400.8   11.5      53.305
2014    8       11     7   8    8.03   401.1   11.4      53.404
2014    8       11     7  14    8.03   401.4   11.4      53.502
2014    8       11     7  19    8.03   401.8   11.4      53.600
2014    8       11     7  25    8.04   402.1   11.4      53.697
2014    8       11     7  31    8.04   402.4   11.4      53.793
2014    8       11     7  36    8.05   402.7   11.4      53.888
2014    8       11     7  42    8.05   403.0   11.4      53.984
2014    8       11     7  47    8.05   403.4   11.3      54.080
2014    8       11     7  53    8.06   403.7   11.3      54.176
2014    8       11     7  58    8.06   404.0   11.3      54.273
2014    8       11     8   4    8.07   404.4   11.3      54.370
2014    8       11     8  10    8.07   404.7   11.3      54.467
2014    8       11     8  15    8.08   405.0   11.3      54.564
2014    8       11     8  21    8.08   405.3   11.2      54.662
2014    8       11     8  26    8.09   405.7   11.2      54.760
2014    8       11     8  32    8.09   406.0   11.2      54.859
2014    8       11     8  37    8.10   406.3   11.2      54.957
2014    8       11     8  43    8.10   406.7   11.2      55.056
2014    8       11     8  49    8.11   407.0   11.2      55.155
2014    8       11     8  54    8.11   407.4   11.1      55.254
2014    8       11     9   0    8.12   407.7   11.1      55.353
2014    8       11     9   5    8.12   408.0   11.1      55.452
2014    8       11     9  11    8.13   408.4   11.1      55.550
2014    8       11     9  16    8.13   408.7   11.1      55.649
2014    8       11     9  22    8.14   409.1   11.1      55.748
2014    8       11     9  28    8.14   409.4   11.0      55.846
2014    8       11     9  33    8.15   409.8   11.0      55.944
2014    8       11     9  39    8.15   410.1   11.0      56.042
2014    8       11     9  44    8.16   410.5   11.0      56.140
2014    8       11     9  50    8.16   410.8   11.0      56.237
2014    8       11     9  55    8.17   411.2   11.0      56.333
2014    8       11    10   1    8.17   411.5   11.0      56.430
2014    8       11    10   6    8.17   411.9   10.9      56.525
2014    8       11    10  12    8.18   412.2   10.9      56.621
2014    8       11    10  18    8.18   412.6   10.9      56.717
2014    8       11    10  23    8.19   412.9   10.9      56.813
2014    8       11    10  29    8.19   413.3   10.9      56.909
2014    8       11    10  34    8.20   413.6   10.9      57.005
2014    8       11    10  40    8.20   413.9   10.9      57.101
2014    8       11    10  45    8.21   414.3   10.9      57.198
2014    8       11    10  51    8.21   414.6   10.9      57.297
2014    8       11    10  57    8.22   415.0   10.8      57.399
2014    8       11    11   2    8.22   415.3   10.8      57.503
2014    8       11    11   8    8.23   415.6   10.8      57.607
2014    8       11    11  13    8.23   415.9   10.8      57.709
2014    8       11    11  19    8.24   416.2   10.8      57.814
2014    8       11    11  24    8.24   416.6   10.8      57.928
2014    8       11    11  30    8.25   416.9   10.8      58.049
2014    8       11    11  36    8.26   417.3   10.8      58.178
2014    8       11    11  41    8.26   417.6   10.9      58.312
2014    8       11    11  47    8.27   418.0   10.9      58.452
2014    8       11    11  52    8.27   418.4   10.9      58.598
2014    8       11    11  58    8.28   418.8   10.9      58.751
2014    8       11    12   3    8.28   419.3   10.9      58.908
2014    8       11    12   9    8.29   419.7   10.9      59.064
2014    8       11    12  15    8.29   420.1   10.9      59.218
2014    8       11    12  20    8.30   420.5   10.9      59.371
2014    8       11    12  26    8.30   421.0   10.9      59.522
2014    8       11    12  31    8.30   421.4   10.9      59.670
2014    8       11    12  37    8.31   421.9   10.9      59.817
2014    8       11    12  42    8.31   422.3   10.9      59.963
2014    8       11    12  48    8.31   422.8   10.9      60.107
2014    8       11    12  53    8.31   423.3   10.9      60.248
2014    8       11    12  59    8.31   423.7   10.8      60.386
2014    8       11    13   5    8.31   424.2   10.8      60.519
2014    8       11    13  10    8.31   424.6   10.8      60.650
2014    8       11    13  16    8.31   425.1   10.8      60.777
2014    8       11    13  21    8.31   425.6   10.8      60.901
2014    8       11    13  27    8.31   426.1   10.8      61.023
2014    8       11    13  32    8.31   426.5   10.8      61.142
2014    8       11    13  38    8.31   427.0   10.8      61.259
2014    8       11    13  44    8.31   427.5   10.7      61.372
2014    8       11    13  49    8.31   427.9   10.7      61.484
2014    8       11    13  55    8.31   428.4   10.7      61.593
2014    8       11    14   0    8.30   428.8   10.7      61.700
2014    8       11    14   6    8.30   429.3   10.7      61.805
2014    8       11    14  11    8.30   429.8   10.6      61.907
2014    8       11    14  17    8.30   430.2   10.6      62.008
2014    8       11    14  23    8.30   430.7   10.6      62.107
2014    8       11    14  28    8.30   431.1   10.6      62.205
2014    8       11    14  34    8.30   431.6   10.6      62.302
2014    8       11    14  39    8.30   432.0   10.5      62.398
2014    8       11    14  45    8.30   432.5   10.5      62.492
2014    8       11    14  50    8.30   432.9   10.5      62.586
2014    8       11    14  56    8.30   433.4   10.5      62.680
2014    8       11    15   2    8.30   433.8   10.5      62.774
2014    8       11    15   7    8.30   434.3   10.4      62.867
2014    8       11    15  13    8.30   434.8   10.4      62.961
2014    8       11    15  18    8.30   435.2   10.4      63.056
2014    8       11    15  24    8.30   435.7   10.4      63.151
2014    8       11    15  29    8.30   436.2   10.4      63.248
2014    8       11    15  35    8.30   436.6   10.3      63.345
2014    8       11    15  40    8.30   437.1   10.3      63.443
2014    8       11    15  46    8.30   437.6   10.3      63.542
2014    8       11    15  52    8.29   438.0   10.3      63.641
2014    8       11    15  57    8.29   438.5   10.2      63.741
2014    8       11    16   3    8.29   439.0   10.2      63.841
2014    8       11    16   8    8.29   439.5   10.2      63.941
2014    8       11    16  14    8.29   439.9   10.2      64.040
2014    8       11    16  19    8.29   440.4   10.1      64.140
2014    8       11    16  25    8.29   440.9   10.1      64.238
2014    8       11    16  31    8.29   441.4   10.1      64.337
2014    8       11    16  36    8.29   441.9   10.1      64.434
2014    8       11    16  42    8.28   442.4   10.0      64.530
2014    8       11    16  47    8.28   442.8   10.0      64.625
2014    8       11    16  53    8.28   443.3   10.0      64.718
2014    8       11    16  58    8.28   443.8   10.0      64.808
2014    8       11    17   4    8.27   444.3    9.9      64.898
2014    8       11    17  10    8.27   444.8    9.9      64.985
2014    8       11    17  15    8.26   445.3    9.9      65.069
2014    8       11    17  21    8.26   445.8    9.8      65.149
2014    8       11    17  26    8.26   446.3    9.8      65.226
2014    8       11    17  32    8.25   446.8    9.8      65.300
2014    8       11    17  37    8.25   447.3    9.7      65.373
2014    8       11    17  43    8.24   447.8    9.7      65.443
2014    8       11    17  49    8.24   448.4    9.7      65.505
2014    8       11    17  54    8.23   448.9    9.6      65.560
2014    8       11    18   0    8.22   449.4    9.6      65.609
2014    8       11    18   5    8.22   449.9    9.5      65.652
2014    8       11    18  11    8.21   450.4    9.5      65.691
2014    8       11    18  16    8.20   450.9    9.5      65.723
2014    8       11    18  22    8.19   451.4    9.4      65.750
2014    8       11    18  27    8.19   451.8    9.4      65.773
2014    8       11    18  33    8.18   452.3    9.4      65.797
2014    8       11    18  39    8.17   452.8    9.3      65.822
2014    8       11    18  44    8.16   453.3    9.3      65.847
2014    8       11    18  50    8.15   453.8    9.2      65.873
2014    8       11    18  55    8.14   454.3    9.2      65.900
2014    8       11    19   1    8.13   454.8    9.2      65.927
2014    8       11    19   6    8.12   455.3    9.1      65.954
2014    8       11    19  12    8.12   455.8    9.1      65.981
2014    8       11    19  18    8.11   456.3    9.1      66.009
2014    8       11    19  23    8.10   456.8    9.0      66.038
2014    8       11    19  29    8.09   457.2    9.0      66.068
2014    8       11    19  34    8.08   457.7    9.0      66.098
2014    8       11    19  40    8.07   458.2    8.9      66.128
2014    8       11    19  45    8.06   458.7    8.9      66.158
2014    8       11    19  51    8.05   459.1    8.9      66.188
2014    8       11    19  57    8.04   459.6    8.9      66.218
2014    8       11    20   2    8.02   460.1    8.8      66.247
2014    8       11    20   8    8.01   460.5    8.8      66.276
2014    8       11    20  13    8.00   461.0    8.8      66.304
2014    8       11    20  19    7.99   461.5    8.7      66.331
2014    8       11    20  24    7.98   461.9    8.7      66.356
2014    8       11    20  30    7.97   462.4    8.7      66.381
2014    8       11    20  36    7.96   462.8    8.6      66.404
2014    8       11    20  41    7.95   463.3    8.6      66.426
2014    8       11    20  47    7.94   463.7    8.6      66.446
2014    8       11    20  52    7.93   464.2    8.6      66.464
2014    8       11    20  58    7.92   464.6    8.5      66.481
2014    8       11    21   3    7.91   465.1    8.5      66.496
2014    8       11    21   9    7.90   465.5    8.5      66.508
2014    8       11    21  15    7.89   466.0    8.4      66.519
2014    8       11    21  20    7.88   466.4    8.4      66.528
2014    8       11    21  26    7.87   466.8    8.4      66.535
2014    8       11    21  31    7.86   467.3    8.4      66.539
2014    8       11    21  37    7.85   467.7    8.3      66.542
2014    8       11    21  42    7.84   468.1    8.3      66.542
2014    8       11    21  48    7.83   468.6    8.3      66.541
2014    8       11    21  53    7.82   469.0    8.3      66.537
2014    8       11    21  59    7.81   469.4    8.2      66.532
2014    8       11    22   5    7.80   469.9    8.2      66.526
2014    8       11    22  10    7.79   470.3    8.2      66.518
2014    8       11    22  16    7.78   470.7    8.1      66.509
2014    8       11    22  21    7.77   471.2    8.1      66.499
2014    8       11    22  27    7.76   471.6    8.1      66.490
2014    8       11    22  32    7.75   472.0    8.1      66.481
2014    8       11    22  38    7.74   472.4    8.0      66.472
2014    8       11    22  44    7.72   472.9    8.0      66.464
2014    8       11    22  49    7.71   473.3    8.0      66.457
2014    8       11    22  55    7.70   473.7    8.0      66.450
2014    8       11    23   0    7.69   474.1    7.9      66.443
2014    8       11    23   6    7.68   474.5    7.9      66.436
2014    8       11    23  11    7.67   475.0    7.9      66.430
2014    8       11    23  17    7.66   475.4    7.9      66.423
2014    8       11    23  23    7.65   475.8    7.8      66.415
2014    8       11    23  28    7.64   476.2    7.8      66.407
2014    8       11    23  34    7.63   476.6    7.8      66.398
2014    8       11    23  39    7.62   477.0    7.8      66.388
2014    8       11    23  45    7.61   477.4    7.7      66.376
2014    8       11    23  50    7.59   477.8    7.7      66.363
2014    8       11    23  56    7.58   478.2    7.7      66.347
2014    8       12     0   2    7.57   478.6    7.6      66.330
2014    8       12     0   7    7.56   479.0    7.6      66.309
2014    8       12     0  13    7.55   479.4    7.6      66.287
2014    8       12     0  18    7.53   479.8    7.5      66.261
2014    8       12     0  24    7.52   480.2    7.5      66.232
2014    8       12     0  29    7.51   480.6    7.5      66.198
2014    8       12     0  35    7.50   481.0    7.5      66.158
2014    8       12     0  40    7.48   481.5    7.4      66.117
2014    8       12     0  46    7.47   481.9    7.4      66.074
2014    8       12     0  52    7.46   482.3    7.4      66.027
2014    8       12     0  57    7.44   482.7    7.3      65.968
2014    8       12     1   3    7.43   483.1    7.3      65.900
2014    8       12     1   8    7.41   483.5    7.3      65.825
2014    8       12     1  14    7.40   483.9    7.2      65.745
2014    8       12     1  19    7.38   484.3    7.2      65.659
2014    8       12     1  25    7.37   484.6    7.2      65.566
2014    8       12     1  31    7.35   485.0    7.1      65.467
2014    8       12     1  36    7.34   485.3    7.1      65.366
2014    8       12     1  42    7.32   485.7    7.1      65.267
2014    8       12     1  47    7.31   486.1    7.0      65.171
2014    8       12     1  53    7.29   486.4    7.0      65.076
2014    8       12     1  58    7.28   486.7    7.0      64.984
2014    8       12     2   4    7.27   487.1    6.9      64.893
2014    8       12     2  10    7.25   487.4    6.9      64.804
2014    8       12     2  15    7.24   487.7    6.9      64.716
2014    8       12     2  21    7.22   488.0    6.9      64.630
2014    8       12     2  26    7.21   488.4    6.8      64.545
2014    8       12     2  32    7.19   488.7    6.8      64.462
2014    8       12     2  37    7.18   489.1    6.8      64.380
2014    8       12     2  43    7.16   489.4    6.8      64.299
2014    8       12     2  48    7.15   489.7    6.7      64.219
2014    8       12     2  54    7.14   490.1    6.7      64.139
2014    8       12     3   0    7.12   490.4    6.7      64.059
2014    8       12     3   5    7.11   490.7    6.7      63.981
2014    8       12     3  11    7.09   491.1    6.6      63.903
2014    8       12     3  16    7.08   491.4    6.6      63.824
2014    8       12     3  22    7.07   491.7    6.6      63.745
2014    8       12     3  27    7.05   492.0    6.6      63.666
2014    8       12     3  33    7.04   492.3    6.6      63.584
2014    8       12     3  39    7.02   492.6    6.5      63.502
2014    8       12     3  44    7.01   492.9    6.5      63.418
2014    8       12     3  50    7.00   493.1    6.5      63.333
2014    8       12     3  55    6.98   493.4    6.5      63.246
2014    8       12     4   1    6.97   493.7    6.4      63.157
2014    8       12     4   6    6.96   494.0    6.4      63.068
2014    8       12     4  12    6.94   494.3    6.4      62.977
2014    8       12     4  18    6.93   494.5    6.4      62.884
2014    8       12     4  23    6.91   494.8    6.4      62.790
2014    8       12     4  29    6.90   495.1    6.3      62.694
2014    8       12     4  34    6.89   495.3    6.3      62.597
2014    8       12     4  40    6.87   495.6    6.3      62.499
2014    8       12     4  45    6.86   495.9    6.3      62.399
2014    8       12     4  51    6.84   496.1    6.3      62.299
2014    8       12     4  57    6.83   496.4    6.2      62.197
2014    8       12     5   2    6.82   496.6    6.2      62.095
2014    8       12     5   8    6.80   496.9    6.2      61.992
2014    8       12     5  13    6.79   497.1    6.2      61.889
2014    8       12     5  19    6.78   497.3    6.2      61.786
2014    8       12     5  24    6.76   497.5    6.1      61.682
2014    8       12     5  30    6.75   497.7    6.1      61.579
2014    8       12     5  36    6.74   497.9    6.1      61.477
2014    8       12     5  41    6.72   498.1    6.1      61.374
2014    8       12     5  47    6.71   498.3    6.1      61.273
2014    8       12     5  52    6.70   498.5    6.0      61.172
2014    8       12     5  58    6.68   498.7    6.0      61.072
2014    8       12     6   3    6.67   498.8    6.0      60.972
2014    8       12     6   9    6.66   499.0    6.0      60.874
2014    8       12     6  14    6.64   499.2    6.0      60.777
2014    8       12     6  20    6.63   499.3    6.0      60.682
2014    8       12     6  26    6.62   499.5    5.9      60.587
2014    8       12     6  31    6.61   499.7    5.9      60.492
2014    8       12     6  37    6.59   499.8    5.9      60.399
2014    8       12     6  42    6.58   500.0    5.9      60.305
2014    8       12     6  48    6.57   500.2    5.9      60.212
2014    8       12     6  53    6.55   500.3    5.9      60.119
2014    8       12     6  59    6.54   500.5    5.8      60.025
2014    8       12     7   5    6.53   500.6    5.8      59.932
2014    8       12     7  10    6.52   500.8    5.8      59.839
2014    8       12     7  16    6.50   500.9    5.8      59.745
2014    8       12     7  21    6.49   501.0    5.8      59.652
2014    8       12     7  27    6.48   501.1    5.8      59.559
2014    8       12     7  32    6.47   501.3    5.8      59.466
2014    8       12     7  38    6.46   501.4    5.7      59.374
2014    8       12     7  44    6.44   501.5    5.7      59.281
2014    8       12     7  49    6.43   501.6    5.7      59.190
2014    8       12     7  55    6.42   501.7    5.7      59.098
2014    8       12     8   0    6.41   501.8    5.7      59.008
2014    8       12     8   6    6.39   501.9    5.7      58.917
2014    8       12     8  11    6.38   501.9    5.7      58.827
2014    8       12     8  17    6.37   502.0    5.7      58.737
2014    8       12     8  23    6.36   502.1    5.7      58.646
2014    8       12     8  28    6.35   502.2    5.6      58.557
2014    8       12     8  34    6.34   502.2    5.6      58.467
2014    8       12     8  39    6.32   502.3    5.6      58.379
2014    8       12     8  45    6.31   502.3    5.6      58.291
2014    8       12     8  50    6.30   502.4    5.6      58.204
2014    8       12     8  56    6.29   502.4    5.6      58.117
2014    8       12     9   1    6.28   502.4    5.6      58.032
2014    8       12     9   7    6.27   502.5    5.6      57.948
2014    8       12     9  13    6.26   502.5    5.6      57.865
2014    8       12     9  18    6.25   502.5    5.6      57.785
2014    8       12     9  24    6.24   502.5    5.5      57.708
2014    8       12     9  29    6.23   502.6    5.5      57.631
2014    8       12     9  35    6.22   502.6    5.5      57.556
2014    8       12     9  40    6.21   502.6    5.5      57.483
2014    8       12     9  46    6.20   502.7    5.5      57.410
2014    8       12     9  52    6.19   502.7    5.5      57.339
2014    8       12     9  57    6.18   502.8    5.5      57.268
2014    8       12    10   3    6.17   502.9    5.5      57.199
2014    8       12    10   8    6.16   502.9    5.5      57.130
2014    8       12    10  14    6.15   503.0    5.5      57.063
2014    8       12    10  19    6.14   503.1    5.5      56.997
2014    8       12    10  25    6.13   503.2    5.5      56.931
2014    8       12    10  31    6.12   503.2    5.4      56.865
2014    8       12    10  36    6.11   503.3    5.4      56.800
2014    8       12    10  42    6.10   503.4    5.4      56.735
2014    8       12    10  47    6.09   503.4    5.4      56.671
2014    8       12    10  53    6.08   503.5    5.4      56.608
2014    8       12    10  58    6.07   503.6    5.4      56.544
2014    8       12    11   4    6.06   503.7    5.4      56.481
2014    8       12    11  10    6.05   503.7    5.4      56.418
2014    8       12    11  15    6.04   503.8    5.4      56.355
2014    8       12    11  21    6.03   503.9    5.4      56.292
2014    8       12    11  26    6.03   504.0    5.4      56.230
2014    8       12    11  32    6.02   504.0    5.3      56.168
2014    8       12    11  37    6.01   504.1    5.3      56.105
2014    8       12    11  43    6.00   504.2    5.3      56.043
2014    8       12    11  48    5.99   504.3    5.3      55.980
2014    8       12    11  54    5.98   504.4    5.3      55.916
2014    8       12    12   0    5.97   504.5    5.3      55.852
2014    8       12    12   5    5.96   504.5    5.3      55.787
2014    8       12    12  11    5.95   504.6    5.3      55.722
2014    8       12    12  16    5.94   504.7    5.3      55.656
2014    8       12    12  22    5.93   504.8    5.3      55.588
2014    8       12    12  27    5.92   504.9    5.3      55.521
2014    8       12    12  33    5.92   504.9    5.3      55.453
2014    8       12    12  39    5.91   505.0    5.2      55.385
2014    8       12    12  44    5.90   505.1    5.2      55.317
2014    8       12    12  50    5.89   505.1    5.2      55.250
2014    8       12    12  55    5.88   505.2    5.2      55.183
2014    8       12    13   1    5.87   505.2    5.2      55.117
2014    8       12    13   6    5.86   505.3    5.2      55.050
2014    8       12    13  12    5.85   505.3    5.2      54.985
2014    8       12    13  18    5.85   505.4    5.2      54.920
2014    8       12    13  23    5.84   505.4    5.2      54.856
2014    8       12    13  29    5.83   505.4    5.2      54.793
2014    8       12    13  34    5.82   505.5    5.2      54.731
2014    8       12    13  40    5.81   505.5    5.2      54.671
2014    8       12    13  45    5.80   505.5    5.1      54.611
2014    8       12    13  51    5.80   505.6    5.1      54.553
2014    8       12    13  57    5.79   505.6    5.1      54.495
2014    8       12    14   2    5.78   505.6    5.1      54.437
2014    8       12    14   8    5.77   505.7    5.1      54.381
2014    8       12    14  13    5.76   505.7    5.1      54.325
2014    8       12    14  19    5.76   505.8    5.1      54.270
2014    8       12    14  24    5.75   505.8    5.1      54.215
2014    8       12    14  30    5.74   505.9    5.1      54.160
2014    8       12    14  35    5.73   505.9    5.1      54.105
2014    8       12    14  41    5.73   505.9    5.1      54.050
2014    8       12    14  47    5.72   506.0    5.1      53.995
2014    8       12    14  52    5.71   506.0    5.1      53.941
2014    8       12    14  58    5.70   506.0    5.1      53.887
2014    8       12    15   3    5.70   506.1    5.1      53.834
2014    8       12    15   9    5.69   506.1    5.1      53.781
2014    8       12    15  14    5.68   506.1    5.0      53.728
2014    8       12    15  20    5.67   506.1    5.0      53.675
2014    8       12    15  26    5.67   506.2    5.0      53.622
2014    8       12    15  31    5.66   506.2    5.0      53.570
2014    8       12    15  37    5.65   506.2    5.0      53.517
2014    8       12    15  42    5.65   506.2    5.0      53.465
2014    8       12    15  48    5.64   506.2    5.0      53.413
2014    8       12    15  53    5.63   506.2    5.0      53.361
2014    8       12    15  59    5.62   506.2    5.0      53.309
2014    8       12    16   5    5.62   506.2    5.0      53.257
2014    8       12    16  10    5.61   506.2    5.0      53.204
2014    8       12    16  16    5.60   506.2    5.0      53.153
2014    8       12    16  21    5.60   506.2    5.0      53.102
2014    8       12    16  27    5.59   506.2    5.0      53.052
2014    8       12    16  32    5.58   506.2    5.0      53.003
2014    8       12    16  38    5.58   506.2    5.0      52.954
2014    8       12    16  44    5.57   506.2    5.0      52.906
2014    8       12    16  49    5.56   506.2    5.0      52.858
2014    8       12    16  55    5.56   506.2    5.0      52.810
2014    8       12    17   0    5.55   506.2    5.0      52.763
2014    8       12    17   6    5.54   506.2    5.0      52.716
2014    8       12    17  11    5.54   506.2    4.9      52.669
2014    8       12    17  17    5.53   506.2    4.9      52.621
2014    8       12    17  22    5.53   506.2    4.9      52.574
2014    8       12    17  28    5.52   506.2    4.9      52.526
2014    8       12    17  34    5.51   506.2    4.9      52.477
2014    8       12    17  39    5.51   506.2    4.9      52.429
2014    8       12    17  45    5.50   506.1    4.9      52.380
2014    8       12    17  50    5.49   506.1    4.9      52.332
2014    8       12    17  56    5.49   506.1    4.9      52.283
2014    8       12    18   1    5.48   506.1    4.9      52.233
2014    8       12    18   7    5.48   506.1    4.9      52.184
2014    8       12    18  13    5.47   506.1    4.9      52.135
2014    8       12    18  18    5.46   506.1    4.9      52.085
2014    8       12    18  24    5.46   506.1    4.9      52.035
2014    8       12    18  29    5.45   506.1    4.9      51.986
2014    8       12    18  35    5.45   506.1    4.9      51.936
2014    8       12    18  40    5.44   506.1    4.9      51.886
2014    8       12    18  46    5.43   506.1    4.9      51.836
2014    8       12    18  52    5.43   506.0    4.9      51.786
2014    8       12    18  57    5.42   506.0    4.9      51.736
2014    8       12    19   3    5.42   506.0    4.8      51.686
2014    8       12    19   8    5.41   506.0    4.8      51.636
2014    8       12    19  14    5.41   506.0    4.8      51.586
2014    8       12    19  19    5.40   506.0    4.8      51.536
2014    8       12    19  25    5.39   506.0    4.8      51.486
2014    8       12    19  31    5.39   505.9    4.8      51.437
2014    8       12    19  36    5.38   505.9    4.8      51.387
2014    8       12    19  42    5.38   505.9    4.8      51.338
2014    8       12    19  47    5.37   505.9    4.8      51.289
2014    8       12    19  53    5.37   505.9    4.8      51.240
2014    8       12    19  58    5.36   505.8    4.8      51.191
2014    8       12    20   4    5.36   505.8    4.8      51.143
2014    8       12    20  10    5.35   505.8    4.8      51.095
2014    8       12    20  15    5.35   505.8    4.8      51.048
2014    8       12    20  21    5.34   505.8    4.8      51.001
2014    8       12    20  26    5.33   505.7    4.8      50.954
2014    8       12    20  32    5.33   505.7    4.8      50.908
2014    8       12    20  37    5.32   505.7    4.8      50.862
2014    8       12    20  43    5.32   505.6    4.8      50.817
2014    8       12    20  48    5.31   505.6    4.8      50.773
2014    8       12    20  54    5.31   505.6    4.8      50.729
2014    8       12    21   0    5.30   505.6    4.8      50.686
2014    8       12    21   5    5.30   505.5    4.7      50.643
2014    8       12    21  11    5.29   505.5    4.7      50.601
2014    8       12    21  16    5.29   505.5    4.7      50.560
2014    8       12    21  22    5.28   505.4    4.7      50.520
2014    8       12    21  27    5.28   505.4    4.7      50.480
2014    8       12    21  33    5.27   505.4    4.7      50.441
2014    8       12    21  39    5.27   505.3    4.7      50.402
2014    8       12    21  44    5.26   505.3    4.7      50.364
2014    8       12    21  50    5.26   505.2    4.7      50.327
2014    8       12    21  55    5.25   505.2    4.7      50.289
2014    8       12    22   1    5.25   505.2    4.7      50.253
2014    8       12    22   6    5.25   505.1    4.7      50.217
2014    8       12    22  12    5.24   505.1    4.7      50.181
2014    8       12    22  18    5.24   505.0    4.7      50.146
2014    8       12    22  23    5.23   505.0    4.7      50.111
2014    8       12    22  29    5.23   505.0    4.7      50.076
2014    8       12    22  34    5.22   504.9    4.7      50.042
2014    8       12    22  40    5.22   504.9    4.7      50.008
2014    8       12    22  45    5.21   504.8    4.7      49.974
2014    8       12    22  51    5.21   504.8    4.7      49.940
2014    8       12    22  56    5.21   504.7    4.7      49.907
2014    8       12    23   2    5.20   504.7    4.7      49.874
2014    8       12    23   8    5.20   504.7    4.7      49.841
2014    8       12    23  13    5.19   504.6    4.7      49.808
2014    8       12    23  19    5.19   504.6    4.7      49.776
2014    8       12    23  24    5.18   504.5    4.7      49.743
2014    8       12    23  30    5.18   504.5    4.7      49.711
2014    8       12    23  35    5.18   504.4    4.7      49.679
2014    8       12    23  41    5.17   504.4    4.7      49.648
2014    8       12    23  47    5.17   504.3    4.7      49.616
2014    8       12    23  52    5.16   504.3    4.7      49.585
2014    8       12    23  58    5.16   504.2    4.7      49.554
2014    8       13     0   3    5.15   504.2    4.7      49.524
2014    8       13     0   9    5.15   504.1    4.7      49.493
2014    8       13     0  14    5.15   504.1    4.7      49.464
2014    8       13     0  20    5.14   504.0    4.7      49.434
2014    8       13     0  26    5.14   504.0    4.7      49.405
2014    8       13     0  31    5.14   504.0    4.7      49.376
2014    8       13     0  37    5.13   503.9    4.7      49.348
2014    8       13     0  42    5.13   503.9    4.7      49.320
2014    8       13     0  48    5.13   503.8    4.7      49.292
2014    8       13     0  53    5.12   503.8    4.7      49.264
2014    8       13     0  59    5.12   503.7    4.7      49.237
2014    8       13     1   5    5.11   503.7    4.7      49.210
2014    8       13     1  10    5.11   503.7    4.7      49.184
2014    8       13     1  16    5.11   503.6    4.7      49.158
2014    8       13     1  21    5.10   503.6    4.7      49.133
2014    8       13     1  27    5.10   503.5    4.7      49.109
2014    8       13     1  32    5.10   503.5    4.7      49.085
2014    8       13     1  38    5.09   503.4    4.7      49.061
2014    8       13     1  44    5.09   503.4    4.7      49.038
2014    8       13     1  49    5.09   503.4    4.7      49.014
2014    8       13     1  55    5.08   503.3    4.7      48.990
2014    8       13     2   0    5.08   503.3    4.7      48.965
2014    8       13     2   6    5.08   503.2    4.7      48.941
2014    8       13     2  11    5.07   503.2    4.7      48.916
2014    8       13     2  17    5.07   503.1    4.7      48.892
2014    8       13     2  22    5.06   503.1    4.6      48.867
2014    8       13     2  28    5.06   503.0    4.6      48.841
2014    8       13     2  34    5.06   503.0    4.6      48.816
2014    8       13     2  39    5.05   502.9    4.6      48.790
2014    8       13     2  45    5.05   502.9    4.6      48.764
2014    8       13     2  50    5.05   502.8    4.6      48.738
2014    8       13     2  56    5.04   502.8    4.6      48.711
2014    8       13     3   1    5.04   502.7    4.6      48.685
2014    8       13     3   7    5.04   502.7    4.6      48.658
2014    8       13     3  13    5.03   502.6    4.6      48.632
2014    8       13     3  18    5.03   502.6    4.6      48.605
2014    8       13     3  24    5.03   502.5    4.6      48.578
2014    8       13     3  29    5.02   502.5    4.6      48.551
2014    8       13     3  35    5.02   502.4    4.6      48.525
2014    8       13     3  40    5.02   502.4    4.6      48.498
2014    8       13     3  46    5.01   502.3    4.6      48.471
2014    8       13     3  52    5.01   502.2    4.6      48.444
2014    8       13     3  57    5.01   502.2    4.6      48.417
2014    8       13     4   3    5.00   502.1    4.6      48.391
2014    8       13     4   8    5.00   502.1    4.6      48.364
2014    8       13     4  14    5.00   502.0    4.6      48.337
2014    8       13     4  19    4.99   501.9    4.6      48.310
2014    8       13     4  25    4.99   501.9    4.6      48.283
2014    8       13     4  31    4.99   501.8    4.6      48.257
2014    8       13     4  36    4.98   501.7    4.6      48.230
2014    8       13     4  42    4.98   501.7    4.6      48.203
2014    8       13     4  47    4.98   501.6    4.6      48.176
2014    8       13     4  53    4.97   501.5    4.6      48.148
2014    8       13     4  58    4.97   501.5    4.6      48.121
2014    8       13     5   4    4.97   501.4    4.6      48.094
2014    8       13     5   9    4.96   501.4    4.6      48.066
2014    8       13     5  15    4.96   501.3    4.6      48.039
2014    8       13     5  21    4.96   501.2    4.6      48.011
2014    8       13     5  26    4.95   501.2    4.6      47.983
2014    8       13     5  32    4.95   501.1    4.6      47.955
2014    8       13     5  37    4.95   501.0    4.6      47.926
2014    8       13     5  43    4.95   500.9    4.6      47.898
2014    8       13     5  48    4.94   500.9    4.6      47.869
2014    8       13     5  54    4.94   500.8    4.6      47.840
2014    8       13     6   0    4.94   500.7    4.6      47.811
2014    8       13     6   5    4.93   500.7    4.6      47.782
2014    8       13     6  11    4.93   500.6    4.6      47.753
2014    8       13     6  16    4.93   500.5    4.6      47.723
2014    8       13     6  22    4.93   500.4    4.6      47.694
2014    8       13     6  27    4.92   500.4    4.6      47.664
2014    8       13     6  33    4.92   500.3    4.6      47.635
2014    8       13     6  39    4.92   500.2    4.6      47.605
2014    8       13     6  44    4.92   500.1    4.6      47.576
2014    8       13     6  50    4.91   500.1    4.6      47.547
2014    8       13     6  55    4.91   500.0    4.6      47.517
2014    8       13     7   1    4.91   499.9    4.6      47.489
2014    8       13     7   6    4.90   499.8    4.6      47.460
2014    8       13     7  12    4.90   499.8    4.6      47.432
2014    8       13     7  18    4.90   499.7    4.6      47.404
2014    8       13     7  23    4.90   499.6    4.6      47.377
2014    8       13     7  29    4.90   499.5    4.6      47.350
2014    8       13     7  34    4.89   499.5    4.6      47.324
2014    8       13     7  40    4.89   499.4    4.6      47.298
2014    8       13     7  45    4.89   499.3    4.6      47.273
2014    8       13     7  51    4.89   499.2    4.6      47.249
2014    8       13     7  56    4.88   499.2    4.6      47.225
2014    8       13     8   2    4.88   499.1    4.6      47.202
2014    8       13     8   8    4.88   499.0    4.6      47.179
2014    8       13     8  13    4.88   499.0    4.6      47.157
2014    8       13     8  19    4.88   498.9    4.6      47.136
2014    8       13     8  24    4.87   498.8    4.6      47.115
2014    8       13     8  30    4.87   498.8    4.6      47.095
2014    8       13     8  35    4.87   498.7    4.6      47.076
2014    8       13     8  41    4.87   498.7    4.6      47.057
2014    8       13     8  47    4.86   498.6    4.6      47.039
2014    8       13     8  52    4.86   498.5    4.6      47.022
2014    8       13     8  58    4.86   498.5    4.6      47.005
2014    8       13     9   3    4.86   498.4    4.6      46.989
2014    8       13     9   9    4.86   498.3    4.6      46.972
2014    8       13     9  14    4.85   498.3    4.6      46.955
2014    8       13     9  20    4.85   498.2    4.6      46.938
2014    8       13     9  26    4.85   498.2    4.6      46.920
2014    8       13     9  31    4.85   498.1    4.6      46.903
2014    8       13     9  37    4.84   498.0    4.6      46.885
2014    8       13     9  42    4.84   498.0    4.6      46.867
2014    8       13     9  48    4.84   497.9    4.6      46.848
2014    8       13     9  53    4.84   497.8    4.6      46.829
2014    8       13     9  59    4.83   497.8    4.6      46.810
2014    8       13    10   5    4.83   497.7    4.6      46.791
2014    8       13    10  10    4.83   497.6    4.6      46.771
2014    8       13    10  16    4.83   497.6    4.6      46.751
2014    8       13    10  21    4.82   497.5    4.6      46.731
2014    8       13    10  27    4.82   497.4    4.6      46.711
2014    8       13    10  32    4.82   497.4    4.6      46.691
2014    8       13    10  38    4.82   497.3    4.6      46.671
2014    8       13    10  43    4.81   497.2    4.6      46.651
2014    8       13    10  49    4.81   497.1    4.6      46.630
2014    8       13    10  55    4.81   497.1    4.6      46.610
2014    8       13    11   0    4.81   497.0    4.6      46.590
2014    8       13    11   6    4.80   496.9    4.6      46.570
2014    8       13    11  11    4.80   496.9    4.6      46.550
2014    8       13    11  17    4.80   496.8    4.6      46.531
2014    8       13    11  22    4.80   496.7    4.6      46.511
2014    8       13    11  28    4.80   496.6    4.6      46.492
2014    8       13    11  34    4.79   496.6    4.6      46.472
2014    8       13    11  39    4.79   496.5    4.6      46.453
2014    8       13    11  45    4.79   496.4    4.6      46.434
2014    8       13    11  50    4.79   496.4    4.6      46.416
2014    8       13    11  56    4.78   496.3    4.6      46.398
2014    8       13    12   1    4.78   496.2    4.6      46.380
2014    8       13    12   7    4.78   496.1    4.6      46.361
2014    8       13    12  13    4.78   496.1    4.6      46.344
2014    8       13    12  18    4.78   496.0    4.6      46.326
2014    8       13    12  24    4.77   495.9    4.6      46.309
2014    8       13    12  29    4.77   495.8    4.6      46.292
2014    8       13    12  35    4.77   495.8    4.6      46.276
2014    8       13    12  40    4.77   495.7    4.6      46.260
2014    8       13    12  46    4.77   495.6    4.6      46.245
2014    8       13    12  51    4.76   495.5    4.6      46.231
2014    8       13    12  57    4.76   495.5    4.6      46.217
2014    8       13    13   3    4.76   495.4    4.6      46.204
2014    8       13    13   8    4.76   495.3    4.6      46.190
2014    8       13    13  14    4.76   495.3    4.6      46.176
2014    8       13    13  19    4.75   495.2    4.6      46.161
2014    8       13    13  25    4.75   495.1    4.6      46.147
2014    8       13    13  30    4.75   495.0    4.6      46.131
2014    8       13    13  36    4.75   495.0    4.6      46.116
2014    8       13    13  42    4.75   494.9    4.6      46.100
2014    8       13    13  47    4.74   494.8    4.6      46.084
2014    8       13    13  53    4.74   494.7    4.6      46.067
2014    8       13    13  58    4.74   494.6    4.6      46.050
2014    8       13    14   4    4.74   494.6    4.6      46.033
2014    8       13    14   9    4.74   494.5    4.6      46.016
2014    8       13    14  15    4.73   494.4    4.6      45.998
2014    8       13    14  21    4.73   494.3    4.6      45.980
2014    8       13    14  26    4.73   494.3    4.6      45.961
2014    8       13    14  32    4.73   494.2    4.6      45.942
2014    8       13    14  37    4.73   494.1    4.6      45.923
2014    8       13    14  43    4.73   494.0    4.6      45.903
2014    8       13    14  48    4.72   493.9    4.6      45.883
2014    8       13    14  54    4.72   493.9    4.6      45.863
2014    8       13    15   0    4.72   493.8    4.5      45.843
2014    8       13    15   5    4.72   493.7    4.5      45.822
2014    8       13    15  11    4.72   493.6    4.5      45.801
2014    8       13    15  16    4.72   493.6    4.5      45.780
2014    8       13    15  22    4.71   493.5    4.5      45.759
2014    8       13    15  27    4.71   493.4    4.5      45.738
2014    8       13    15  33    4.71   493.3    4.5      45.716
2014    8       13    15  39    4.71   493.2    4.5      45.695
2014    8       13    15  44    4.71   493.2    4.5      45.673
2014    8       13    15  50    4.70   493.1    4.5      45.651
2014    8       13    15  55    4.70   493.0    4.5      45.629
2014    8       13    16   1    4.70   492.9    4.5      45.607
2014    8       13    16   6    4.70   492.8    4.5      45.585
2014    8       13    16  12    4.70   492.8    4.5      45.562
2014    8       13    16  17    4.70   492.7    4.5      45.540
2014    8       13    16  23    4.69   492.6    4.5      45.517
2014    8       13    16  29    4.69   492.5    4.5      45.494
2014    8       13    16  34    4.69   492.4    4.5      45.471
2014    8       13    16  40    4.69   492.4    4.5      45.448
2014    8       13    16  45    4.69   492.3    4.5      45.424
2014    8       13    16  51    4.68   492.2    4.5      45.401
2014    8       13    16  56    4.68   492.1    4.5      45.377
2014    8       13    17   2    4.68   492.1    4.5      45.353
2014    8       13    17   8    4.68   492.0    4.5      45.329
2014    8       13    17  13    4.68   491.9    4.5      45.304
2014    8       13    17  19    4.67   491.8    4.5      45.280
2014    8       13    17  24    4.67   491.7    4.5      45.255
2014    8       13    17  30    4.67   491.6    4.5      45.230
2014    8       13    17  35    4.67   491.6    4.5      45.205
2014    8       13    17  41    4.67   491.5    4.5      45.180
2014    8       13    17  47    4.66   491.4    4.5      45.155
2014    8       13    17  52    4.66   491.3    4.5      45.129
2014    8       13    17  58    4.66   491.2    4.5      45.104
2014    8       13    18   3    4.66   491.1    4.5      45.079
2014    8       13    18   9    4.66   491.0    4.5      45.054
2014    8       13    18  14    4.65   490.9    4.5      45.029
2014    8       13    18  20    4.65   490.9    4.5      45.005
2014    8       13    18  26    4.65   490.8    4.5      44.981
2014    8       13    18  31    4.65   490.7    4.5      44.957
2014    8       13    18  37    4.65   490.6    4.5      44.933
2014    8       13    18  42    4.65   490.5    4.5      44.910
2014    8       13    18  48    4.64   490.4    4.5      44.887
2014    8       13    18  53    4.64   490.3    4.5      44.864
2014    8       13    18  59    4.64   490.3    4.5      44.843
2014    8       13    19   4    4.64   490.2    4.5      44.821
2014    8       13    19  10    4.64   490.1    4.5      44.800
2014    8       13    19  16    4.63   490.0    4.5      44.780
2014    8       13    19  21    4.63   489.9    4.5      44.760
2014    8       13    19  27    4.63   489.8    4.5      44.741
2014    8       13    19  32    4.63   489.7    4.5      44.722
2014    8       13    19  38    4.63   489.7    4.5      44.704
2014    8       13    19  43    4.63   489.6    4.5      44.687
2014    8       13    19  49    4.63   489.5    4.5      44.670
2014    8       13    19  55    4.62   489.4    4.5      44.655
2014    8       13    20   0    4.62   489.3    4.5      44.641
2014    8       13    20   6    4.62   489.2    4.5      44.627
2014    8       13    20  11    4.62   489.2    4.5      44.615
2014    8       13    20  17    4.62   489.1    4.5      44.604
2014    8       13    20  22    4.62   489.0    4.5      44.593
2014    8       13    20  28    4.61   488.9    4.5      44.583
2014    8       13    20  34    4.61   488.8    4.5      44.573
2014    8       13    20  39    4.61   488.8    4.5      44.563
2014    8       13    20  45    4.61   488.7    4.5      44.553
2014    8       13    20  50    4.61   488.6    4.5      44.543
2014    8       13    20  56    4.61   488.5    4.5      44.533
2014    8       13    21   1    4.61   488.4    4.5      44.523
2014    8       13    21   7    4.60   488.4    4.5      44.514
2014    8       13    21  13    4.60   488.3    4.5      44.504
2014    8       13    21  18    4.60   488.2    4.5      44.494
2014    8       13    21  24    4.60   488.1    4.6      44.483
2014    8       13    21  29    4.60   488.0    4.6      44.473
2014    8       13    21  35    4.60   488.0    4.6      44.462
2014    8       13    21  40    4.60   487.9    4.6      44.450
2014    8       13    21  46    4.59   487.8    4.6      44.438
2014    8       13    21  51    4.59   487.7    4.6      44.426
2014    8       13    21  57    4.59   487.6    4.6      44.414
2014    8       13    22   3    4.59   487.5    4.6      44.401
2014    8       13    22   8    4.59   487.5    4.6      44.388
2014    8       13    22  14    4.59   487.4    4.6      44.374
2014    8       13    22  19    4.58   487.3    4.6      44.360
2014    8       13    22  25    4.58   487.2    4.6      44.345
2014    8       13    22  30    4.58   487.1    4.6      44.331
2014    8       13    22  36    4.58   487.0    4.6      44.316
2014    8       13    22  42    4.58   486.9    4.6      44.300
2014    8       13    22  47    4.58   486.9    4.6      44.285
2014    8       13    22  53    4.57   486.8    4.6      44.269
2014    8       13    22  58    4.57   486.7    4.6      44.252
2014    8       13    23   4    4.57   486.6    4.6      44.236
2014    8       13    23   9    4.57   486.5    4.6      44.220
2014    8       13    23  15    4.57   486.4    4.6      44.203
2014    8       13    23  21    4.57   486.3    4.6      44.187
2014    8       13    23  26    4.56   486.2    4.6      44.170
2014    8       13    23  32    4.56   486.1    4.6      44.153
2014    8       13    23  37    4.56   486.1    4.6      44.136
2014    8       13    23  43    4.56   486.0    4.6      44.120
2014    8       13    23  48    4.56   485.9    4.6      44.103
2014    8       13    23  54    4.56   485.8    4.6      44.086
2014    8       14     0   0    4.56   485.7    4.6      44.069
2014    8       14     0   5    4.55   485.6    4.6      44.053
2014    8       14     0  11    4.55   485.5    4.6      44.036
2014    8       14     0  16    4.55   485.4    4.6      44.020
2014    8       14     0  22    4.55   485.3    4.6      44.003
2014    8       14     0  27    4.55   485.3    4.6      43.987
2014    8       14     0  33    4.55   485.2    4.6      43.971
2014    8       14     0  38    4.54   485.1    4.6      43.954
2014    8       14     0  44    4.54   485.0    4.6      43.938
2014    8       14     0  50    4.54   484.9    4.6      43.921
2014    8       14     0  55    4.54   484.8    4.6      43.904
2014    8       14     1   1    4.54   484.7    4.6      43.886
2014    8       14     1   6    4.54   484.6    4.6      43.868
2014    8       14     1  12    4.53   484.5    4.6      43.850
2014    8       14     1  17    4.53   484.4    4.6      43.832
2014    8       14     1  23    4.53   484.4    4.6      43.813
2014    8       14     1  29    4.53   484.3    4.6      43.794
2014    8       14     1  34    4.53   484.2    4.6      43.774
2014    8       14     1  40    4.53   484.1    4.6      43.754
2014    8       14     1  45    4.53   484.0    4.6      43.734
2014    8       14     1  51    4.52   483.9    4.6      43.714
2014    8       14     1  56    4.52   483.8    4.6      43.694
2014    8       14     2   2    4.52   483.7    4.6      43.673
2014    8       14     2   8    4.52   483.6    4.6      43.652
2014    8       14     2  13    4.52   483.5    4.6      43.631
2014    8       14     2  19    4.52   483.4    4.6      43.610
2014    8       14     2  24    4.51   483.3    4.6      43.589
2014    8       14     2  30    4.51   483.2    4.6      43.568
2014    8       14     2  35    4.51   483.1    4.6      43.547
2014    8       14     2  41    4.51   483.0    4.6      43.526
2014    8       14     2  47    4.51   482.9    4.6      43.505
2014    8       14     2  52    4.51   482.8    4.6      43.484
2014    8       14     2  58    4.51   482.7    4.6      43.463
2014    8       14     3   3    4.50   482.7    4.6      43.442
2014    8       14     3   9    4.50   482.6    4.6      43.421
2014    8       14     3  14    4.50   482.5    4.6      43.400
2014    8       14     3  20    4.50   482.4    4.6      43.379
2014    8       14     3  25    4.50   482.3    4.6      43.359
2014    8       14     3  31    4.50   482.2    4.6      43.338
2014    8       14     3  37    4.50   482.1    4.6      43.318
2014    8       14     3  42    4.49   482.0    4.6      43.298
2014    8       14     3  48    4.49   481.9    4.6      43.278
2014    8       14     3  53    4.49   481.8    4.6      43.258
2014    8       14     3  59    4.49   481.7    4.6      43.238
2014    8       14     4   4    4.49   481.6    4.6      43.218
2014    8       14     4  10    4.49   481.5    4.6      43.198
2014    8       14     4  16    4.49   481.4    4.6      43.178
2014    8       14     4  21    4.48   481.3    4.6      43.158
2014    8       14     4  27    4.48   481.2    4.6      43.138
2014    8       14     4  32    4.48   481.1    4.6      43.118
2014    8       14     4  38    4.48   481.0    4.6      43.098
2014    8       14     4  43    4.48   480.9    4.6      43.078
2014    8       14     4  49    4.48   480.8    4.6      43.058
2014    8       14     4  55    4.48   480.7    4.6      43.037
2014    8       14     5   0    4.47   480.6    4.6      43.017
2014    8       14     5   6    4.47   480.5    4.6      42.996
2014    8       14     5  11    4.47   480.4    4.6      42.975
2014    8       14     5  17    4.47   480.3    4.6      42.955
2014    8       14     5  22    4.47   480.2    4.6      42.934
2014    8       14     5  28    4.47   480.1    4.6      42.913
2014    8       14     5  34    4.47   480.0    4.6      42.892
2014    8       14     5  39    4.46   479.9    4.6      42.871
2014    8       14     5  45    4.46   479.8    4.6      42.850
2014    8       14     5  50    4.46   479.6    4.6      42.830
2014    8       14     5  56    4.46   479.5    4.6      42.809
2014    8       14     6   1    4.46   479.4    4.6      42.789
2014    8       14     6   7    4.46   479.3    4.6      42.769
2014    8       14     6  12    4.46   479.2    4.6      42.749
2014    8       14     6  18    4.46   479.1    4.6      42.729
2014    8       14     6  24    4.45   479.0    4.6      42.710
2014    8       14     6  29    4.45   478.9    4.6      42.691
2014    8       14     6  35    4.45   478.7    4.6      42.673
2014    8       14     6  40    4.45   478.6    4.6      42.655
2014    8       14     6  46    4.45   478.5    4.6      42.637
2014    8       14     6  51    4.45   478.4    4.6      42.620
2014    8       14     6  57    4.45   478.3    4.6      42.604
2014    8       14     7   3    4.45   478.2    4.6      42.588
2014    8       14     7   8    4.45   478.1    4.6      42.572
2014    8       14     7  14    4.44   478.0    4.6      42.557
2014    8       14     7  19    4.44   477.9    4.6      42.544
2014    8       14     7  25    4.44   477.8    4.6      42.530
2014    8       14     7  30    4.44   477.6    4.6      42.517
2014    8       14     7  36    4.44   477.5    4.6      42.505
2014    8       14     7  42    4.44   477.4    4.6      42.493
2014    8       14     7  47    4.44   477.3    4.6      42.482
2014    8       14     7  53    4.44   477.2    4.6      42.471
2014    8       14     7  58    4.44   477.1    4.6      42.460
2014    8       14     8   4    4.44   477.0    4.6      42.449
2014    8       14     8   9    4.43   476.9    4.6      42.438
2014    8       14     8  15    4.43   476.8    4.6      42.427
2014    8       14     8  21    4.43   476.7    4.6      42.416
2014    8       14     8  26    4.43   476.6    4.6      42.405
2014    8       14     8  32    4.43   476.5    4.6      42.394
2014    8       14     8  37    4.43   476.4    4.6      42.383
2014    8       14     8  43    4.43   476.3    4.6      42.372
2014    8       14     8  48    4.43   476.2    4.6      42.361
2014    8       14     8  54    4.43   476.1    4.6      42.349
2014    8       14     8  59    4.43   475.9    4.6      42.338
2014    8       14     9   5    4.42   475.8    4.6      42.326
2014    8       14     9  11    4.42   475.7    4.6      42.314
2014    8       14     9  16    4.42   475.6    4.7      42.302
2014    8       14     9  22    4.42   475.5    4.7      42.290
2014    8       14     9  27    4.42   475.4    4.7      42.277
2014    8       14     9  33    4.42   475.3    4.7      42.264
2014    8       14     9  38    4.42   475.2    4.7      42.251
2014    8       14     9  44    4.42   475.1    4.7      42.237
2014    8       14     9  50    4.42   474.9    4.7      42.223
2014    8       14     9  55    4.41   474.8    4.7      42.208
2014    8       14    10   1    4.41   474.7    4.7      42.193
2014    8       14    10   6    4.41   474.6    4.7      42.178
2014    8       14    10  12    4.41   474.5    4.7      42.163
2014    8       14    10  17    4.41   474.4    4.7      42.147
2014    8       14    10  23    4.41   474.3    4.7      42.130
2014    8       14    10  29    4.41   474.2    4.7      42.114
2014    8       14    10  34    4.41   474.1    4.7      42.097
2014    8       14    10  40    4.41   473.9    4.7      42.080
2014    8       14    10  45    4.41   473.8    4.7      42.062
2014    8       14    10  51    4.40   473.7    4.7      42.044
2014    8       14    10  56    4.40   473.6    4.7      42.026
2014    8       14    11   2    4.40   473.5    4.7      42.007
2014    8       14    11   8    4.40   473.4    4.7      41.989
2014    8       14    11  13    4.40   473.2    4.7      41.969
2014    8       14    11  19    4.40   473.1    4.7      41.950
2014    8       14    11  24    4.40   473.0    4.7      41.930
2014    8       14    11  30    4.40   472.9    4.7      41.910
2014    8       14    11  35    4.40   472.8    4.7      41.889
2014    8       14    11  41    4.40   472.7    4.7      41.868
2014    8       14    11  46    4.39   472.6    4.7      41.847
2014    8       14    11  52    4.39   472.4    4.7      41.825
2014    8       14    11  58    4.39   472.3    4.7      41.804
2014    8       14    12   3    4.39   472.2    4.7      41.782
2014    8       14    12   9    4.39   472.1    4.7      41.760
2014    8       14    12  14    4.39   472.0    4.7      41.737
2014    8       14    12  20    4.39   471.8    4.7      41.715
2014    8       14    12  25    4.39   471.7    4.7      41.692
2014    8       14    12  31    4.39   471.6    4.7      41.669
2014    8       14    12  37    4.39   471.5    4.7      41.646
2014    8       14    12  42    4.38   471.4    4.7      41.623
2014    8       14    12  48    4.38   471.2    4.7      41.600
2014    8       14    12  53    4.38   471.1    4.7      41.576
2014    8       14    12  59    4.38   471.0    4.7      41.553
2014    8       14    13   4    4.38   470.9    4.7      41.530
2014    8       14    13  10    4.38   470.7    4.7      41.506
2014    8       14    13  16    4.38   470.6    4.7      41.483
2014    8       14    13  21    4.38   470.5    4.7      41.460
2014    8       14    13  27    4.38   470.4    4.7      41.437
2014    8       14    13  32    4.38   470.2    4.7      41.414
2014    8       14    13  38    4.38   470.1    4.7      41.391
2014    8       14    13  43    4.38   470.0    4.7      41.368
2014    8       14    13  49    4.37   469.9    4.7      41.346
2014    8       14    13  55    4.37   469.7    4.7      41.323
2014    8       14    14   0    4.37   469.6    4.7      41.301
2014    8       14    14   6    4.37   469.5    4.7      41.279
2014    8       14    14  11    4.37   469.4    4.7      41.258
2014    8       14    14  17    4.37   469.3    4.7      41.236
2014    8       14    14  22    4.37   469.1    4.7      41.215
2014    8       14    14  28    4.37   469.0    4.7      41.195
2014    8       14    14  33    4.37   468.9    4.7      41.175
2014    8       14    14  39    4.37   468.8    4.7      41.155
2014    8       14    14  45    4.37   468.6    4.7      41.135
2014    8       14    14  50    4.37   468.5    4.7      41.116
2014    8       14    14  56    4.37   468.4    4.7      41.097
2014    8       14    15   1    4.37   468.3    4.7      41.079
2014    8       14    15   7    4.37   468.1    4.7      41.060
2014    8       14    15  12    4.36   468.0    4.7      41.043
2014    8       14    15  18    4.36   467.9    4.7      41.025
2014    8       14    15  24    4.36   467.8    4.7      41.008
2014    8       14    15  29    4.36   467.6    4.7      40.991
2014    8       14    15  35    4.36   467.5    4.7      40.974
2014    8       14    15  40    4.36   467.4    4.7      40.958
2014    8       14    15  46    4.36   467.3    4.7      40.942
2014    8       14    15  51    4.36   467.2    4.7      40.926
2014    8       14    15  57    4.36   467.0    4.7      40.910
2014    8       14    16   3    4.36   466.9    4.7      40.895
2014    8       14    16   8    4.36   466.8    4.8      40.880
2014    8       14    16  14    4.36   466.6    4.8      40.865
2014    8       14    16  19    4.36   466.5    4.8      40.850
2014    8       14    16  25    4.36   466.4    4.8      40.836
2014    8       14    16  30    4.36   466.3    4.8      40.822
2014    8       14    16  36    4.36   466.1    4.8      40.807
2014    8       14    16  42    4.36   466.0    4.8      40.794
2014    8       14    16  47    4.36   465.9    4.8      40.780
2014    8       14    16  53    4.36   465.8    4.8      40.767
2014    8       14    16  58    4.36   465.6    4.8      40.753
2014    8       14    17   4    4.36   465.5    4.8      40.740
2014    8       14    17   9    4.35   465.4    4.8      40.727
2014    8       14    17  15    4.35   465.2    4.8      40.714
2014    8       14    17  20    4.35   465.1    4.8      40.701
2014    8       14    17  26    4.35   465.0    4.8      40.688
2014    8       14    17  32    4.35   464.9    4.8      40.675
2014    8       14    17  37    4.35   464.7    4.8      40.662
2014    8       14    17  43    4.35   464.6    4.8      40.649
2014    8       14    17  48    4.35   464.5    4.8      40.636
2014    8       14    17  54    4.35   464.4    4.8      40.623
2014    8       14    17  59    4.35   464.2    4.8      40.610
2014    8       14    18   5    4.35   464.1    4.8      40.596
2014    8       14    18  11    4.35   464.0    4.8      40.583
2014    8       14    18  16    4.35   463.9    4.8      40.570
2014    8       14    18  22    4.35   463.7    4.8      40.556
2014    8       14    18  27    4.35   463.6    4.8      40.542
2014    8       14    18  33    4.35   463.5    4.8      40.529
2014    8       14    18  38    4.35   463.4    4.8      40.515
2014    8       14    18  44    4.35   463.2    4.8      40.501
2014    8       14    18  50    4.35   463.1    4.8      40.486
2014    8       14    18  55    4.35   463.0    4.8      40.472
2014    8       14    19   1    4.35   462.9    4.8      40.457
2014    8       14    19   6    4.35   462.7    4.8      40.442
2014    8       14    19  12    4.35   462.6    4.8      40.427
2014    8       14    19  17    4.35   462.5    4.8      40.412
2014    8       14    19  23    4.35   462.4    4.8      40.397
2014    8       14    19  29    4.35   462.2    4.8      40.381
2014    8       14    19  34    4.35   462.1    4.8      40.365
2014    8       14    19  40    4.35   462.0    4.9      40.349
2014    8       14    19  45    4.35   461.9    4.9      40.333
2014    8       14    19  51    4.35   461.7    4.9      40.316
2014    8       14    19  56    4.35   461.6    4.9      40.300
2014    8       14    20   2    4.35   461.5    4.9      40.283
2014    8       14    20   7    4.35   461.4    4.9      40.266
2014    8       14    20  13    4.35   461.2    4.9      40.249
2014    8       14    20  19    4.34   461.1    4.9      40.231
2014    8       14    20  24    4.34   461.0    4.9      40.214
2014    8       14    20  30    4.34   460.9    4.9      40.196
2014    8       14    20  35    4.34   460.7    4.9      40.178
2014    8       14    20  41    4.34   460.6    4.9      40.160
2014    8       14    20  46    4.34   460.5    4.9      40.142
2014    8       14    20  52    4.34   460.4    4.9      40.123
2014    8       14    20  58    4.34   460.2    4.9      40.104
2014    8       14    21   3    4.34   460.1    4.9      40.085
2014    8       14    21   9    4.34   460.0    4.9      40.066
2014    8       14    21  14    4.34   459.9    4.9      40.047
2014    8       14    21  20    4.34   459.7    4.9      40.027
2014    8       14    21  25    4.34   459.6    4.9      40.008
2014    8       14    21  31    4.34   459.5    4.9      39.988
2014    8       14    21  37    4.34   459.3    4.9      39.968
2014    8       14    21  42    4.34   459.2    4.9      39.948
2014    8       14    21  48    4.34   459.1    4.9      39.928
2014    8       14    21  53    4.34   458.9    4.9      39.907
2014    8       14    21  59    4.34   458.8    4.9      39.887
2014    8       14    22   4    4.34   458.7    4.9      39.867
2014    8       14    22  10    4.34   458.6    4.9      39.846
2014    8       14    22  16    4.34   458.4    4.9      39.826
2014    8       14    22  21    4.34   458.3    4.9      39.806
2014    8       14    22  27    4.34   458.2    4.9      39.785
2014    8       14    22  32    4.34   458.0    4.9      39.765
2014    8       14    22  38    4.34   457.9    4.9      39.745
2014    8       14    22  43    4.34   457.8    4.9      39.725
2014    8       14    22  49    4.34   457.6    4.9      39.705
2014    8       14    22  54    4.34   457.5    4.9      39.686
2014    8       14    23   0    4.34   457.4    4.9      39.666
2014    8       14    23   6    4.34   457.2    4.9      39.647
2014    8       14    23  11    4.34   457.1    4.9      39.628
2014    8       14    23  17    4.34   457.0    4.9      39.609
2014    8       14    23  22    4.34   456.8    4.9      39.590
2014    8       14    23  28    4.34   456.7    4.9      39.572
2014    8       14    23  33    4.34   456.6    4.9      39.554
2014    8       14    23  39    4.34   456.4    4.9      39.536
2014    8       14    23  45    4.34   456.3    4.9      39.519
2014    8       14    23  50    4.34   456.2    4.9      39.501
2014    8       14    23  56    4.34   456.0    4.9      39.484
2014    8       15     0   1    4.34   455.9    4.9      39.468
