year    month   day   hour  minute  B_enl V_enl   n_enl       T_enl
[year] [month] [day] [hour][minute] [nT]  [km/s]  [cm-3]      [kK]
2014    8       23     0   3    5.04   465.8    5.9      43.640
2014    8       23     0   8    5.04   465.8    5.9      43.607
2014    8       23     0  14    5.04   465.7    5.9      43.574
2014    8       23     0  19    5.03   465.7    5.9      43.541
2014    8       23     0  25    5.03   465.7    5.9      43.507
2014    8       23     0  31    5.03   465.6    5.9      43.473
2014    8       23     0  36    5.03   465.6    5.9      43.439
2014    8       23     0  42    5.03   465.6    5.9      43.405
2014    8       23     0  47    5.02   465.5    5.9      43.371
2014    8       23     0  53    5.02   465.5    5.9      43.337
2014    8       23     0  58    5.02   465.5    5.9      43.302
2014    8       23     1   4    5.02   465.4    5.9      43.267
2014    8       23     1   9    5.02   465.4    5.9      43.232
2014    8       23     1  15    5.01   465.3    5.9      43.198
2014    8       23     1  21    5.01   465.3    5.9      43.163
2014    8       23     1  26    5.01   465.3    5.9      43.128
2014    8       23     1  32    5.01   465.2    5.9      43.093
2014    8       23     1  37    5.01   465.2    5.9      43.059
2014    8       23     1  43    5.00   465.1    5.9      43.024
2014    8       23     1  48    5.00   465.1    5.9      42.989
2014    8       23     1  54    5.00   465.0    5.9      42.955
2014    8       23     2   0    5.00   465.0    5.9      42.921
2014    8       23     2   5    5.00   465.0    5.9      42.887
2014    8       23     2  11    5.00   464.9    5.9      42.852
2014    8       23     2  16    4.99   464.9    5.9      42.819
2014    8       23     2  22    4.99   464.8    5.9      42.785
2014    8       23     2  27    4.99   464.8    5.9      42.751
2014    8       23     2  33    4.99   464.7    5.9      42.717
2014    8       23     2  39    4.99   464.7    5.9      42.684
2014    8       23     2  44    4.98   464.6    5.9      42.650
2014    8       23     2  50    4.98   464.6    5.9      42.617
2014    8       23     2  55    4.98   464.5    5.9      42.583
2014    8       23     3   1    4.98   464.5    5.9      42.550
2014    8       23     3   6    4.98   464.4    5.9      42.516
2014    8       23     3  12    4.98   464.4    5.9      42.482
2014    8       23     3  18    4.97   464.3    5.9      42.448
2014    8       23     3  23    4.97   464.3    5.9      42.414
2014    8       23     3  29    4.97   464.2    5.9      42.380
2014    8       23     3  34    4.97   464.2    5.9      42.345
2014    8       23     3  40    4.97   464.1    5.9      42.310
2014    8       23     3  45    4.96   464.1    5.9      42.276
2014    8       23     3  51    4.96   464.0    5.9      42.240
2014    8       23     3  57    4.96   464.0    5.8      42.205
2014    8       23     4   2    4.96   463.9    5.8      42.170
2014    8       23     4   8    4.96   463.9    5.8      42.134
2014    8       23     4  13    4.96   463.8    5.8      42.099
2014    8       23     4  19    4.95   463.7    5.8      42.063
2014    8       23     4  24    4.95   463.7    5.8      42.027
2014    8       23     4  30    4.95   463.6    5.8      41.991
2014    8       23     4  35    4.95   463.6    5.8      41.955
2014    8       23     4  41    4.95   463.5    5.8      41.919
2014    8       23     4  47    4.95   463.4    5.8      41.883
2014    8       23     4  52    4.94   463.4    5.8      41.847
2014    8       23     4  58    4.94   463.3    5.8      41.810
2014    8       23     5   3    4.94   463.2    5.8      41.774
2014    8       23     5   9    4.94   463.2    5.8      41.738
2014    8       23     5  14    4.94   463.1    5.8      41.702
2014    8       23     5  20    4.94   463.0    5.8      41.666
2014    8       23     5  26    4.93   463.0    5.8      41.630
2014    8       23     5  31    4.93   462.9    5.8      41.594
2014    8       23     5  37    4.93   462.9    5.8      41.558
2014    8       23     5  42    4.93   462.8    5.8      41.523
2014    8       23     5  48    4.93   462.7    5.8      41.487
2014    8       23     5  53    4.93   462.7    5.8      41.452
2014    8       23     5  59    4.93   462.6    5.8      41.416
2014    8       23     6   5    4.92   462.5    5.8      41.381
2014    8       23     6  10    4.92   462.5    5.8      41.346
2014    8       23     6  16    4.92   462.4    5.8      41.311
2014    8       23     6  21    4.92   462.4    5.8      41.277
2014    8       23     6  27    4.92   462.3    5.8      41.242
2014    8       23     6  32    4.92   462.2    5.8      41.208
2014    8       23     6  38    4.92   462.2    5.8      41.174
2014    8       23     6  44    4.92   462.1    5.8      41.141
2014    8       23     6  49    4.91   462.1    5.8      41.107
2014    8       23     6  55    4.91   462.0    5.8      41.074
2014    8       23     7   0    4.91   461.9    5.8      41.041
2014    8       23     7   6    4.91   461.9    5.8      41.009
2014    8       23     7  11    4.91   461.8    5.8      40.976
2014    8       23     7  17    4.91   461.8    5.8      40.944
2014    8       23     7  23    4.91   461.7    5.8      40.911
2014    8       23     7  28    4.91   461.6    5.8      40.879
2014    8       23     7  34    4.90   461.6    5.8      40.846
2014    8       23     7  39    4.90   461.5    5.8      40.813
2014    8       23     7  45    4.90   461.5    5.8      40.780
2014    8       23     7  50    4.90   461.4    5.8      40.747
2014    8       23     7  56    4.90   461.3    5.8      40.714
2014    8       23     8   1    4.90   461.3    5.8      40.681
2014    8       23     8   7    4.90   461.2    5.8      40.647
2014    8       23     8  13    4.90   461.2    5.8      40.614
2014    8       23     8  18    4.89   461.1    5.8      40.580
2014    8       23     8  24    4.89   461.0    5.8      40.547
2014    8       23     8  29    4.89   461.0    5.8      40.513
2014    8       23     8  35    4.89   460.9    5.8      40.480
2014    8       23     8  40    4.89   460.8    5.8      40.446
2014    8       23     8  46    4.89   460.8    5.8      40.412
2014    8       23     8  52    4.89   460.7    5.8      40.379
2014    8       23     8  57    4.89   460.6    5.8      40.345
2014    8       23     9   3    4.89   460.6    5.8      40.311
2014    8       23     9   8    4.88   460.5    5.8      40.277
2014    8       23     9  14    4.88   460.4    5.8      40.243
2014    8       23     9  19    4.88   460.4    5.8      40.210
2014    8       23     9  25    4.88   460.3    5.8      40.176
2014    8       23     9  31    4.88   460.2    5.8      40.142
2014    8       23     9  36    4.88   460.2    5.8      40.108
2014    8       23     9  42    4.88   460.1    5.8      40.074
2014    8       23     9  47    4.88   460.0    5.8      40.041
2014    8       23     9  53    4.87   460.0    5.8      40.007
2014    8       23     9  58    4.87   459.9    5.8      39.973
2014    8       23    10   4    4.87   459.8    5.8      39.939
2014    8       23    10  10    4.87   459.8    5.8      39.905
2014    8       23    10  15    4.87   459.7    5.8      39.871
2014    8       23    10  21    4.87   459.6    5.8      39.837
2014    8       23    10  26    4.87   459.6    5.8      39.803
2014    8       23    10  32    4.87   459.5    5.8      39.769
2014    8       23    10  37    4.86   459.4    5.8      39.735
2014    8       23    10  43    4.86   459.3    5.8      39.701
2014    8       23    10  49    4.86   459.3    5.8      39.667
2014    8       23    10  54    4.86   459.2    5.8      39.634
2014    8       23    11   0    4.86   459.1    5.8      39.600
2014    8       23    11   5    4.86   459.0    5.8      39.566
2014    8       23    11  11    4.86   459.0    5.8      39.533
2014    8       23    11  16    4.86   458.9    5.8      39.499
2014    8       23    11  22    4.86   458.8    5.8      39.466
2014    8       23    11  27    4.85   458.7    5.8      39.433
2014    8       23    11  33    4.85   458.7    5.8      39.400
2014    8       23    11  39    4.85   458.6    5.8      39.366
2014    8       23    11  44    4.85   458.5    5.8      39.333
2014    8       23    11  50    4.85   458.4    5.8      39.300
2014    8       23    11  55    4.85   458.4    5.8      39.267
2014    8       23    12   1    4.85   458.3    5.8      39.235
2014    8       23    12   6    4.85   458.2    5.8      39.202
2014    8       23    12  12    4.85   458.1    5.8      39.169
2014    8       23    12  18    4.85   458.1    5.8      39.137
2014    8       23    12  23    4.84   458.0    5.8      39.104
2014    8       23    12  29    4.84   457.9    5.8      39.072
2014    8       23    12  34    4.84   457.8    5.8      39.039
2014    8       23    12  40    4.84   457.8    5.8      39.007
2014    8       23    12  45    4.84   457.7    5.8      38.974
2014    8       23    12  51    4.84   457.6    5.8      38.942
2014    8       23    12  57    4.84   457.5    5.8      38.909
2014    8       23    13   2    4.84   457.4    5.8      38.877
2014    8       23    13   8    4.84   457.4    5.8      38.844
2014    8       23    13  13    4.84   457.3    5.8      38.811
2014    8       23    13  19    4.84   457.2    5.8      38.779
2014    8       23    13  24    4.83   457.1    5.8      38.746
2014    8       23    13  30    4.83   457.0    5.8      38.713
2014    8       23    13  36    4.83   457.0    5.8      38.681
2014    8       23    13  41    4.83   456.9    5.8      38.648
2014    8       23    13  47    4.83   456.8    5.8      38.616
2014    8       23    13  52    4.83   456.7    5.8      38.583
2014    8       23    13  58    4.83   456.6    5.8      38.551
2014    8       23    14   3    4.83   456.5    5.8      38.519
2014    8       23    14   9    4.83   456.4    5.8      38.487
2014    8       23    14  14    4.83   456.4    5.8      38.455
2014    8       23    14  20    4.83   456.3    5.8      38.423
2014    8       23    14  26    4.83   456.2    5.8      38.392
2014    8       23    14  31    4.82   456.1    5.8      38.360
2014    8       23    14  37    4.82   456.0    5.8      38.329
2014    8       23    14  42    4.82   455.9    5.8      38.298
2014    8       23    14  48    4.82   455.8    5.8      38.268
2014    8       23    14  53    4.82   455.8    5.8      38.237
2014    8       23    14  59    4.82   455.7    5.8      38.207
2014    8       23    15   5    4.82   455.6    5.8      38.177
2014    8       23    15  10    4.82   455.5    5.8      38.147
2014    8       23    15  16    4.82   455.4    5.8      38.117
2014    8       23    15  21    4.82   455.3    5.8      38.087
2014    8       23    15  27    4.82   455.2    5.8      38.058
2014    8       23    15  32    4.82   455.1    5.8      38.029
2014    8       23    15  38    4.82   455.0    5.8      38.000
2014    8       23    15  44    4.82   455.0    5.8      37.971
2014    8       23    15  49    4.82   454.9    5.8      37.943
2014    8       23    15  55    4.81   454.8    5.8      37.914
2014    8       23    16   0    4.81   454.7    5.8      37.886
2014    8       23    16   6    4.81   454.6    5.8      37.857
2014    8       23    16  11    4.81   454.5    5.8      37.828
2014    8       23    16  17    4.81   454.4    5.8      37.800
2014    8       23    16  23    4.81   454.3    5.8      37.771
2014    8       23    16  28    4.81   454.2    5.8      37.742
2014    8       23    16  34    4.81   454.1    5.8      37.713
2014    8       23    16  39    4.81   454.0    5.8      37.684
2014    8       23    16  45    4.81   454.0    5.8      37.654
2014    8       23    16  50    4.81   453.9    5.8      37.624
2014    8       23    16  56    4.81   453.8    5.8      37.595
2014    8       23    17   2    4.81   453.7    5.8      37.565
2014    8       23    17   7    4.81   453.6    5.8      37.535
2014    8       23    17  13    4.81   453.5    5.8      37.505
2014    8       23    17  18    4.81   453.4    5.8      37.474
2014    8       23    17  24    4.81   453.3    5.8      37.444
2014    8       23    17  29    4.81   453.2    5.8      37.414
2014    8       23    17  35    4.81   453.1    5.8      37.384
2014    8       23    17  40    4.80   453.0    5.8      37.353
2014    8       23    17  46    4.80   452.9    5.8      37.323
2014    8       23    17  52    4.80   452.8    5.8      37.293
2014    8       23    17  57    4.80   452.7    5.8      37.262
2014    8       23    18   3    4.80   452.6    5.8      37.232
2014    8       23    18   8    4.80   452.5    5.8      37.202
2014    8       23    18  14    4.80   452.4    5.8      37.171
2014    8       23    18  19    4.80   452.3    5.8      37.141
2014    8       23    18  25    4.80   452.2    5.8      37.110
2014    8       23    18  31    4.80   452.1    5.8      37.080
2014    8       23    18  36    4.80   452.0    5.8      37.049
2014    8       23    18  42    4.80   451.9    5.8      37.019
2014    8       23    18  47    4.80   451.8    5.8      36.989
2014    8       23    18  53    4.80   451.7    5.8      36.958
2014    8       23    18  58    4.80   451.6    5.8      36.928
2014    8       23    19   4    4.80   451.5    5.8      36.897
2014    8       23    19  10    4.80   451.4    5.8      36.867
2014    8       23    19  15    4.80   451.3    5.9      36.837
2014    8       23    19  21    4.80   451.2    5.9      36.806
2014    8       23    19  26    4.80   451.1    5.9      36.776
2014    8       23    19  32    4.80   451.0    5.9      36.746
2014    8       23    19  37    4.80   450.9    5.9      36.716
2014    8       23    19  43    4.79   450.8    5.9      36.686
2014    8       23    19  49    4.79   450.6    5.9      36.656
2014    8       23    19  54    4.79   450.5    5.9      36.627
2014    8       23    20   0    4.79   450.4    5.9      36.597
2014    8       23    20   5    4.79   450.3    5.9      36.568
2014    8       23    20  11    4.79   450.2    5.9      36.539
2014    8       23    20  16    4.79   450.1    5.9      36.510
2014    8       23    20  22    4.79   450.0    5.9      36.481
2014    8       23    20  27    4.79   449.9    5.9      36.452
2014    8       23    20  33    4.79   449.8    5.9      36.424
2014    8       23    20  39    4.79   449.6    5.9      36.396
2014    8       23    20  44    4.79   449.5    5.9      36.368
2014    8       23    20  50    4.79   449.4    5.9      36.341
2014    8       23    20  55    4.79   449.3    5.9      36.314
2014    8       23    21   1    4.79   449.2    5.9      36.287
2014    8       23    21   6    4.79   449.1    5.9      36.261
2014    8       23    21  12    4.79   448.9    5.9      36.235
2014    8       23    21  18    4.79   448.8    5.9      36.209
2014    8       23    21  23    4.79   448.7    5.9      36.184
2014    8       23    21  29    4.79   448.6    5.9      36.160
2014    8       23    21  34    4.79   448.5    5.9      36.136
2014    8       23    21  40    4.79   448.3    5.9      36.112
2014    8       23    21  45    4.79   448.2    5.9      36.089
2014    8       23    21  51    4.79   448.1    5.9      36.066
2014    8       23    21  57    4.79   448.0    5.9      36.044
2014    8       23    22   2    4.79   447.8    5.9      36.022
2014    8       23    22   8    4.79   447.7    5.9      36.001
2014    8       23    22  13    4.79   447.6    5.9      35.981
2014    8       23    22  19    4.79   447.5    5.9      35.961
2014    8       23    22  24    4.79   447.4    5.9      35.941
2014    8       23    22  30    4.80   447.2    5.9      35.922
2014    8       23    22  36    4.80   447.1    5.9      35.904
2014    8       23    22  41    4.80   447.0    5.9      35.886
2014    8       23    22  47    4.80   446.9    5.9      35.868
2014    8       23    22  52    4.80   446.7    5.9      35.852
2014    8       23    22  58    4.80   446.6    6.0      35.835
2014    8       23    23   3    4.80   446.5    6.0      35.819
2014    8       23    23   9    4.80   446.4    6.0      35.803
2014    8       23    23  15    4.80   446.3    6.0      35.787
2014    8       23    23  20    4.80   446.1    6.0      35.771
2014    8       23    23  26    4.80   446.0    6.0      35.756
2014    8       23    23  31    4.80   445.9    6.0      35.741
2014    8       23    23  37    4.80   445.8    6.0      35.725
2014    8       23    23  42    4.80   445.7    6.0      35.710
2014    8       23    23  48    4.81   445.5    6.0      35.694
2014    8       23    23  53    4.81   445.4    6.0      35.679
2014    8       23    23  59    4.81   445.3    6.0      35.663
2014    8       24     0   5    4.81   445.2    6.0      35.647
2014    8       24     0  10    4.81   445.1    6.0      35.631
2014    8       24     0  16    4.81   445.0    6.0      35.615
2014    8       24     0  21    4.81   444.8    6.0      35.599
2014    8       24     0  27    4.81   444.7    6.0      35.583
2014    8       24     0  32    4.81   444.6    6.0      35.566
2014    8       24     0  38    4.81   444.5    6.1      35.550
2014    8       24     0  44    4.82   444.4    6.1      35.533
2014    8       24     0  49    4.82   444.3    6.1      35.516
2014    8       24     0  55    4.82   444.2    6.1      35.499
2014    8       24     1   0    4.82   444.0    6.1      35.482
2014    8       24     1   6    4.82   443.9    6.1      35.465
2014    8       24     1  11    4.82   443.8    6.1      35.448
2014    8       24     1  17    4.82   443.7    6.1      35.431
2014    8       24     1  23    4.82   443.6    6.1      35.413
2014    8       24     1  28    4.82   443.5    6.1      35.396
2014    8       24     1  34    4.83   443.4    6.1      35.379
2014    8       24     1  39    4.83   443.3    6.1      35.361
2014    8       24     1  45    4.83   443.1    6.1      35.344
2014    8       24     1  50    4.83   443.0    6.1      35.326
2014    8       24     1  56    4.83   442.9    6.1      35.309
2014    8       24     2   2    4.83   442.8    6.1      35.291
2014    8       24     2   7    4.83   442.7    6.1      35.274
2014    8       24     2  13    4.84   442.6    6.1      35.257
2014    8       24     2  18    4.84   442.5    6.1      35.240
2014    8       24     2  24    4.84   442.4    6.2      35.223
2014    8       24     2  29    4.84   442.3    6.2      35.206
2014    8       24     2  35    4.84   442.2    6.2      35.189
2014    8       24     2  40    4.84   442.1    6.2      35.173
2014    8       24     2  46    4.84   442.0    6.2      35.156
2014    8       24     2  52    4.85   441.9    6.2      35.140
2014    8       24     2  57    4.85   441.7    6.2      35.124
2014    8       24     3   3    4.85   441.6    6.2      35.108
2014    8       24     3   8    4.85   441.5    6.2      35.093
2014    8       24     3  14    4.85   441.4    6.2      35.078
2014    8       24     3  19    4.85   441.3    6.2      35.063
2014    8       24     3  25    4.86   441.2    6.2      35.048
2014    8       24     3  31    4.86   441.1    6.2      35.034
2014    8       24     3  36    4.86   441.0    6.2      35.020
2014    8       24     3  42    4.86   440.9    6.2      35.006
2014    8       24     3  47    4.86   440.8    6.2      34.993
2014    8       24     3  53    4.86   440.7    6.2      34.980
2014    8       24     3  58    4.87   440.6    6.2      34.967
2014    8       24     4   4    4.87   440.5    6.3      34.955
2014    8       24     4  10    4.87   440.4    6.3      34.943
2014    8       24     4  15    4.87   440.3    6.3      34.931
2014    8       24     4  21    4.87   440.2    6.3      34.919
2014    8       24     4  26    4.88   440.1    6.3      34.908
2014    8       24     4  32    4.88   440.0    6.3      34.898
2014    8       24     4  37    4.88   439.9    6.3      34.888
2014    8       24     4  43    4.88   439.8    6.3      34.878
2014    8       24     4  49    4.88   439.7    6.3      34.868
2014    8       24     4  54    4.89   439.6    6.3      34.859
2014    8       24     5   0    4.89   439.6    6.3      34.850
2014    8       24     5   5    4.89   439.5    6.3      34.842
2014    8       24     5  11    4.89   439.4    6.3      34.834
2014    8       24     5  16    4.90   439.3    6.3      34.826
2014    8       24     5  22    4.90   439.2    6.3      34.819
2014    8       24     5  27    4.90   439.1    6.3      34.812
2014    8       24     5  33    4.90   439.0    6.4      34.805
2014    8       24     5  39    4.90   438.9    6.4      34.799
2014    8       24     5  44    4.91   438.8    6.4      34.794
2014    8       24     5  50    4.91   438.7    6.4      34.788
2014    8       24     5  55    4.91   438.6    6.4      34.783
2014    8       24     6   1    4.91   438.6    6.4      34.778
2014    8       24     6   6    4.92   438.5    6.4      34.774
2014    8       24     6  12    4.92   438.4    6.4      34.770
2014    8       24     6  18    4.92   438.3    6.4      34.766
2014    8       24     6  23    4.93   438.2    6.4      34.762
2014    8       24     6  29    4.93   438.1    6.4      34.759
2014    8       24     6  34    4.93   438.1    6.4      34.756
2014    8       24     6  40    4.93   438.0    6.4      34.754
2014    8       24     6  45    4.94   437.9    6.5      34.751
2014    8       24     6  51    4.94   437.8    6.5      34.749
2014    8       24     6  57    4.94   437.8    6.5      34.747
2014    8       24     7   2    4.95   437.7    6.5      34.746
2014    8       24     7   8    4.95   437.6    6.5      34.744
2014    8       24     7  13    4.95   437.5    6.5      34.743
2014    8       24     7  19    4.95   437.4    6.5      34.742
2014    8       24     7  24    4.96   437.4    6.5      34.741
2014    8       24     7  30    4.96   437.3    6.5      34.740
2014    8       24     7  36    4.96   437.2    6.5      34.740
2014    8       24     7  41    4.97   437.2    6.5      34.739
2014    8       24     7  47    4.97   437.1    6.6      34.739
2014    8       24     7  52    4.97   437.0    6.6      34.740
2014    8       24     7  58    4.98   436.9    6.6      34.740
2014    8       24     8   3    4.98   436.9    6.6      34.741
2014    8       24     8   9    4.98   436.8    6.6      34.742
2014    8       24     8  15    4.99   436.7    6.6      34.744
2014    8       24     8  20    4.99   436.7    6.6      34.745
2014    8       24     8  26    4.99   436.6    6.6      34.748
2014    8       24     8  31    5.00   436.6    6.6      34.751
2014    8       24     8  37    5.00   436.5    6.6      34.754
2014    8       24     8  42    5.00   436.4    6.6      34.758
2014    8       24     8  48    5.01   436.4    6.6      34.763
2014    8       24     8  53    5.01   436.3    6.7      34.769
2014    8       24     8  59    5.01   436.3    6.7      34.775
2014    8       24     9   5    5.02   436.2    6.7      34.782
2014    8       24     9  10    5.02   436.2    6.7      34.789
2014    8       24     9  16    5.02   436.1    6.7      34.796
2014    8       24     9  21    5.03   436.0    6.7      34.804
2014    8       24     9  27    5.03   436.0    6.7      34.811
2014    8       24     9  32    5.03   435.9    6.7      34.818
2014    8       24     9  38    5.04   435.9    6.7      34.825
2014    8       24     9  44    5.04   435.9    6.7      34.831
2014    8       24     9  49    5.05   435.8    6.7      34.838
2014    8       24     9  55    5.05   435.8    6.7      34.845
2014    8       24    10   0    5.05   435.7    6.8      34.851
2014    8       24    10   6    5.06   435.7    6.8      34.858
2014    8       24    10  11    5.06   435.6    6.8      34.864
2014    8       24    10  17    5.06   435.6    6.8      34.870
2014    8       24    10  23    5.07   435.5    6.8      34.876
2014    8       24    10  28    5.07   435.5    6.8      34.882
2014    8       24    10  34    5.07   435.5    6.8      34.888
2014    8       24    10  39    5.08   435.4    6.8      34.893
2014    8       24    10  45    5.08   435.4    6.8      34.899
2014    8       24    10  50    5.09   435.4    6.8      34.904
2014    8       24    10  56    5.09   435.3    6.8      34.910
2014    8       24    11   1    5.09   435.3    6.8      34.915
2014    8       24    11   7    5.10   435.3    6.8      34.921
2014    8       24    11  13    5.10   435.2    6.8      34.926
2014    8       24    11  18    5.11   435.2    6.9      34.932
2014    8       24    11  24    5.11   435.2    6.9      34.937
2014    8       24    11  29    5.11   435.1    6.9      34.942
2014    8       24    11  35    5.12   435.1    6.9      34.947
2014    8       24    11  40    5.12   435.1    6.9      34.953
2014    8       24    11  46    5.12   435.0    6.9      34.958
2014    8       24    11  52    5.13   435.0    6.9      34.963
2014    8       24    11  57    5.13   435.0    6.9      34.968
2014    8       24    12   3    5.14   435.0    6.9      34.973
2014    8       24    12   8    5.14   434.9    6.9      34.978
2014    8       24    12  14    5.14   434.9    6.9      34.983
2014    8       24    12  19    5.15   434.9    6.9      34.988
2014    8       24    12  25    5.15   434.9    6.9      34.993
2014    8       24    12  31    5.15   434.9    6.9      34.998
2014    8       24    12  36    5.16   434.8    6.9      35.003
2014    8       24    12  42    5.16   434.8    6.9      35.008
2014    8       24    12  47    5.17   434.8    7.0      35.012
2014    8       24    12  53    5.17   434.8    7.0      35.017
2014    8       24    12  58    5.17   434.7    7.0      35.022
2014    8       24    13   4    5.18   434.7    7.0      35.026
2014    8       24    13  10    5.18   434.7    7.0      35.031
2014    8       24    13  15    5.19   434.7    7.0      35.035
2014    8       24    13  21    5.19   434.7    7.0      35.040
2014    8       24    13  26    5.19   434.7    7.0      35.045
2014    8       24    13  32    5.20   434.6    7.0      35.050
2014    8       24    13  37    5.20   434.6    7.0      35.054
2014    8       24    13  43    5.21   434.6    7.0      35.060
2014    8       24    13  49    5.21   434.6    7.0      35.065
2014    8       24    13  54    5.21   434.6    7.0      35.070
2014    8       24    14   0    5.22   434.6    7.0      35.076
2014    8       24    14   5    5.22   434.5    7.0      35.082
2014    8       24    14  11    5.23   434.5    7.0      35.088
2014    8       24    14  16    5.23   434.5    7.0      35.094
2014    8       24    14  22    5.23   434.5    7.1      35.101
2014    8       24    14  28    5.24   434.5    7.1      35.108
2014    8       24    14  33    5.24   434.5    7.1      35.115
2014    8       24    14  39    5.25   434.5    7.1      35.123
2014    8       24    14  44    5.25   434.4    7.1      35.131
2014    8       24    14  50    5.25   434.4    7.1      35.139
2014    8       24    14  55    5.26   434.4    7.1      35.148
2014    8       24    15   1    5.26   434.4    7.1      35.158
2014    8       24    15   6    5.27   434.4    7.1      35.168
2014    8       24    15  12    5.27   434.4    7.1      35.178
2014    8       24    15  18    5.28   434.4    7.1      35.189
2014    8       24    15  23    5.28   434.4    7.1      35.201
2014    8       24    15  29    5.28   434.4    7.1      35.213
2014    8       24    15  34    5.29   434.4    7.1      35.226
2014    8       24    15  40    5.29   434.4    7.1      35.239
2014    8       24    15  45    5.30   434.4    7.2      35.253
2014    8       24    15  51    5.30   434.4    7.2      35.268
2014    8       24    15  57    5.31   434.4    7.2      35.284
2014    8       24    16   2    5.31   434.4    7.2      35.301
2014    8       24    16   8    5.32   434.4    7.2      35.319
2014    8       24    16  13    5.32   434.4    7.2      35.338
2014    8       24    16  19    5.32   434.4    7.2      35.357
2014    8       24    16  24    5.33   434.4    7.2      35.378
2014    8       24    16  30    5.33   434.4    7.2      35.398
2014    8       24    16  36    5.34   434.4    7.2      35.420
2014    8       24    16  41    5.34   434.4    7.2      35.442
2014    8       24    16  47    5.35   434.4    7.2      35.464
2014    8       24    16  52    5.35   434.4    7.2      35.487
2014    8       24    16  58    5.36   434.4    7.2      35.510
2014    8       24    17   3    5.36   434.5    7.2      35.533
2014    8       24    17   9    5.37   434.5    7.3      35.556
2014    8       24    17  15    5.37   434.5    7.3      35.580
2014    8       24    17  20    5.37   434.5    7.3      35.602
2014    8       24    17  26    5.38   434.5    7.3      35.624
2014    8       24    17  31    5.38   434.5    7.3      35.646
2014    8       24    17  37    5.39   434.5    7.3      35.668
2014    8       24    17  42    5.39   434.6    7.3      35.689
2014    8       24    17  48    5.40   434.6    7.3      35.710
2014    8       24    17  54    5.40   434.6    7.3      35.730
2014    8       24    17  59    5.41   434.6    7.3      35.750
2014    8       24    18   5    5.41   434.6    7.3      35.769
2014    8       24    18  10    5.41   434.7    7.3      35.789
2014    8       24    18  16    5.42   434.7    7.3      35.807
2014    8       24    18  21    5.42   434.7    7.3      35.826
2014    8       24    18  27    5.43   434.7    7.3      35.844
2014    8       24    18  32    5.43   434.7    7.3      35.862
2014    8       24    18  38    5.44   434.8    7.3      35.880
2014    8       24    18  44    5.44   434.8    7.3      35.897
2014    8       24    18  49    5.44   434.8    7.3      35.914
2014    8       24    18  55    5.45   434.8    7.3      35.931
2014    8       24    19   0    5.45   434.9    7.3      35.947
2014    8       24    19   6    5.46   434.9    7.4      35.963
2014    8       24    19  11    5.46   434.9    7.4      35.979
2014    8       24    19  17    5.47   434.9    7.4      35.995
2014    8       24    19  23    5.47   434.9    7.4      36.011
2014    8       24    19  28    5.48   435.0    7.4      36.026
2014    8       24    19  34    5.48   435.0    7.4      36.041
2014    8       24    19  39    5.48   435.0    7.4      36.056
2014    8       24    19  45    5.49   435.0    7.4      36.071
2014    8       24    19  50    5.49   435.1    7.4      36.085
2014    8       24    19  56    5.50   435.1    7.4      36.100
2014    8       24    20   2    5.50   435.1    7.4      36.114
2014    8       24    20   7    5.51   435.1    7.4      36.128
2014    8       24    20  13    5.51   435.2    7.4      36.142
2014    8       24    20  18    5.52   435.2    7.4      36.156
2014    8       24    20  24    5.52   435.2    7.4      36.170
2014    8       24    20  29    5.52   435.3    7.4      36.183
2014    8       24    20  35    5.53   435.3    7.4      36.197
2014    8       24    20  41    5.53   435.3    7.4      36.211
2014    8       24    20  46    5.54   435.3    7.4      36.224
2014    8       24    20  52    5.54   435.4    7.4      36.238
2014    8       24    20  57    5.55   435.4    7.4      36.252
2014    8       24    21   3    5.55   435.4    7.4      36.266
2014    8       24    21   8    5.56   435.5    7.4      36.279
2014    8       24    21  14    5.56   435.5    7.4      36.294
2014    8       24    21  20    5.57   435.5    7.4      36.308
2014    8       24    21  25    5.57   435.6    7.4      36.322
2014    8       24    21  31    5.58   435.6    7.4      36.336
2014    8       24    21  36    5.58   435.6    7.4      36.351
2014    8       24    21  42    5.59   435.6    7.5      36.365
2014    8       24    21  47    5.59   435.7    7.5      36.380
2014    8       24    21  53    5.60   435.7    7.5      36.395
2014    8       24    21  59    5.60   435.8    7.5      36.411
2014    8       24    22   4    5.61   435.8    7.5      36.426
2014    8       24    22  10    5.61   435.8    7.5      36.442
2014    8       24    22  15    5.62   435.9    7.5      36.458
2014    8       24    22  21    5.62   435.9    7.5      36.474
2014    8       24    22  26    5.63   435.9    7.5      36.491
2014    8       24    22  32    5.63   436.0    7.5      36.508
2014    8       24    22  38    5.64   436.0    7.5      36.527
2014    8       24    22  43    5.64   436.1    7.5      36.546
2014    8       24    22  49    5.65   436.1    7.5      36.567
2014    8       24    22  54    5.65   436.2    7.5      36.590
2014    8       24    23   0    5.66   436.2    7.5      36.614
2014    8       24    23   5    5.66   436.3    7.5      36.640
2014    8       24    23  11    5.67   436.3    7.5      36.666
2014    8       24    23  17    5.67   436.4    7.5      36.694
2014    8       24    23  22    5.68   436.4    7.5      36.723
2014    8       24    23  28    5.68   436.5    7.5      36.752
2014    8       24    23  33    5.69   436.6    7.6      36.782
2014    8       24    23  39    5.69   436.6    7.6      36.813
2014    8       24    23  44    5.70   436.7    7.6      36.843
2014    8       24    23  50    5.70   436.7    7.6      36.875
2014    8       24    23  56    5.71   436.8    7.6      36.907
2014    8       25     0   1    5.71   436.9    7.6      36.940
2014    8       25     0   7    5.72   436.9    7.6      36.973
2014    8       25     0  12    5.72   437.0    7.6      37.007
2014    8       25     0  18    5.73   437.1    7.6      37.040
2014    8       25     0  23    5.73   437.1    7.6      37.074
2014    8       25     0  29    5.74   437.2    7.6      37.107
2014    8       25     0  34    5.74   437.3    7.6      37.140
2014    8       25     0  40    5.75   437.3    7.6      37.173
2014    8       25     0  46    5.75   437.4    7.6      37.205
2014    8       25     0  51    5.76   437.5    7.6      37.237
2014    8       25     0  57    5.76   437.5    7.6      37.269
2014    8       25     1   2    5.76   437.6    7.6      37.301
2014    8       25     1   8    5.77   437.7    7.6      37.332
2014    8       25     1  13    5.77   437.7    7.6      37.363
2014    8       25     1  19    5.78   437.8    7.6      37.393
2014    8       25     1  25    5.78   437.9    7.6      37.423
2014    8       25     1  30    5.79   437.9    7.6      37.453
2014    8       25     1  36    5.79   438.0    7.6      37.482
2014    8       25     1  41    5.80   438.1    7.6      37.511
2014    8       25     1  47    5.80   438.1    7.6      37.540
2014    8       25     1  52    5.81   438.2    7.6      37.568
2014    8       25     1  58    5.81   438.3    7.6      37.596
2014    8       25     2   4    5.82   438.4    7.6      37.624
2014    8       25     2   9    5.82   438.4    7.6      37.652
2014    8       25     2  15    5.83   438.5    7.6      37.679
2014    8       25     2  20    5.83   438.6    7.6      37.706
2014    8       25     2  26    5.84   438.6    7.6      37.733
2014    8       25     2  31    5.84   438.7    7.6      37.760
2014    8       25     2  37    5.85   438.8    7.6      37.787
2014    8       25     2  43    5.85   438.8    7.6      37.813
2014    8       25     2  48    5.86   438.9    7.6      37.840
2014    8       25     2  54    5.86   439.0    7.6      37.866
2014    8       25     2  59    5.87   439.1    7.7      37.892
2014    8       25     3   5    5.87   439.1    7.7      37.918
2014    8       25     3  10    5.88   439.2    7.7      37.945
2014    8       25     3  16    5.88   439.3    7.7      37.971
2014    8       25     3  22    5.89   439.3    7.7      37.998
2014    8       25     3  27    5.89   439.4    7.7      38.024
2014    8       25     3  33    5.90   439.5    7.7      38.051
2014    8       25     3  38    5.90   439.6    7.7      38.078
2014    8       25     3  44    5.91   439.6    7.7      38.105
2014    8       25     3  49    5.91   439.7    7.7      38.133
2014    8       25     3  55    5.92   439.8    7.7      38.160
2014    8       25     4   1    5.93   439.9    7.7      38.188
2014    8       25     4   6    5.93   439.9    7.7      38.217
2014    8       25     4  12    5.94   440.0    7.7      38.246
2014    8       25     4  17    5.94   440.1    7.7      38.276
2014    8       25     4  23    5.95   440.2    7.7      38.307
2014    8       25     4  28    5.95   440.3    7.7      38.338
2014    8       25     4  34    5.96   440.4    7.7      38.370
2014    8       25     4  40    5.96   440.5    7.7      38.403
2014    8       25     4  45    5.97   440.5    7.7      38.437
2014    8       25     4  51    5.98   440.6    7.7      38.472
2014    8       25     4  56    5.98   440.7    7.7      38.509
2014    8       25     5   2    5.99   440.8    7.7      38.547
2014    8       25     5   7    5.99   441.0    7.7      38.586
2014    8       25     5  13    6.00   441.1    7.7      38.626
2014    8       25     5  18    6.01   441.2    7.7      38.666
2014    8       25     5  24    6.01   441.3    7.8      38.708
2014    8       25     5  30    6.02   441.4    7.8      38.749
2014    8       25     5  35    6.02   441.5    7.8      38.789
2014    8       25     5  41    6.03   441.6    7.8      38.830
2014    8       25     5  46    6.03   441.7    7.8      38.871
2014    8       25     5  52    6.04   441.8    7.8      38.913
2014    8       25     5  57    6.04   442.0    7.8      38.955
2014    8       25     6   3    6.05   442.1    7.8      38.998
2014    8       25     6   9    6.06   442.2    7.8      39.041
2014    8       25     6  14    6.06   442.4    7.8      39.086
2014    8       25     6  20    6.07   442.5    7.8      39.130
2014    8       25     6  25    6.07   442.6    7.8      39.176
2014    8       25     6  31    6.08   442.7    7.8      39.221
2014    8       25     6  36    6.08   442.9    7.8      39.267
2014    8       25     6  42    6.09   443.0    7.8      39.312
2014    8       25     6  48    6.09   443.1    7.8      39.357
2014    8       25     6  53    6.10   443.3    7.8      39.402
2014    8       25     6  59    6.10   443.4    7.8      39.447
2014    8       25     7   4    6.11   443.5    7.8      39.492
2014    8       25     7  10    6.11   443.6    7.8      39.536
2014    8       25     7  15    6.12   443.8    7.8      39.581
2014    8       25     7  21    6.12   443.9    7.8      39.625
2014    8       25     7  27    6.13   444.0    7.8      39.668
2014    8       25     7  32    6.13   444.2    7.8      39.711
2014    8       25     7  38    6.14   444.3    7.8      39.754
2014    8       25     7  43    6.14   444.4    7.8      39.797
2014    8       25     7  49    6.15   444.6    7.8      39.839
2014    8       25     7  54    6.15   444.7    7.8      39.882
2014    8       25     8   0    6.16   444.9    7.8      39.923
2014    8       25     8   5    6.16   445.0    7.8      39.965
2014    8       25     8  11    6.17   445.1    7.8      40.006
2014    8       25     8  17    6.17   445.3    7.8      40.047
2014    8       25     8  22    6.18   445.4    7.8      40.088
2014    8       25     8  28    6.18   445.5    7.8      40.129
2014    8       25     8  33    6.19   445.7    7.8      40.170
2014    8       25     8  39    6.19   445.8    7.8      40.210
2014    8       25     8  44    6.20   446.0    7.8      40.250
2014    8       25     8  50    6.20   446.1    7.8      40.290
2014    8       25     8  56    6.21   446.2    7.8      40.329
2014    8       25     9   1    6.21   446.4    7.8      40.369
2014    8       25     9   7    6.22   446.5    7.8      40.408
2014    8       25     9  12    6.22   446.7    7.8      40.447
2014    8       25     9  18    6.23   446.8    7.8      40.486
2014    8       25     9  23    6.23   446.9    7.8      40.525
2014    8       25     9  29    6.24   447.1    7.8      40.563
2014    8       25     9  35    6.24   447.2    7.8      40.602
2014    8       25     9  40    6.25   447.4    7.8      40.641
2014    8       25     9  46    6.25   447.5    7.8      40.680
2014    8       25     9  51    6.26   447.7    7.8      40.719
2014    8       25     9  57    6.26   447.8    7.8      40.758
2014    8       25    10   2    6.27   447.9    7.8      40.797
2014    8       25    10   8    6.27   448.1    7.8      40.837
2014    8       25    10  14    6.28   448.2    7.8      40.877
2014    8       25    10  19    6.28   448.4    7.8      40.917
2014    8       25    10  25    6.29   448.5    7.8      40.958
2014    8       25    10  30    6.30   448.7    7.8      40.999
2014    8       25    10  36    6.30   448.8    7.8      41.041
2014    8       25    10  41    6.31   448.9    7.8      41.083
2014    8       25    10  47    6.31   449.1    7.8      41.126
2014    8       25    10  53    6.32   449.2    7.8      41.170
2014    8       25    10  58    6.32   449.4    7.8      41.215
2014    8       25    11   4    6.33   449.5    7.8      41.260
2014    8       25    11   9    6.33   449.7    7.8      41.306
2014    8       25    11  15    6.34   449.8    7.8      41.353
2014    8       25    11  20    6.34   450.0    7.8      41.402
2014    8       25    11  26    6.35   450.1    7.8      41.452
2014    8       25    11  32    6.36   450.3    7.8      41.503
2014    8       25    11  37    6.36   450.4    7.8      41.555
2014    8       25    11  43    6.37   450.6    7.8      41.608
2014    8       25    11  48    6.37   450.7    7.8      41.663
2014    8       25    11  54    6.38   450.9    7.8      41.720
2014    8       25    11  59    6.38   451.0    7.8      41.779
2014    8       25    12   5    6.39   451.2    7.8      41.841
2014    8       25    12  11    6.40   451.3    7.8      41.904
2014    8       25    12  16    6.40   451.5    7.9      41.969
2014    8       25    12  22    6.41   451.7    7.9      42.036
2014    8       25    12  27    6.41   451.9    7.9      42.103
2014    8       25    12  33    6.42   452.0    7.9      42.172
2014    8       25    12  38    6.42   452.2    7.9      42.240
2014    8       25    12  44    6.43   452.4    7.9      42.307
2014    8       25    12  50    6.44   452.6    7.9      42.373
2014    8       25    12  55    6.44   452.8    7.9      42.439
2014    8       25    13   1    6.45   452.9    7.9      42.503
2014    8       25    13   6    6.45   453.1    7.9      42.566
2014    8       25    13  12    6.46   453.3    7.9      42.628
2014    8       25    13  17    6.46   453.5    7.9      42.689
2014    8       25    13  23    6.47   453.7    7.9      42.749
2014    8       25    13  28    6.47   453.9    7.9      42.808
2014    8       25    13  34    6.48   454.0    7.9      42.865
2014    8       25    13  40    6.48   454.2    7.9      42.922
2014    8       25    13  45    6.49   454.4    7.9      42.977
2014    8       25    13  51    6.49   454.6    7.9      43.032
2014    8       25    13  56    6.50   454.8    7.9      43.085
2014    8       25    14   2    6.50   455.0    7.9      43.138
2014    8       25    14   7    6.51   455.2    7.9      43.190
2014    8       25    14  13    6.51   455.4    7.9      43.242
2014    8       25    14  19    6.52   455.5    7.9      43.292
2014    8       25    14  24    6.52   455.7    7.9      43.343
2014    8       25    14  30    6.52   455.9    7.9      43.392
2014    8       25    14  35    6.53   456.1    7.9      43.441
2014    8       25    14  41    6.53   456.3    7.9      43.489
2014    8       25    14  46    6.54   456.5    7.9      43.537
2014    8       25    14  52    6.54   456.7    7.9      43.584
2014    8       25    14  58    6.55   456.9    7.9      43.631
2014    8       25    15   3    6.55   457.1    7.9      43.678
2014    8       25    15   9    6.56   457.3    7.9      43.724
2014    8       25    15  14    6.56   457.5    7.9      43.770
2014    8       25    15  20    6.57   457.7    7.9      43.816
2014    8       25    15  25    6.57   457.9    7.9      43.861
2014    8       25    15  31    6.58   458.1    7.9      43.906
2014    8       25    15  37    6.58   458.3    7.9      43.951
2014    8       25    15  42    6.59   458.5    7.9      43.996
2014    8       25    15  48    6.59   458.7    7.9      44.041
2014    8       25    15  53    6.59   458.9    7.8      44.085
2014    8       25    15  59    6.60   459.1    7.8      44.129
2014    8       25    16   4    6.60   459.3    7.8      44.174
2014    8       25    16  10    6.61   459.5    7.8      44.218
2014    8       25    16  15    6.61   459.7    7.8      44.263
2014    8       25    16  21    6.62   459.9    7.8      44.307
2014    8       25    16  27    6.62   460.1    7.8      44.352
2014    8       25    16  32    6.63   460.3    7.8      44.397
2014    8       25    16  38    6.63   460.5    7.8      44.442
2014    8       25    16  43    6.64   460.7    7.8      44.488
2014    8       25    16  49    6.64   460.9    7.8      44.534
2014    8       25    16  54    6.65   461.1    7.8      44.581
2014    8       25    17   0    6.65   461.3    7.8      44.628
2014    8       25    17   6    6.66   461.5    7.8      44.677
2014    8       25    17  11    6.66   461.8    7.8      44.726
2014    8       25    17  17    6.67   462.0    7.8      44.776
2014    8       25    17  22    6.67   462.2    7.8      44.827
2014    8       25    17  28    6.68   462.4    7.8      44.880
2014    8       25    17  33    6.68   462.6    7.8      44.933
2014    8       25    17  39    6.69   462.8    7.8      44.990
2014    8       25    17  45    6.69   463.1    7.8      45.050
2014    8       25    17  50    6.70   463.3    7.8      45.112
2014    8       25    17  56    6.70   463.6    7.8      45.177
2014    8       25    18   1    6.71   463.8    7.8      45.245
2014    8       25    18   7    6.71   464.1    7.8      45.315
2014    8       25    18  12    6.72   464.3    7.8      45.386
2014    8       25    18  18    6.72   464.6    7.8      45.457
2014    8       25    18  24    6.73   464.8    7.8      45.529
2014    8       25    18  29    6.73   465.1    7.8      45.601
2014    8       25    18  35    6.74   465.3    7.8      45.673
2014    8       25    18  40    6.74   465.6    7.8      45.746
2014    8       25    18  46    6.74   465.8    7.8      45.818
2014    8       25    18  51    6.75   466.1    7.8      45.891
2014    8       25    18  57    6.75   466.3    7.8      45.965
2014    8       25    19   3    6.76   466.6    7.8      46.039
2014    8       25    19   8    6.76   466.8    7.8      46.114
2014    8       25    19  14    6.77   467.1    7.8      46.190
2014    8       25    19  19    6.77   467.4    7.8      46.267
2014    8       25    19  25    6.78   467.6    7.8      46.345
2014    8       25    19  30    6.78   467.9    7.8      46.423
2014    8       25    19  36    6.79   468.1    7.8      46.501
2014    8       25    19  41    6.79   468.4    7.8      46.578
2014    8       25    19  47    6.80   468.7    7.8      46.654
2014    8       25    19  53    6.80   468.9    7.8      46.730
2014    8       25    19  58    6.80   469.2    7.8      46.804
2014    8       25    20   4    6.81   469.5    7.8      46.878
2014    8       25    20   9    6.81   469.7    7.8      46.950
2014    8       25    20  15    6.82   470.0    7.8      47.022
2014    8       25    20  20    6.82   470.3    7.8      47.092
2014    8       25    20  26    6.83   470.5    7.8      47.160
2014    8       25    20  32    6.83   470.8    7.8      47.228
2014    8       25    20  37    6.83   471.1    7.8      47.294
2014    8       25    20  43    6.84   471.4    7.8      47.359
2014    8       25    20  48    6.84   471.6    7.8      47.423
2014    8       25    20  54    6.85   471.9    7.8      47.486
2014    8       25    20  59    6.85   472.2    7.8      47.548
2014    8       25    21   5    6.85   472.5    7.8      47.609
2014    8       25    21  11    6.86   472.8    7.8      47.668
2014    8       25    21  16    6.86   473.0    7.8      47.727
2014    8       25    21  22    6.87   473.3    7.8      47.785
2014    8       25    21  27    6.87   473.6    7.8      47.842
2014    8       25    21  33    6.87   473.9    7.8      47.898
2014    8       25    21  38    6.88   474.2    7.8      47.953
2014    8       25    21  44    6.88   474.5    7.8      48.007
2014    8       25    21  50    6.89   474.8    7.8      48.061
2014    8       25    21  55    6.89   475.1    7.8      48.114
2014    8       25    22   1    6.89   475.3    7.8      48.166
2014    8       25    22   6    6.90   475.6    7.7      48.218
2014    8       25    22  12    6.90   475.9    7.7      48.269
2014    8       25    22  17    6.90   476.2    7.7      48.319
2014    8       25    22  23    6.91   476.5    7.7      48.368
2014    8       25    22  28    6.91   476.8    7.7      48.418
2014    8       25    22  34    6.91   477.1    7.7      48.466
2014    8       25    22  40    6.92   477.4    7.7      48.514
2014    8       25    22  45    6.92   477.7    7.7      48.562
2014    8       25    22  51    6.92   478.0    7.7      48.608
2014    8       25    22  56    6.93   478.3    7.7      48.655
2014    8       25    23   2    6.93   478.6    7.7      48.700
2014    8       25    23   7    6.93   478.9    7.7      48.746
2014    8       25    23  13    6.94   479.2    7.7      48.791
2014    8       25    23  19    6.94   479.5    7.7      48.837
2014    8       25    23  24    6.94   479.8    7.6      48.882
2014    8       25    23  30    6.95   480.1    7.6      48.926
2014    8       25    23  35    6.95   480.4    7.6      48.971
2014    8       25    23  41    6.95   480.7    7.6      49.016
2014    8       25    23  46    6.96   481.0    7.6      49.061
2014    8       25    23  52    6.96   481.3    7.6      49.106
2014    8       25    23  58    6.96   481.6    7.6      49.152
2014    8       26     0   3    6.96   481.9    7.6      49.198
2014    8       26     0   9    6.97   482.2    7.6      49.244
2014    8       26     0  14    6.97   482.5    7.6      49.291
2014    8       26     0  20    6.97   482.8    7.6      49.339
2014    8       26     0  25    6.98   483.1    7.6      49.387
2014    8       26     0  31    6.98   483.3    7.6      49.436
2014    8       26     0  36    6.98   483.6    7.6      49.486
2014    8       26     0  42    6.99   483.9    7.6      49.537
2014    8       26     0  48    6.99   484.3    7.6      49.590
2014    8       26     0  53    6.99   484.6    7.6      49.647
2014    8       26     0  59    7.00   484.9    7.5      49.706
2014    8       26     1   4    7.00   485.2    7.5      49.767
2014    8       26     1  10    7.00   485.6    7.5      49.830
2014    8       26     1  15    7.01   485.9    7.5      49.895
2014    8       26     1  21    7.01   486.3    7.5      49.961
2014    8       26     1  27    7.01   486.6    7.5      50.027
2014    8       26     1  32    7.01   487.0    7.5      50.092
2014    8       26     1  38    7.02   487.3    7.5      50.156
2014    8       26     1  43    7.02   487.6    7.5      50.220
2014    8       26     1  49    7.02   488.0    7.5      50.283
2014    8       26     1  54    7.03   488.3    7.5      50.346
2014    8       26     2   0    7.03   488.7    7.5      50.410
2014    8       26     2   6    7.03   489.0    7.5      50.473
2014    8       26     2  11    7.03   489.4    7.5      50.536
2014    8       26     2  17    7.03   489.7    7.5      50.599
2014    8       26     2  22    7.04   490.1    7.5      50.663
2014    8       26     2  28    7.04   490.4    7.5      50.727
2014    8       26     2  33    7.04   490.8    7.5      50.791
2014    8       26     2  39    7.04   491.1    7.5      50.854
2014    8       26     2  45    7.05   491.5    7.4      50.917
2014    8       26     2  50    7.05   491.8    7.4      50.979
2014    8       26     2  56    7.05   492.2    7.4      51.040
2014    8       26     3   1    7.05   492.6    7.4      51.101
2014    8       26     3   7    7.05   492.9    7.4      51.161
2014    8       26     3  12    7.05   493.3    7.4      51.221
2014    8       26     3  18    7.06   493.6    7.4      51.279
2014    8       26     3  24    7.06   494.0    7.4      51.337
2014    8       26     3  29    7.06   494.3    7.4      51.395
2014    8       26     3  35    7.06   494.7    7.4      51.451
2014    8       26     3  40    7.06   495.0    7.4      51.507
2014    8       26     3  46    7.06   495.4    7.4      51.562
2014    8       26     3  51    7.07   495.8    7.3      51.617
2014    8       26     3  57    7.07   496.1    7.3      51.670
2014    8       26     4   2    7.07   496.5    7.3      51.723
2014    8       26     4   8    7.07   496.8    7.3      51.776
2014    8       26     4  14    7.07   497.2    7.3      51.827
2014    8       26     4  19    7.07   497.6    7.3      51.877
2014    8       26     4  25    7.07   497.9    7.3      51.926
2014    8       26     4  30    7.08   498.3    7.3      51.975
2014    8       26     4  36    7.08   498.6    7.3      52.023
2014    8       26     4  41    7.08   499.0    7.3      52.069
2014    8       26     4  47    7.08   499.4    7.2      52.114
2014    8       26     4  53    7.08   499.7    7.2      52.159
2014    8       26     4  58    7.08   500.1    7.2      52.203
2014    8       26     5   4    7.08   500.5    7.2      52.245
2014    8       26     5   9    7.08   500.9    7.2      52.287
2014    8       26     5  15    7.08   501.2    7.2      52.327
2014    8       26     5  20    7.08   501.6    7.2      52.366
2014    8       26     5  26    7.08   502.0    7.2      52.405
2014    8       26     5  32    7.09   502.4    7.1      52.443
2014    8       26     5  37    7.09   502.8    7.1      52.480
2014    8       26     5  43    7.09   503.1    7.1      52.518
2014    8       26     5  48    7.09   503.5    7.1      52.555
2014    8       26     5  54    7.09   504.0    7.1      52.592
2014    8       26     5  59    7.09   504.4    7.1      52.630
2014    8       26     6   5    7.09   504.8    7.1      52.669
2014    8       26     6  11    7.09   505.2    7.0      52.703
2014    8       26     6  16    7.09   505.7    7.0      52.735
2014    8       26     6  22    7.08   506.1    7.0      52.763
2014    8       26     6  27    7.08   506.5    7.0      52.789
2014    8       26     6  33    7.08   506.9    7.0      52.812
2014    8       26     6  38    7.08   507.2    7.0      52.830
2014    8       26     6  44    7.08   507.6    7.0      52.848
2014    8       26     6  49    7.08   507.9    6.9      52.865
2014    8       26     6  55    7.08   508.3    6.9      52.883
2014    8       26     7   1    7.08   508.6    6.9      52.901
2014    8       26     7   6    7.08   508.9    6.9      52.918
2014    8       26     7  12    7.07   509.3    6.9      52.936
2014    8       26     7  17    7.07   509.6    6.9      52.953
2014    8       26     7  23    7.07   509.9    6.8      52.970
2014    8       26     7  28    7.07   510.2    6.8      52.986
2014    8       26     7  34    7.07   510.5    6.8      53.003
2014    8       26     7  40    7.07   510.8    6.8      53.021
2014    8       26     7  45    7.07   511.1    6.8      53.041
2014    8       26     7  51    7.07   511.4    6.8      53.061
2014    8       26     7  56    7.07   511.7    6.8      53.084
2014    8       26     8   2    7.07   512.1    6.8      53.110
2014    8       26     8   7    7.07   512.4    6.7      53.139
2014    8       26     8  13    7.07   512.7    6.7      53.169
2014    8       26     8  19    7.07   513.1    6.7      53.201
2014    8       26     8  24    7.07   513.4    6.7      53.233
2014    8       26     8  30    7.06   513.8    6.7      53.265
2014    8       26     8  35    7.06   514.1    6.7      53.297
2014    8       26     8  41    7.06   514.5    6.7      53.327
2014    8       26     8  46    7.06   514.8    6.7      53.355
2014    8       26     8  52    7.06   515.1    6.7      53.381
2014    8       26     8  58    7.06   515.5    6.6      53.407
2014    8       26     9   3    7.06   515.8    6.6      53.433
2014    8       26     9   9    7.06   516.1    6.6      53.459
2014    8       26     9  14    7.06   516.4    6.6      53.486
2014    8       26     9  20    7.06   516.8    6.6      53.514
2014    8       26     9  25    7.06   517.1    6.6      53.543
2014    8       26     9  31    7.05   517.4    6.6      53.574
2014    8       26     9  37    7.05   517.8    6.6      53.606
2014    8       26     9  42    7.05   518.2    6.6      53.639
2014    8       26     9  48    7.05   518.5    6.5      53.673
2014    8       26     9  53    7.05   518.9    6.5      53.705
2014    8       26     9  59    7.05   519.2    6.5      53.737
2014    8       26    10   4    7.05   519.6    6.5      53.767
2014    8       26    10  10    7.05   520.0    6.5      53.796
2014    8       26    10  15    7.05   520.3    6.5      53.824
2014    8       26    10  21    7.04   520.7    6.5      53.849
2014    8       26    10  27    7.04   521.1    6.5      53.873
2014    8       26    10  32    7.04   521.4    6.5      53.896
2014    8       26    10  38    7.04   521.8    6.4      53.917
2014    8       26    10  43    7.04   522.2    6.4      53.937
2014    8       26    10  49    7.04   522.5    6.4      53.955
2014    8       26    10  54    7.03   522.9    6.4      53.972
2014    8       26    11   0    7.03   523.2    6.4      53.988
2014    8       26    11   6    7.03   523.6    6.4      54.003
2014    8       26    11  11    7.03   523.9    6.4      54.016
2014    8       26    11  17    7.02   524.2    6.4      54.027
2014    8       26    11  22    7.02   524.5    6.3      54.038
2014    8       26    11  28    7.02   524.8    6.3      54.047
2014    8       26    11  33    7.02   525.2    6.3      54.056
2014    8       26    11  39    7.01   525.5    6.3      54.064
2014    8       26    11  45    7.01   525.8    6.3      54.072
2014    8       26    11  50    7.01   526.1    6.3      54.080
2014    8       26    11  56    7.01   526.4    6.3      54.087
2014    8       26    12   1    7.01   526.7    6.3      54.096
2014    8       26    12   7    7.00   527.0    6.2      54.105
2014    8       26    12  12    7.00   527.3    6.2      54.114
2014    8       26    12  18    7.00   527.7    6.2      54.124
2014    8       26    12  24    7.00   528.0    6.2      54.134
2014    8       26    12  29    6.99   528.3    6.2      54.144
2014    8       26    12  35    6.99   528.6    6.2      54.154
2014    8       26    12  40    6.99   529.0    6.2      54.163
2014    8       26    12  46    6.99   529.3    6.2      54.172
2014    8       26    12  51    6.99   529.7    6.1      54.181
2014    8       26    12  57    6.98   530.0    6.1      54.189
2014    8       26    13   3    6.98   530.4    6.1      54.199
2014    8       26    13   8    6.98   530.7    6.1      54.209
2014    8       26    13  14    6.98   531.1    6.1      54.221
2014    8       26    13  19    6.97   531.5    6.1      54.232
2014    8       26    13  25    6.97   531.9    6.1      54.240
2014    8       26    13  30    6.97   532.2    6.1      54.245
2014    8       26    13  36    6.96   532.6    6.1      54.248
2014    8       26    13  41    6.96   532.9    6.0      54.249
2014    8       26    13  47    6.96   533.2    6.0      54.246
2014    8       26    13  53    6.95   533.5    6.0      54.241
2014    8       26    13  58    6.95   533.8    6.0      54.237
2014    8       26    14   4    6.95   534.1    6.0      54.234
2014    8       26    14   9    6.94   534.3    6.0      54.231
2014    8       26    14  15    6.94   534.6    6.0      54.228
2014    8       26    14  20    6.94   534.8    6.0      54.227
2014    8       26    14  26    6.94   535.1    5.9      54.228
2014    8       26    14  32    6.93   535.3    5.9      54.229
2014    8       26    14  37    6.93   535.5    5.9      54.230
2014    8       26    14  43    6.93   535.8    5.9      54.231
2014    8       26    14  48    6.93   536.0    5.9      54.234
2014    8       26    14  54    6.92   536.2    5.9      54.239
2014    8       26    14  59    6.92   536.4    5.9      54.245
2014    8       26    15   5    6.92   536.7    5.9      54.252
2014    8       26    15  11    6.92   536.9    5.9      54.261
2014    8       26    15  16    6.92   537.2    5.9      54.274
2014    8       26    15  22    6.91   537.5    5.9      54.288
2014    8       26    15  27    6.91   537.7    5.8      54.303
2014    8       26    15  33    6.91   538.0    5.8      54.319
2014    8       26    15  38    6.91   538.3    5.8      54.334
2014    8       26    15  44    6.90   538.6    5.8      54.350
2014    8       26    15  50    6.90   538.8    5.8      54.364
2014    8       26    15  55    6.90   539.1    5.8      54.376
2014    8       26    16   1    6.90   539.3    5.8      54.385
2014    8       26    16   6    6.90   539.5    5.8      54.392
2014    8       26    16  12    6.89   539.8    5.8      54.400
2014    8       26    16  17    6.89   540.0    5.8      54.408
2014    8       26    16  23    6.89   540.3    5.8      54.416
2014    8       26    16  29    6.89   540.5    5.7      54.425
2014    8       26    16  34    6.88   540.8    5.7      54.435
2014    8       26    16  40    6.88   541.0    5.7      54.446
2014    8       26    16  45    6.88   541.3    5.7      54.459
2014    8       26    16  51    6.88   541.6    5.7      54.472
2014    8       26    16  56    6.88   541.9    5.7      54.486
2014    8       26    17   2    6.87   542.1    5.7      54.500
2014    8       26    17   8    6.87   542.4    5.7      54.514
2014    8       26    17  13    6.87   542.7    5.7      54.528
2014    8       26    17  19    6.87   543.0    5.7      54.541
2014    8       26    17  24    6.86   543.2    5.7      54.552
2014    8       26    17  30    6.86   543.5    5.7      54.562
2014    8       26    17  35    6.86   543.8    5.6      54.570
2014    8       26    17  41    6.86   544.1    5.6      54.577
2014    8       26    17  46    6.85   544.4    5.6      54.582
2014    8       26    17  52    6.85   544.7    5.6      54.586
2014    8       26    17  58    6.85   545.0    5.6      54.589
2014    8       26    18   3    6.85   545.3    5.6      54.592
2014    8       26    18   9    6.84   545.6    5.6      54.593
2014    8       26    18  14    6.84   545.8    5.6      54.593
2014    8       26    18  20    6.84   546.1    5.6      54.592
2014    8       26    18  25    6.84   546.4    5.6      54.590
2014    8       26    18  31    6.83   546.6    5.6      54.587
2014    8       26    18  37    6.83   546.9    5.5      54.583
2014    8       26    18  42    6.83   547.1    5.5      54.578
2014    8       26    18  48    6.82   547.4    5.5      54.574
2014    8       26    18  53    6.82   547.6    5.5      54.569
2014    8       26    18  59    6.82   547.8    5.5      54.566
2014    8       26    19   4    6.82   548.1    5.5      54.562
2014    8       26    19  10    6.81   548.3    5.5      54.560
2014    8       26    19  16    6.81   548.5    5.5      54.560
2014    8       26    19  21    6.81   548.8    5.5      54.560
2014    8       26    19  27    6.81   549.0    5.5      54.562
2014    8       26    19  32    6.80   549.3    5.5      54.566
2014    8       26    19  38    6.80   549.6    5.5      54.571
2014    8       26    19  43    6.80   549.8    5.5      54.577
2014    8       26    19  49    6.80   550.1    5.4      54.584
2014    8       26    19  55    6.80   550.3    5.4      54.592
2014    8       26    20   0    6.79   550.6    5.4      54.599
2014    8       26    20   6    6.79   550.8    5.4      54.607
2014    8       26    20  11    6.79   551.1    5.4      54.616
2014    8       26    20  17    6.79   551.3    5.4      54.625
2014    8       26    20  22    6.79   551.6    5.4      54.634
2014    8       26    20  28    6.78   551.8    5.4      54.644
2014    8       26    20  34    6.78   552.0    5.4      54.654
2014    8       26    20  39    6.78   552.3    5.4      54.665
2014    8       26    20  45    6.78   552.5    5.4      54.676
2014    8       26    20  50    6.78   552.7    5.4      54.689
2014    8       26    20  56    6.77   552.9    5.4      54.703
2014    8       26    21   1    6.77   553.2    5.4      54.718
2014    8       26    21   7    6.77   553.4    5.4      54.734
2014    8       26    21  12    6.77   553.6    5.4      54.752
2014    8       26    21  18    6.77   553.8    5.4      54.770
2014    8       26    21  24    6.77   554.0    5.3      54.789
2014    8       26    21  29    6.77   554.2    5.3      54.810
2014    8       26    21  35    6.77   554.4    5.3      54.833
2014    8       26    21  40    6.76   554.7    5.3      54.858
2014    8       26    21  46    6.76   554.9    5.3      54.883
2014    8       26    21  51    6.76   555.1    5.3      54.910
2014    8       26    21  57    6.76   555.4    5.3      54.937
2014    8       26    22   3    6.76   555.6    5.3      54.965
2014    8       26    22   8    6.76   555.8    5.3      54.993
2014    8       26    22  14    6.76   556.1    5.3      55.020
2014    8       26    22  19    6.76   556.3    5.3      55.046
2014    8       26    22  25    6.76   556.5    5.3      55.072
2014    8       26    22  30    6.75   556.8    5.3      55.096
2014    8       26    22  36    6.75   557.0    5.3      55.120
2014    8       26    22  42    6.75   557.3    5.3      55.144
2014    8       26    22  47    6.75   557.5    5.3      55.166
2014    8       26    22  53    6.75   557.8    5.3      55.188
2014    8       26    22  58    6.75   558.0    5.3      55.210
2014    8       26    23   4    6.75   558.2    5.3      55.230
2014    8       26    23   9    6.75   558.5    5.3      55.250
2014    8       26    23  15    6.74   558.7    5.3      55.270
2014    8       26    23  21    6.74   559.0    5.3      55.288
2014    8       26    23  26    6.74   559.2    5.2      55.307
2014    8       26    23  32    6.74   559.5    5.2      55.325
2014    8       26    23  37    6.74   559.7    5.2      55.343
2014    8       26    23  43    6.74   560.0    5.2      55.360
2014    8       26    23  48    6.74   560.2    5.2      55.377
2014    8       26    23  54    6.73   560.4    5.2      55.394
2014    8       27     0   0    6.73   560.7    5.2      55.411
2014    8       27     0   5    6.73   560.9    5.2      55.427
2014    8       27     0  11    6.73   561.2    5.2      55.444
2014    8       27     0  16    6.73   561.4    5.2      55.460
2014    8       27     0  22    6.73   561.7    5.2      55.477
2014    8       27     0  27    6.73   561.9    5.2      55.493
2014    8       27     0  33    6.72   562.2    5.2      55.509
2014    8       27     0  39    6.72   562.4    5.2      55.525
2014    8       27     0  44    6.72   562.6    5.2      55.542
2014    8       27     0  50    6.72   562.9    5.2      55.558
2014    8       27     0  55    6.72   563.1    5.2      55.575
2014    8       27     1   1    6.72   563.4    5.1      55.592
2014    8       27     1   6    6.72   563.6    5.1      55.609
2014    8       27     1  12    6.72   563.9    5.1      55.627
2014    8       27     1  18    6.71   564.1    5.1      55.644
2014    8       27     1  23    6.71   564.4    5.1      55.662
2014    8       27     1  29    6.71   564.6    5.1      55.681
2014    8       27     1  34    6.71   564.9    5.1      55.699
2014    8       27     1  40    6.71   565.1    5.1      55.718
2014    8       27     1  45    6.71   565.4    5.1      55.737
2014    8       27     1  51    6.71   565.6    5.1      55.757
2014    8       27     1  56    6.71   565.9    5.1      55.778
2014    8       27     2   2    6.70   566.1    5.1      55.798
2014    8       27     2   8    6.70   566.3    5.1      55.819
2014    8       27     2  13    6.70   566.6    5.1      55.841
2014    8       27     2  19    6.70   566.8    5.1      55.863
2014    8       27     2  24    6.70   567.1    5.1      55.886
2014    8       27     2  30    6.70   567.3    5.1      55.908
2014    8       27     2  35    6.70   567.6    5.1      55.932
2014    8       27     2  41    6.70   567.8    5.1      55.956
2014    8       27     2  47    6.70   568.1    5.0      55.980
2014    8       27     2  52    6.70   568.3    5.0      56.004
2014    8       27     2  58    6.70   568.6    5.0      56.029
2014    8       27     3   3    6.70   568.8    5.0      56.054
2014    8       27     3   9    6.69   569.1    5.0      56.080
2014    8       27     3  14    6.69   569.3    5.0      56.107
2014    8       27     3  20    6.69   569.6    5.0      56.133
2014    8       27     3  26    6.69   569.8    5.0      56.161
2014    8       27     3  31    6.69   570.1    5.0      56.189
2014    8       27     3  37    6.69   570.3    5.0      56.217
2014    8       27     3  42    6.69   570.6    5.0      56.246
2014    8       27     3  48    6.69   570.8    5.0      56.276
2014    8       27     3  53    6.69   571.1    5.0      56.306
2014    8       27     3  59    6.69   571.3    5.0      56.337
2014    8       27     4   5    6.69   571.6    5.0      56.368
2014    8       27     4  10    6.69   571.8    5.0      56.402
2014    8       27     4  16    6.69   572.1    5.0      56.436
2014    8       27     4  21    6.69   572.4    5.0      56.471
2014    8       27     4  27    6.69   572.6    5.0      56.508
2014    8       27     4  32    6.69   572.9    5.0      56.546
2014    8       27     4  38    6.69   573.1    5.0      56.584
2014    8       27     4  44    6.70   573.4    5.0      56.623
2014    8       27     4  49    6.70   573.7    5.0      56.662
2014    8       27     4  55    6.70   573.9    5.0      56.701
2014    8       27     5   0    6.70   574.2    5.0      56.741
2014    8       27     5   6    6.70   574.5    5.0      56.780
2014    8       27     5  11    6.70   574.7    4.9      56.819
2014    8       27     5  17    6.70   575.0    4.9      56.857
2014    8       27     5  23    6.70   575.3    4.9      56.895
2014    8       27     5  28    6.70   575.6    4.9      56.932
2014    8       27     5  34    6.70   575.8    4.9      56.968
2014    8       27     5  39    6.70   576.1    4.9      57.004
2014    8       27     5  45    6.70   576.4    4.9      57.039
2014    8       27     5  50    6.70   576.7    4.9      57.073
2014    8       27     5  56    6.70   576.9    4.9      57.107
2014    8       27     6   1    6.70   577.2    4.9      57.141
2014    8       27     6   7    6.70   577.5    4.9      57.174
2014    8       27     6  13    6.70   577.7    4.9      57.206
2014    8       27     6  18    6.70   578.0    4.9      57.238
2014    8       27     6  24    6.70   578.3    4.9      57.270
2014    8       27     6  29    6.71   578.6    4.9      57.301
2014    8       27     6  35    6.71   578.8    4.9      57.333
2014    8       27     6  40    6.71   579.1    4.9      57.364
2014    8       27     6  46    6.71   579.4    4.9      57.394
2014    8       27     6  52    6.71   579.7    4.9      57.425
2014    8       27     6  57    6.71   579.9    4.9      57.455
2014    8       27     7   3    6.71   580.2    4.9      57.485
2014    8       27     7   8    6.71   580.5    4.9      57.515
2014    8       27     7  14    6.71   580.7    4.9      57.544
2014    8       27     7  19    6.71   581.0    4.9      57.574
2014    8       27     7  25    6.71   581.3    4.8      57.603
2014    8       27     7  31    6.71   581.6    4.8      57.633
2014    8       27     7  36    6.71   581.8    4.8      57.662
2014    8       27     7  42    6.71   582.1    4.8      57.691
2014    8       27     7  47    6.71   582.4    4.8      57.721
2014    8       27     7  53    6.71   582.7    4.8      57.751
2014    8       27     7  58    6.71   582.9    4.8      57.781
2014    8       27     8   4    6.71   583.2    4.8      57.811
2014    8       27     8  10    6.71   583.5    4.8      57.842
2014    8       27     8  15    6.71   583.8    4.8      57.873
2014    8       27     8  21    6.71   584.0    4.8      57.905
2014    8       27     8  26    6.71   584.3    4.8      57.938
2014    8       27     8  32    6.71   584.6    4.8      57.972
2014    8       27     8  37    6.71   584.9    4.8      58.007
2014    8       27     8  43    6.71   585.1    4.8      58.044
2014    8       27     8  49    6.71   585.4    4.8      58.083
2014    8       27     8  54    6.71   585.7    4.8      58.122
2014    8       27     9   0    6.71   586.0    4.8      58.161
2014    8       27     9   5    6.71   586.3    4.8      58.200
2014    8       27     9  11    6.71   586.6    4.8      58.238
2014    8       27     9  16    6.71   586.8    4.8      58.276
2014    8       27     9  22    6.71   587.1    4.8      58.313
2014    8       27     9  28    6.71   587.4    4.8      58.349
2014    8       27     9  33    6.71   587.7    4.7      58.385
2014    8       27     9  39    6.71   588.0    4.7      58.419
2014    8       27     9  44    6.71   588.2    4.7      58.453
2014    8       27     9  50    6.71   588.5    4.7      58.485
2014    8       27     9  55    6.71   588.8    4.7      58.517
2014    8       27    10   1    6.71   589.1    4.7      58.548
2014    8       27    10   7    6.70   589.3    4.7      58.578
2014    8       27    10  12    6.70   589.6    4.7      58.608
2014    8       27    10  18    6.70   589.9    4.7      58.638
2014    8       27    10  23    6.70   590.2    4.7      58.666
2014    8       27    10  29    6.70   590.4    4.7      58.695
2014    8       27    10  34    6.70   590.7    4.7      58.723
2014    8       27    10  40    6.70   591.0    4.7      58.751
2014    8       27    10  45    6.70   591.2    4.7      58.779
2014    8       27    10  51    6.70   591.5    4.7      58.808
2014    8       27    10  57    6.70   591.8    4.7      58.838
2014    8       27    11   2    6.69   592.1    4.7      58.867
2014    8       27    11   8    6.69   592.3    4.7      58.897
2014    8       27    11  13    6.69   592.6    4.7      58.927
2014    8       27    11  19    6.69   592.9    4.6      58.955
2014    8       27    11  24    6.69   593.2    4.6      58.983
2014    8       27    11  30    6.69   593.4    4.6      59.010
2014    8       27    11  36    6.69   593.7    4.6      59.036
2014    8       27    11  41    6.69   594.0    4.6      59.061
2014    8       27    11  47    6.68   594.3    4.6      59.085
2014    8       27    11  52    6.68   594.6    4.6      59.108
2014    8       27    11  58    6.68   594.8    4.6      59.131
2014    8       27    12   3    6.68   595.1    4.6      59.153
2014    8       27    12   9    6.68   595.4    4.6      59.173
2014    8       27    12  15    6.68   595.7    4.6      59.193
2014    8       27    12  20    6.67   595.9    4.6      59.213
2014    8       27    12  26    6.67   596.2    4.6      59.232
2014    8       27    12  31    6.67   596.5    4.6      59.250
2014    8       27    12  37    6.67   596.7    4.6      59.268
2014    8       27    12  42    6.67   597.0    4.6      59.286
2014    8       27    12  48    6.67   597.3    4.6      59.303
2014    8       27    12  54    6.66   597.5    4.5      59.321
2014    8       27    12  59    6.66   597.8    4.5      59.338
2014    8       27    13   5    6.66   598.1    4.5      59.356
2014    8       27    13  10    6.66   598.3    4.5      59.374
2014    8       27    13  16    6.66   598.6    4.5      59.392
2014    8       27    13  21    6.66   598.9    4.5      59.411
2014    8       27    13  27    6.65   599.1    4.5      59.431
2014    8       27    13  33    6.65   599.4    4.5      59.451
2014    8       27    13  38    6.65   599.7    4.5      59.473
2014    8       27    13  44    6.65   599.9    4.5      59.496
2014    8       27    13  49    6.65   600.2    4.5      59.519
2014    8       27    13  55    6.64   600.5    4.5      59.546
2014    8       27    14   0    6.64   600.8    4.5      59.575
2014    8       27    14   6    6.64   601.0    4.5      59.606
2014    8       27    14  12    6.64   601.3    4.5      59.639
2014    8       27    14  17    6.64   601.6    4.5      59.674
2014    8       27    14  23    6.64   601.9    4.5      59.709
2014    8       27    14  28    6.63   602.2    4.5      59.742
2014    8       27    14  34    6.63   602.5    4.4      59.775
2014    8       27    14  39    6.63   602.8    4.4      59.807
2014    8       27    14  45    6.63   603.1    4.4      59.838
2014    8       27    14  51    6.63   603.4    4.4      59.868
2014    8       27    14  56    6.62   603.6    4.4      59.898
2014    8       27    15   2    6.62   603.9    4.4      59.926
2014    8       27    15   7    6.62   604.2    4.4      59.954
2014    8       27    15  13    6.62   604.5    4.4      59.982
2014    8       27    15  18    6.62   604.8    4.4      60.009
2014    8       27    15  24    6.61   605.1    4.4      60.036
2014    8       27    15  29    6.61   605.3    4.4      60.062
2014    8       27    15  35    6.61   605.6    4.4      60.089
2014    8       27    15  41    6.61   605.9    4.4      60.115
2014    8       27    15  46    6.60   606.2    4.4      60.142
2014    8       27    15  52    6.60   606.5    4.4      60.169
2014    8       27    15  57    6.60   606.7    4.4      60.196
2014    8       27    16   3    6.60   607.0    4.4      60.223
2014    8       27    16   8    6.60   607.3    4.3      60.250
2014    8       27    16  14    6.59   607.6    4.3      60.278
2014    8       27    16  20    6.59   607.9    4.3      60.306
2014    8       27    16  25    6.59   608.1    4.3      60.334
2014    8       27    16  31    6.59   608.4    4.3      60.363
2014    8       27    16  36    6.58   608.7    4.3      60.392
2014    8       27    16  42    6.58   609.0    4.3      60.422
2014    8       27    16  47    6.58   609.2    4.3      60.452
2014    8       27    16  53    6.58   609.5    4.3      60.483
2014    8       27    16  59    6.58   609.8    4.3      60.515
2014    8       27    17   4    6.57   610.0    4.3      60.547
2014    8       27    17  10    6.57   610.3    4.3      60.581
2014    8       27    17  15    6.57   610.6    4.3      60.616
2014    8       27    17  21    6.57   610.9    4.3      60.652
2014    8       27    17  26    6.57   611.2    4.3      60.688
2014    8       27    17  32    6.56   611.5    4.3      60.725
2014    8       27    17  38    6.56   611.7    4.3      60.763
2014    8       27    17  43    6.56   612.0    4.3      60.799
2014    8       27    17  49    6.56   612.3    4.3      60.835
2014    8       27    17  54    6.56   612.6    4.3      60.871
2014    8       27    18   0    6.55   612.9    4.3      60.906
2014    8       27    18   5    6.55   613.2    4.2      60.941
2014    8       27    18  11    6.55   613.5    4.2      60.975
2014    8       27    18  17    6.55   613.8    4.2      61.008
2014    8       27    18  22    6.55   614.1    4.2      61.041
2014    8       27    18  28    6.54   614.4    4.2      61.074
2014    8       27    18  33    6.54   614.7    4.2      61.107
2014    8       27    18  39    6.54   615.0    4.2      61.139
2014    8       27    18  44    6.54   615.3    4.2      61.170
2014    8       27    18  50    6.54   615.6    4.2      61.200
2014    8       27    18  56    6.53   615.9    4.2      61.230
2014    8       27    19   1    6.53   616.2    4.2      61.258
2014    8       27    19   7    6.53   616.5    4.2      61.286
2014    8       27    19  12    6.53   616.9    4.2      61.314
2014    8       27    19  18    6.52   617.2    4.2      61.340
2014    8       27    19  23    6.52   617.5    4.2      61.367
2014    8       27    19  29    6.52   617.8    4.2      61.392
2014    8       27    19  34    6.52   618.1    4.2      61.417
2014    8       27    19  40    6.51   618.4    4.2      61.442
2014    8       27    19  46    6.51   618.6    4.2      61.466
2014    8       27    19  51    6.51   618.9    4.2      61.491
2014    8       27    19  57    6.51   619.2    4.2      61.516
2014    8       27    20   2    6.50   619.5    4.2      61.541
2014    8       27    20   8    6.50   619.8    4.2      61.566
2014    8       27    20  13    6.50   620.1    4.1      61.592
2014    8       27    20  19    6.50   620.4    4.1      61.618
2014    8       27    20  25    6.49   620.7    4.1      61.647
2014    8       27    20  30    6.49   621.0    4.1      61.679
2014    8       27    20  36    6.49   621.3    4.1      61.713
2014    8       27    20  41    6.49   621.6    4.1      61.751
2014    8       27    20  47    6.48   621.9    4.1      61.791
2014    8       27    20  52    6.48   622.2    4.1      61.833
2014    8       27    20  58    6.48   622.5    4.1      61.875
2014    8       27    21   4    6.48   622.8    4.1      61.916
2014    8       27    21   9    6.47   623.1    4.1      61.956
2014    8       27    21  15    6.47   623.4    4.1      61.996
2014    8       27    21  20    6.47   623.7    4.1      62.035
2014    8       27    21  26    6.46   624.0    4.1      62.073
2014    8       27    21  31    6.46   624.3    4.1      62.109
2014    8       27    21  37    6.46   624.6    4.1      62.145
2014    8       27    21  43    6.46   624.9    4.1      62.179
2014    8       27    21  48    6.45   625.2    4.1      62.212
2014    8       27    21  54    6.45   625.5    4.1      62.245
2014    8       27    21  59    6.45   625.8    4.1      62.276
2014    8       27    22   5    6.44   626.1    4.1      62.306
2014    8       27    22  10    6.44   626.3    4.1      62.335
2014    8       27    22  16    6.44   626.6    4.0      62.363
2014    8       27    22  22    6.44   626.9    4.0      62.390
2014    8       27    22  27    6.43   627.2    4.0      62.417
2014    8       27    22  33    6.43   627.5    4.0      62.443
2014    8       27    22  38    6.43   627.8    4.0      62.468
2014    8       27    22  44    6.42   628.0    4.0      62.493
2014    8       27    22  49    6.42   628.3    4.0      62.517
2014    8       27    22  55    6.42   628.6    4.0      62.540
2014    8       27    23   1    6.42   628.9    4.0      62.563
2014    8       27    23   6    6.41   629.1    4.0      62.586
2014    8       27    23  12    6.41   629.4    4.0      62.609
2014    8       27    23  17    6.41   629.7    4.0      62.631
2014    8       27    23  23    6.40   629.9    4.0      62.654
2014    8       27    23  28    6.40   630.2    4.0      62.676
2014    8       27    23  34    6.40   630.5    4.0      62.699
2014    8       27    23  40    6.40   630.8    4.0      62.721
2014    8       27    23  45    6.39   631.0    4.0      62.744
2014    8       27    23  51    6.39   631.3    4.0      62.766
2014    8       27    23  56    6.39   631.6    3.9      62.787
2014    8       28     0   2    6.39   631.9    3.9      62.809
2014    8       28     0   7    6.38   632.1    3.9      62.829
2014    8       28     0  13    6.38   632.4    3.9      62.849
2014    8       28     0  18    6.38   632.7    3.9      62.869
2014    8       28     0  24    6.38   632.9    3.9      62.889
2014    8       28     0  30    6.37   633.2    3.9      62.908
2014    8       28     0  35    6.37   633.5    3.9      62.927
2014    8       28     0  41    6.37   633.8    3.9      62.946
2014    8       28     0  46    6.36   634.0    3.9      62.963
2014    8       28     0  52    6.36   634.3    3.9      62.981
2014    8       28     0  57    6.36   634.6    3.9      62.998
2014    8       28     1   3    6.36   634.8    3.9      63.014
2014    8       28     1   9    6.35   635.1    3.9      63.030
2014    8       28     1  14    6.35   635.4    3.9      63.045
2014    8       28     1  20    6.35   635.6    3.9      63.061
2014    8       28     1  25    6.34   635.9    3.9      63.076
2014    8       28     1  31    6.34   636.2    3.9      63.092
2014    8       28     1  36    6.34   636.4    3.9      63.106
2014    8       28     1  42    6.34   636.7    3.8      63.122
2014    8       28     1  48    6.33   636.9    3.8      63.137
2014    8       28     1  53    6.33   637.2    3.8      63.152
2014    8       28     1  59    6.33   637.5    3.8      63.168
2014    8       28     2   4    6.33   637.7    3.8      63.183
2014    8       28     2  10    6.32   638.0    3.8      63.198
2014    8       28     2  15    6.32   638.3    3.8      63.213
2014    8       28     2  21    6.32   638.5    3.8      63.227
2014    8       28     2  27    6.31   638.8    3.8      63.240
2014    8       28     2  32    6.31   639.0    3.8      63.254
2014    8       28     2  38    6.31   639.3    3.8      63.267
2014    8       28     2  43    6.31   639.6    3.8      63.279
2014    8       28     2  49    6.30   639.8    3.8      63.291
2014    8       28     2  54    6.30   640.1    3.8      63.303
2014    8       28     3   0    6.30   640.3    3.8      63.313
2014    8       28     3   6    6.30   640.6    3.8      63.323
2014    8       28     3  11    6.29   640.9    3.8      63.333
2014    8       28     3  17    6.29   641.1    3.8      63.342
2014    8       28     3  22    6.29   641.4    3.8      63.350
2014    8       28     3  28    6.28   641.6    3.8      63.358
2014    8       28     3  33    6.28   641.9    3.7      63.366
2014    8       28     3  39    6.28   642.1    3.7      63.374
2014    8       28     3  45    6.28   642.4    3.7      63.381
2014    8       28     3  50    6.27   642.6    3.7      63.389
2014    8       28     3  56    6.27   642.9    3.7      63.396
2014    8       28     4   1    6.27   643.1    3.7      63.403
2014    8       28     4   7    6.27   643.4    3.7      63.410
2014    8       28     4  12    6.26   643.6    3.7      63.417
2014    8       28     4  18    6.26   643.9    3.7      63.425
2014    8       28     4  23    6.26   644.1    3.7      63.432
2014    8       28     4  29    6.26   644.4    3.7      63.440
2014    8       28     4  35    6.25   644.6    3.7      63.448
2014    8       28     4  40    6.25   644.9    3.7      63.457
2014    8       28     4  46    6.25   645.1    3.7      63.466
2014    8       28     4  51    6.25   645.4    3.7      63.476
2014    8       28     4  57    6.24   645.6    3.7      63.486
2014    8       28     5   2    6.24   645.9    3.7      63.495
2014    8       28     5   8    6.24   646.1    3.7      63.505
2014    8       28     5  14    6.24   646.3    3.7      63.514
2014    8       28     5  19    6.23   646.6    3.6      63.523
2014    8       28     5  25    6.23   646.8    3.6      63.532
2014    8       28     5  30    6.23   647.1    3.6      63.541
2014    8       28     5  36    6.23   647.3    3.6      63.550
2014    8       28     5  41    6.22   647.6    3.6      63.559
2014    8       28     5  47    6.22   647.8    3.6      63.568
2014    8       28     5  53    6.22   648.0    3.6      63.577
2014    8       28     5  58    6.22   648.3    3.6      63.586
2014    8       28     6   4    6.21   648.5    3.6      63.595
2014    8       28     6   9    6.21   648.7    3.6      63.604
2014    8       28     6  15    6.21   649.0    3.6      63.614
2014    8       28     6  20    6.21   649.2    3.6      63.623
2014    8       28     6  26    6.20   649.5    3.6      63.633
2014    8       28     6  32    6.20   649.7    3.6      63.642
2014    8       28     6  37    6.20   649.9    3.6      63.652
2014    8       28     6  43    6.20   650.1    3.6      63.662
2014    8       28     6  48    6.19   650.4    3.6      63.672
2014    8       28     6  54    6.19   650.6    3.6      63.682
2014    8       28     6  59    6.19   650.8    3.6      63.693
2014    8       28     7   5    6.19   651.1    3.6      63.703
2014    8       28     7  11    6.18   651.3    3.5      63.714
2014    8       28     7  16    6.18   651.5    3.5      63.724
2014    8       28     7  22    6.18   651.7    3.5      63.735
2014    8       28     7  27    6.18   651.9    3.5      63.746
2014    8       28     7  33    6.17   652.2    3.5      63.758
2014    8       28     7  38    6.17   652.4    3.5      63.769
2014    8       28     7  44    6.17   652.6    3.5      63.780
2014    8       28     7  50    6.17   652.8    3.5      63.792
2014    8       28     7  55    6.16   653.0    3.5      63.804
2014    8       28     8   1    6.16   653.2    3.5      63.816
2014    8       28     8   6    6.16   653.4    3.5      63.829
2014    8       28     8  12    6.16   653.6    3.5      63.843
2014    8       28     8  17    6.15   653.8    3.5      63.857
2014    8       28     8  23    6.15   654.0    3.5      63.871
2014    8       28     8  28    6.15   654.2    3.5      63.886
2014    8       28     8  34    6.15   654.4    3.5      63.902
2014    8       28     8  40    6.14   654.6    3.5      63.917
2014    8       28     8  45    6.14   654.8    3.5      63.933
2014    8       28     8  51    6.14   655.0    3.5      63.950
2014    8       28     8  56    6.14   655.2    3.5      63.967
2014    8       28     9   2    6.14   655.4    3.5      63.985
2014    8       28     9   7    6.13   655.6    3.5      64.003
2014    8       28     9  13    6.13   655.8    3.5      64.022
2014    8       28     9  19    6.13   656.0    3.5      64.042
2014    8       28     9  24    6.13   656.2    3.5      64.064
2014    8       28     9  30    6.12   656.4    3.5      64.086
2014    8       28     9  35    6.12   656.6    3.5      64.109
2014    8       28     9  41    6.12   656.8    3.5      64.132
2014    8       28     9  46    6.12   657.0    3.4      64.155
2014    8       28     9  52    6.12   657.2    3.4      64.177
2014    8       28     9  58    6.11   657.4    3.4      64.199
2014    8       28    10   3    6.11   657.6    3.4      64.220
2014    8       28    10   9    6.11   657.8    3.4      64.240
2014    8       28    10  14    6.11   658.0    3.4      64.260
2014    8       28    10  20    6.11   658.2    3.4      64.279
2014    8       28    10  25    6.10   658.5    3.4      64.297
2014    8       28    10  31    6.10   658.7    3.4      64.315
2014    8       28    10  37    6.10   658.9    3.4      64.333
2014    8       28    10  42    6.10   659.1    3.4      64.350
2014    8       28    10  48    6.10   659.3    3.4      64.366
2014    8       28    10  53    6.09   659.5    3.4      64.382
2014    8       28    10  59    6.09   659.7    3.4      64.398
2014    8       28    11   4    6.09   659.9    3.4      64.413
2014    8       28    11  10    6.09   660.0    3.4      64.427
2014    8       28    11  16    6.08   660.2    3.4      64.441
2014    8       28    11  21    6.08   660.4    3.4      64.455
2014    8       28    11  27    6.08   660.6    3.4      64.468
2014    8       28    11  32    6.08   660.8    3.4      64.481
2014    8       28    11  38    6.08   661.0    3.4      64.493
2014    8       28    11  43    6.07   661.2    3.4      64.505
2014    8       28    11  49    6.07   661.4    3.4      64.517
2014    8       28    11  55    6.07   661.6    3.4      64.529
2014    8       28    12   0    6.07   661.8    3.4      64.540
2014    8       28    12   6    6.07   662.0    3.4      64.551
2014    8       28    12  11    6.06   662.2    3.4      64.562
2014    8       28    12  17    6.06   662.4    3.4      64.573
2014    8       28    12  22    6.06   662.6    3.4      64.584
2014    8       28    12  28    6.06   662.8    3.3      64.595
2014    8       28    12  34    6.05   663.0    3.3      64.606
2014    8       28    12  39    6.05   663.1    3.3      64.617
2014    8       28    12  45    6.05   663.3    3.3      64.628
2014    8       28    12  50    6.05   663.5    3.3      64.639
2014    8       28    12  56    6.05   663.7    3.3      64.650
2014    8       28    13   1    6.04   663.9    3.3      64.661
2014    8       28    13   7    6.04   664.1    3.3      64.672
2014    8       28    13  12    6.04   664.3    3.3      64.684
2014    8       28    13  18    6.04   664.5    3.3      64.696
2014    8       28    13  24    6.03   664.6    3.3      64.708
2014    8       28    13  29    6.03   664.8    3.3      64.720
2014    8       28    13  35    6.03   665.0    3.3      64.732
2014    8       28    13  40    6.03   665.2    3.3      64.744
2014    8       28    13  46    6.03   665.4    3.3      64.757
2014    8       28    13  51    6.02   665.6    3.3      64.769
2014    8       28    13  57    6.02   665.8    3.3      64.782
2014    8       28    14   3    6.02   665.9    3.3      64.794
2014    8       28    14   8    6.02   666.1    3.3      64.807
2014    8       28    14  14    6.01   666.3    3.3      64.820
2014    8       28    14  19    6.01   666.5    3.3      64.833
2014    8       28    14  25    6.01   666.7    3.3      64.845
2014    8       28    14  30    6.01   666.9    3.3      64.858
2014    8       28    14  36    6.01   667.0    3.3      64.871
2014    8       28    14  42    6.00   667.2    3.3      64.883
2014    8       28    14  47    6.00   667.4    3.3      64.896
2014    8       28    14  53    6.00   667.6    3.3      64.908
2014    8       28    14  58    6.00   667.7    3.3      64.920
2014    8       28    15   4    5.99   667.9    3.3      64.932
2014    8       28    15   9    5.99   668.1    3.3      64.944
2014    8       28    15  15    5.99   668.3    3.3      64.956
2014    8       28    15  21    5.99   668.4    3.2      64.967
2014    8       28    15  26    5.98   668.6    3.2      64.979
2014    8       28    15  32    5.98   668.8    3.2      64.990
2014    8       28    15  37    5.98   669.0    3.2      65.001
2014    8       28    15  43    5.98   669.1    3.2      65.012
2014    8       28    15  48    5.98   669.3    3.2      65.023
2014    8       28    15  54    5.97   669.5    3.2      65.033
2014    8       28    16   0    5.97   669.7    3.2      65.044
2014    8       28    16   5    5.97   669.8    3.2      65.054
2014    8       28    16  11    5.97   670.0    3.2      65.064
2014    8       28    16  16    5.96   670.2    3.2      65.074
2014    8       28    16  22    5.96   670.3    3.2      65.084
2014    8       28    16  27    5.96   670.5    3.2      65.094
2014    8       28    16  33    5.96   670.7    3.2      65.103
2014    8       28    16  38    5.95   670.8    3.2      65.112
2014    8       28    16  44    5.95   671.0    3.2      65.121
2014    8       28    16  50    5.95   671.2    3.2      65.130
2014    8       28    16  55    5.95   671.3    3.2      65.139
2014    8       28    17   1    5.95   671.5    3.2      65.148
2014    8       28    17   6    5.94   671.7    3.2      65.156
2014    8       28    17  12    5.94   671.8    3.2      65.165
2014    8       28    17  17    5.94   672.0    3.2      65.173
2014    8       28    17  23    5.94   672.1    3.2      65.181
2014    8       28    17  29    5.93   672.3    3.2      65.189
2014    8       28    17  34    5.93   672.5    3.2      65.197
2014    8       28    17  40    5.93   672.6    3.2      65.205
2014    8       28    17  45    5.93   672.8    3.2      65.212
2014    8       28    17  51    5.92   672.9    3.2      65.220
2014    8       28    17  56    5.92   673.1    3.2      65.227
2014    8       28    18   2    5.92   673.3    3.2      65.235
2014    8       28    18   8    5.92   673.4    3.2      65.242
2014    8       28    18  13    5.92   673.6    3.2      65.249
2014    8       28    18  19    5.91   673.7    3.2      65.256
2014    8       28    18  24    5.91   673.9    3.2      65.262
2014    8       28    18  30    5.91   674.0    3.2      65.269
2014    8       28    18  35    5.91   674.2    3.1      65.276
2014    8       28    18  41    5.90   674.4    3.1      65.282
2014    8       28    18  47    5.90   674.5    3.1      65.289
2014    8       28    18  52    5.90   674.7    3.1      65.295
2014    8       28    18  58    5.90   674.8    3.1      65.302
2014    8       28    19   3    5.90   675.0    3.1      65.308
2014    8       28    19   9    5.89   675.1    3.1      65.315
2014    8       28    19  14    5.89   675.3    3.1      65.322
2014    8       28    19  20    5.89   675.4    3.1      65.328
2014    8       28    19  26    5.89   675.6    3.1      65.335
2014    8       28    19  31    5.88   675.7    3.1      65.342
2014    8       28    19  37    5.88   675.9    3.1      65.349
2014    8       28    19  42    5.88   676.0    3.1      65.356
2014    8       28    19  48    5.88   676.2    3.1      65.363
2014    8       28    19  53    5.88   676.3    3.1      65.371
2014    8       28    19  59    5.87   676.5    3.1      65.378
2014    8       28    20   5    5.87   676.6    3.1      65.386
2014    8       28    20  10    5.87   676.7    3.1      65.393
2014    8       28    20  16    5.87   676.9    3.1      65.401
2014    8       28    20  21    5.86   677.0    3.1      65.409
2014    8       28    20  27    5.86   677.2    3.1      65.417
2014    8       28    20  32    5.86   677.3    3.1      65.425
2014    8       28    20  38    5.86   677.5    3.1      65.433
2014    8       28    20  44    5.85   677.6    3.1      65.441
2014    8       28    20  49    5.85   677.7    3.1      65.450
2014    8       28    20  55    5.85   677.9    3.1      65.458
2014    8       28    21   0    5.85   678.0    3.1      65.466
2014    8       28    21   6    5.85   678.2    3.1      65.475
2014    8       28    21  11    5.84   678.3    3.1      65.483
2014    8       28    21  17    5.84   678.4    3.1      65.491
2014    8       28    21  22    5.84   678.6    3.1      65.500
2014    8       28    21  28    5.84   678.7    3.1      65.508
2014    8       28    21  34    5.83   678.9    3.1      65.516
2014    8       28    21  39    5.83   679.0    3.1      65.524
2014    8       28    21  45    5.83   679.1    3.1      65.532
2014    8       28    21  50    5.83   679.3    3.1      65.540
2014    8       28    21  56    5.83   679.4    3.1      65.548
2014    8       28    22   1    5.82   679.5    3.1      65.556
2014    8       28    22   7    5.82   679.7    3.1      65.563
2014    8       28    22  13    5.82   679.8    3.0      65.570
2014    8       28    22  18    5.82   679.9    3.0      65.577
2014    8       28    22  24    5.81   680.1    3.0      65.584
2014    8       28    22  29    5.81   680.2    3.0      65.591
2014    8       28    22  35    5.81   680.3    3.0      65.597
2014    8       28    22  40    5.81   680.5    3.0      65.603
2014    8       28    22  46    5.81   680.6    3.0      65.609
2014    8       28    22  52    5.80   680.7    3.0      65.615
2014    8       28    22  57    5.80   680.8    3.0      65.620
2014    8       28    23   3    5.80   681.0    3.0      65.625
2014    8       28    23   8    5.80   681.1    3.0      65.630
2014    8       28    23  14    5.79   681.2    3.0      65.635
2014    8       28    23  19    5.79   681.3    3.0      65.639
2014    8       28    23  25    5.79   681.5    3.0      65.643
2014    8       28    23  31    5.79   681.6    3.0      65.647
2014    8       28    23  36    5.79   681.7    3.0      65.651
2014    8       28    23  42    5.78   681.8    3.0      65.655
2014    8       28    23  47    5.78   682.0    3.0      65.658
2014    8       28    23  53    5.78   682.1    3.0      65.661
2014    8       28    23  58    5.78   682.2    3.0      65.665
2014    8       29     0   4    5.78   682.3    3.0      65.668
2014    8       29     0   9    5.77   682.4    3.0      65.671
2014    8       29     0  15    5.77   682.6    3.0      65.673
2014    8       29     0  21    5.77   682.7    3.0      65.676
2014    8       29     0  26    5.77   682.8    3.0      65.679
2014    8       29     0  32    5.76   682.9    3.0      65.682
2014    8       29     0  37    5.76   683.0    3.0      65.684
2014    8       29     0  43    5.76   683.2    3.0      65.687
2014    8       29     0  48    5.76   683.3    3.0      65.690
2014    8       29     0  54    5.76   683.4    3.0      65.692
2014    8       29     1   0    5.75   683.5    3.0      65.695
2014    8       29     1   5    5.75   683.6    3.0      65.698
2014    8       29     1  11    5.75   683.7    3.0      65.700
2014    8       29     1  16    5.75   683.8    3.0      65.703
2014    8       29     1  22    5.75   684.0    3.0      65.706
2014    8       29     1  27    5.74   684.1    3.0      65.709
2014    8       29     1  33    5.74   684.2    3.0      65.712
2014    8       29     1  39    5.74   684.3    3.0      65.715
2014    8       29     1  44    5.74   684.4    3.0      65.719
2014    8       29     1  50    5.74   684.5    3.0      65.722
2014    8       29     1  55    5.73   684.6    3.0      65.725
2014    8       29     2   1    5.73   684.7    3.0      65.729
2014    8       29     2   6    5.73   684.8    3.0      65.733
2014    8       29     2  12    5.73   684.9    3.0      65.737
2014    8       29     2  18    5.73   685.0    3.0      65.741
2014    8       29     2  23    5.72   685.1    3.0      65.745
2014    8       29     2  29    5.72   685.3    2.9      65.749
2014    8       29     2  34    5.72   685.4    2.9      65.753
2014    8       29     2  40    5.72   685.5    2.9      65.758
2014    8       29     2  45    5.71   685.6    2.9      65.763
2014    8       29     2  51    5.71   685.7    2.9      65.767
2014    8       29     2  57    5.71   685.8    2.9      65.772
2014    8       29     3   2    5.71   685.9    2.9      65.778
2014    8       29     3   8    5.71   686.0    2.9      65.783
2014    8       29     3  13    5.70   686.1    2.9      65.788
2014    8       29     3  19    5.70   686.2    2.9      65.794
2014    8       29     3  24    5.70   686.3    2.9      65.799
2014    8       29     3  30    5.70   686.4    2.9      65.805
2014    8       29     3  36    5.70   686.5    2.9      65.811
2014    8       29     3  41    5.69   686.6    2.9      65.816
2014    8       29     3  47    5.69   686.7    2.9      65.822
2014    8       29     3  52    5.69   686.8    2.9      65.828
2014    8       29     3  58    5.69   686.9    2.9      65.834
2014    8       29     4   3    5.69   687.0    2.9      65.840
2014    8       29     4   9    5.68   687.1    2.9      65.846
2014    8       29     4  14    5.68   687.1    2.9      65.852
2014    8       29     4  20    5.68   687.2    2.9      65.858
2014    8       29     4  26    5.68   687.3    2.9      65.864
2014    8       29     4  31    5.68   687.4    2.9      65.870
2014    8       29     4  37    5.67   687.5    2.9      65.875
2014    8       29     4  42    5.67   687.6    2.9      65.881
2014    8       29     4  48    5.67   687.7    2.9      65.886
2014    8       29     4  53    5.67   687.8    2.9      65.892
2014    8       29     4  59    5.67   687.9    2.9      65.897
2014    8       29     5   5    5.66   688.0    2.9      65.902
2014    8       29     5  10    5.66   688.1    2.9      65.907
2014    8       29     5  16    5.66   688.2    2.9      65.911
2014    8       29     5  21    5.66   688.2    2.9      65.916
2014    8       29     5  27    5.66   688.3    2.9      65.920
2014    8       29     5  32    5.65   688.4    2.9      65.924
2014    8       29     5  38    5.65   688.5    2.9      65.928
2014    8       29     5  44    5.65   688.6    2.9      65.932
2014    8       29     5  49    5.65   688.7    2.9      65.935
2014    8       29     5  55    5.65   688.8    2.9      65.938
2014    8       29     6   0    5.65   688.8    2.9      65.941
2014    8       29     6   6    5.64   688.9    2.9      65.944
2014    8       29     6  11    5.64   689.0    2.9      65.946
2014    8       29     6  17    5.64   689.1    2.9      65.949
2014    8       29     6  23    5.64   689.2    2.9      65.951
2014    8       29     6  28    5.64   689.3    2.9      65.953
2014    8       29     6  34    5.63   689.3    2.9      65.954
2014    8       29     6  39    5.63   689.4    2.9      65.956
2014    8       29     6  45    5.63   689.5    2.9      65.957
2014    8       29     6  50    5.63   689.6    2.9      65.958
2014    8       29     6  56    5.63   689.7    2.9      65.959
2014    8       29     7   2    5.62   689.7    2.9      65.959
2014    8       29     7   7    5.62   689.8    2.9      65.960
2014    8       29     7  13    5.62   689.9    2.9      65.960
2014    8       29     7  18    5.62   690.0    2.9      65.960
2014    8       29     7  24    5.62   690.0    2.9      65.960
2014    8       29     7  29    5.61   690.1    2.9      65.960
2014    8       29     7  35    5.61   690.2    2.9      65.960
2014    8       29     7  40    5.61   690.3    2.8      65.959
2014    8       29     7  46    5.61   690.3    2.8      65.959
2014    8       29     7  52    5.61   690.4    2.8      65.959
2014    8       29     7  57    5.60   690.5    2.8      65.958
2014    8       29     8   3    5.60   690.5    2.8      65.957
2014    8       29     8   8    5.60   690.6    2.8      65.957
2014    8       29     8  14    5.60   690.7    2.8      65.956
2014    8       29     8  19    5.60   690.8    2.8      65.956
2014    8       29     8  25    5.60   690.8    2.8      65.955
2014    8       29     8  31    5.59   690.9    2.8      65.955
2014    8       29     8  36    5.59   691.0    2.8      65.954
2014    8       29     8  42    5.59   691.0    2.8      65.954
2014    8       29     8  47    5.59   691.1    2.8      65.954
2014    8       29     8  53    5.59   691.2    2.8      65.954
2014    8       29     8  58    5.58   691.2    2.8      65.954
2014    8       29     9   4    5.58   691.3    2.8      65.954
2014    8       29     9  10    5.58   691.4    2.8      65.954
2014    8       29     9  15    5.58   691.4    2.8      65.954
2014    8       29     9  21    5.58   691.5    2.8      65.955
2014    8       29     9  26    5.57   691.5    2.8      65.956
2014    8       29     9  32    5.57   691.6    2.8      65.957
2014    8       29     9  37    5.57   691.7    2.8      65.958
2014    8       29     9  43    5.57   691.7    2.8      65.959
2014    8       29     9  49    5.57   691.8    2.8      65.960
2014    8       29     9  54    5.57   691.8    2.8      65.962
2014    8       29    10   0    5.56   691.9    2.8      65.964
2014    8       29    10   5    5.56   692.0    2.8      65.966
2014    8       29    10  11    5.56   692.0    2.8      65.968
2014    8       29    10  16    5.56   692.1    2.8      65.970
2014    8       29    10  22    5.56   692.1    2.8      65.973
2014    8       29    10  28    5.55   692.2    2.8      65.975
2014    8       29    10  33    5.55   692.3    2.8      65.978
2014    8       29    10  39    5.55   692.3    2.8      65.981
2014    8       29    10  44    5.55   692.4    2.8      65.984
2014    8       29    10  50    5.55   692.4    2.8      65.987
2014    8       29    10  55    5.55   692.5    2.8      65.991
2014    8       29    11   1    5.54   692.5    2.8      65.994
2014    8       29    11   6    5.54   692.6    2.8      65.998
2014    8       29    11  12    5.54   692.7    2.8      66.002
2014    8       29    11  18    5.54   692.7    2.8      66.005
2014    8       29    11  23    5.54   692.8    2.8      66.009
2014    8       29    11  29    5.53   692.8    2.8      66.013
2014    8       29    11  34    5.53   692.9    2.8      66.017
2014    8       29    11  40    5.53   692.9    2.8      66.021
2014    8       29    11  45    5.53   693.0    2.8      66.025
2014    8       29    11  51    5.53   693.0    2.8      66.029
2014    8       29    11  57    5.53   693.1    2.8      66.033
2014    8       29    12   2    5.52   693.1    2.8      66.037
2014    8       29    12   8    5.52   693.2    2.8      66.040
2014    8       29    12  13    5.52   693.2    2.8      66.044
2014    8       29    12  19    5.52   693.3    2.8      66.048
2014    8       29    12  24    5.52   693.3    2.8      66.051
2014    8       29    12  30    5.52   693.4    2.8      66.055
2014    8       29    12  36    5.51   693.4    2.8      66.058
2014    8       29    12  41    5.51   693.5    2.8      66.062
2014    8       29    12  47    5.51   693.5    2.8      66.065
2014    8       29    12  52    5.51   693.6    2.8      66.068
2014    8       29    12  58    5.51   693.6    2.8      66.071
2014    8       29    13   3    5.51   693.6    2.8      66.073
2014    8       29    13   9    5.50   693.7    2.8      66.076
2014    8       29    13  15    5.50   693.7    2.8      66.078
2014    8       29    13  20    5.50   693.8    2.8      66.081
2014    8       29    13  26    5.50   693.8    2.8      66.082
2014    8       29    13  31    5.50   693.9    2.8      66.084
2014    8       29    13  37    5.50   693.9    2.8      66.086
2014    8       29    13  42    5.49   694.0    2.8      66.087
2014    8       29    13  48    5.49   694.0    2.8      66.088
2014    8       29    13  54    5.49   694.0    2.8      66.088
2014    8       29    13  59    5.49   694.1    2.8      66.089
2014    8       29    14   5    5.49   694.1    2.8      66.089
2014    8       29    14  10    5.49   694.2    2.8      66.089
2014    8       29    14  16    5.48   694.2    2.8      66.088
2014    8       29    14  21    5.48   694.2    2.8      66.088
2014    8       29    14  27    5.48   694.3    2.8      66.087
2014    8       29    14  32    5.48   694.3    2.8      66.085
2014    8       29    14  38    5.48   694.4    2.8      66.084
2014    8       29    14  44    5.48   694.4    2.7      66.082
2014    8       29    14  49    5.47   694.4    2.7      66.079
2014    8       29    14  55    5.47   694.5    2.7      66.077
2014    8       29    15   0    5.47   694.5    2.7      66.074
2014    8       29    15   6    5.47   694.5    2.7      66.071
2014    8       29    15  11    5.47   694.6    2.7      66.067
2014    8       29    15  17    5.47   694.6    2.7      66.064
2014    8       29    15  23    5.46   694.6    2.7      66.060
2014    8       29    15  28    5.46   694.6    2.7      66.056
2014    8       29    15  34    5.46   694.7    2.7      66.052
2014    8       29    15  39    5.46   694.7    2.7      66.047
2014    8       29    15  45    5.46   694.7    2.7      66.042
2014    8       29    15  50    5.46   694.8    2.7      66.038
2014    8       29    15  56    5.45   694.8    2.7      66.033
2014    8       29    16   2    5.45   694.8    2.7      66.028
2014    8       29    16   7    5.45   694.8    2.7      66.022
2014    8       29    16  13    5.45   694.9    2.7      66.017
2014    8       29    16  18    5.45   694.9    2.7      66.012
2014    8       29    16  24    5.45   694.9    2.7      66.007
2014    8       29    16  29    5.45   694.9    2.7      66.002
2014    8       29    16  35    5.44   694.9    2.7      65.996
2014    8       29    16  41    5.44   695.0    2.7      65.992
2014    8       29    16  46    5.44   695.0    2.7      65.987
2014    8       29    16  52    5.44   695.0    2.7      65.982
2014    8       29    16  57    5.44   695.0    2.7      65.978
2014    8       29    17   3    5.44   695.0    2.7      65.973
2014    8       29    17   8    5.43   695.1    2.7      65.969
2014    8       29    17  14    5.43   695.1    2.7      65.965
2014    8       29    17  20    5.43   695.1    2.7      65.962
2014    8       29    17  25    5.43   695.1    2.7      65.959
2014    8       29    17  31    5.43   695.1    2.7      65.956
2014    8       29    17  36    5.43   695.1    2.7      65.953
2014    8       29    17  42    5.43   695.2    2.7      65.951
2014    8       29    17  47    5.42   695.2    2.7      65.950
2014    8       29    17  53    5.42   695.2    2.7      65.948
2014    8       29    17  59    5.42   695.2    2.7      65.948
2014    8       29    18   4    5.42   695.2    2.7      65.947
2014    8       29    18  10    5.42   695.2    2.7      65.948
2014    8       29    18  15    5.42   695.3    2.7      65.948
2014    8       29    18  21    5.42   695.3    2.7      65.950
2014    8       29    18  26    5.41   695.3    2.7      65.951
2014    8       29    18  32    5.41   695.3    2.7      65.954
2014    8       29    18  37    5.41   695.3    2.7      65.957
2014    8       29    18  43    5.41   695.3    2.7      65.960
2014    8       29    18  49    5.41   695.3    2.7      65.964
2014    8       29    18  54    5.41   695.4    2.7      65.969
2014    8       29    19   0    5.41   695.4    2.7      65.974
2014    8       29    19   5    5.40   695.4    2.7      65.979
2014    8       29    19  11    5.40   695.4    2.7      65.985
2014    8       29    19  16    5.40   695.4    2.7      65.992
2014    8       29    19  22    5.40   695.4    2.7      65.998
2014    8       29    19  28    5.40   695.4    2.7      66.005
2014    8       29    19  33    5.40   695.5    2.7      66.012
2014    8       29    19  39    5.40   695.5    2.7      66.020
2014    8       29    19  44    5.40   695.5    2.7      66.027
2014    8       29    19  50    5.39   695.5    2.7      66.034
2014    8       29    19  55    5.39   695.5    2.7      66.042
2014    8       29    20   1    5.39   695.5    2.7      66.049
2014    8       29    20   7    5.39   695.6    2.7      66.057
2014    8       29    20  12    5.39   695.6    2.7      66.064
2014    8       29    20  18    5.39   695.6    2.7      66.070
2014    8       29    20  23    5.39   695.6    2.7      66.077
2014    8       29    20  29    5.39   695.6    2.7      66.083
2014    8       29    20  34    5.38   695.7    2.7      66.088
2014    8       29    20  40    5.38   695.7    2.7      66.094
2014    8       29    20  46    5.38   695.7    2.7      66.098
2014    8       29    20  51    5.38   695.7    2.7      66.102
2014    8       29    20  57    5.38   695.7    2.7      66.106
2014    8       29    21   2    5.38   695.7    2.7      66.108
2014    8       29    21   8    5.38   695.7    2.7      66.111
2014    8       29    21  13    5.37   695.8    2.7      66.112
2014    8       29    21  19    5.37   695.8    2.7      66.113
2014    8       29    21  24    5.37   695.8    2.7      66.113
2014    8       29    21  30    5.37   695.8    2.7      66.113
2014    8       29    21  36    5.37   695.8    2.7      66.112
2014    8       29    21  41    5.37   695.8    2.7      66.110
2014    8       29    21  47    5.37   695.8    2.7      66.108
2014    8       29    21  52    5.36   695.8    2.7      66.105
2014    8       29    21  58    5.36   695.8    2.7      66.101
2014    8       29    22   3    5.36   695.8    2.7      66.097
2014    8       29    22   9    5.36   695.8    2.7      66.093
2014    8       29    22  15    5.36   695.9    2.7      66.088
2014    8       29    22  20    5.36   695.9    2.7      66.083
2014    8       29    22  26    5.36   695.9    2.7      66.077
2014    8       29    22  31    5.36   695.9    2.7      66.071
2014    8       29    22  37    5.35   695.9    2.7      66.064
2014    8       29    22  42    5.35   695.9    2.7      66.058
2014    8       29    22  48    5.35   695.9    2.7      66.050
2014    8       29    22  54    5.35   695.9    2.7      66.043
2014    8       29    22  59    5.35   695.9    2.7      66.035
2014    8       29    23   5    5.35   695.9    2.7      66.028
2014    8       29    23  10    5.35   695.9    2.7      66.020
2014    8       29    23  16    5.35   695.9    2.7      66.011
2014    8       29    23  21    5.34   695.9    2.7      66.003
2014    8       29    23  27    5.34   695.8    2.7      65.995
2014    8       29    23  33    5.34   695.8    2.7      65.986
2014    8       29    23  38    5.34   695.8    2.7      65.978
2014    8       29    23  44    5.34   695.8    2.7      65.969
2014    8       29    23  49    5.34   695.8    2.7      65.961
2014    8       29    23  55    5.34   695.8    2.7      65.952
2014    8       30     0   0    5.34   695.8    2.7      65.944
2014    8       30     0   6    5.34   695.8    2.7      65.935
2014    8       30     0  12    5.33   695.8    2.7      65.927
2014    8       30     0  17    5.33   695.8    2.7      65.919
2014    8       30     0  23    5.33   695.7    2.7      65.911
2014    8       30     0  28    5.33   695.7    2.7      65.903
2014    8       30     0  34    5.33   695.7    2.7      65.895
2014    8       30     0  39    5.33   695.7    2.7      65.887
2014    8       30     0  45    5.33   695.7    2.7      65.880
2014    8       30     0  51    5.33   695.7    2.7      65.873
2014    8       30     0  56    5.33   695.7    2.7      65.866
2014    8       30     1   2    5.33   695.6    2.7      65.859
2014    8       30     1   7    5.32   695.6    2.6      65.853
2014    8       30     1  13    5.32   695.6    2.6      65.848
2014    8       30     1  18    5.32   695.6    2.6      65.843
2014    8       30     1  24    5.32   695.6    2.6      65.839
2014    8       30     1  29    5.32   695.6    2.6      65.835
2014    8       30     1  35    5.32   695.5    2.6      65.832
2014    8       30     1  41    5.32   695.5    2.6      65.830
2014    8       30     1  46    5.32   695.5    2.6      65.829
2014    8       30     1  52    5.32   695.5    2.6      65.829
2014    8       30     1  57    5.32   695.5    2.6      65.829
2014    8       30     2   3    5.32   695.5    2.6      65.831
2014    8       30     2   8    5.31   695.5    2.6      65.833
2014    8       30     2  14    5.31   695.4    2.6      65.837
2014    8       30     2  20    5.31   695.4    2.6      65.841
2014    8       30     2  25    5.31   695.4    2.6      65.846
2014    8       30     2  31    5.31   695.4    2.6      65.852
2014    8       30     2  36    5.31   695.4    2.6      65.858
2014    8       30     2  42    5.31   695.4    2.6      65.865
2014    8       30     2  47    5.31   695.4    2.6      65.873
2014    8       30     2  53    5.31   695.4    2.6      65.881
2014    8       30     2  59    5.31   695.4    2.6      65.889
2014    8       30     3   4    5.31   695.4    2.6      65.898
2014    8       30     3  10    5.31   695.3    2.6      65.907
2014    8       30     3  15    5.30   695.3    2.6      65.916
2014    8       30     3  21    5.30   695.3    2.6      65.925
2014    8       30     3  26    5.30   695.3    2.6      65.934
2014    8       30     3  32    5.30   695.3    2.6      65.943
2014    8       30     3  38    5.30   695.3    2.6      65.952
2014    8       30     3  43    5.30   695.3    2.6      65.960
2014    8       30     3  49    5.30   695.3    2.6      65.968
2014    8       30     3  54    5.30   695.3    2.6      65.975
2014    8       30     4   0    5.30   695.3    2.6      65.982
2014    8       30     4   5    5.30   695.3    2.6      65.989
2014    8       30     4  11    5.30   695.3    2.6      65.994
2014    8       30     4  16    5.29   695.2    2.6      65.999
2014    8       30     4  22    5.29   695.2    2.6      66.004
2014    8       30     4  28    5.29   695.2    2.6      66.008
2014    8       30     4  33    5.29   695.2    2.6      66.012
2014    8       30     4  39    5.29   695.2    2.6      66.015
2014    8       30     4  44    5.29   695.2    2.6      66.018
2014    8       30     4  50    5.29   695.2    2.6      66.020
2014    8       30     4  55    5.29   695.2    2.6      66.022
2014    8       30     5   1    5.29   695.2    2.6      66.024
2014    8       30     5   7    5.29   695.1    2.6      66.025
2014    8       30     5  12    5.29   695.1    2.6      66.026
2014    8       30     5  18    5.28   695.1    2.6      66.028
2014    8       30     5  23    5.28   695.1    2.6      66.028
2014    8       30     5  29    5.28   695.1    2.6      66.029
2014    8       30     5  34    5.28   695.1    2.6      66.030
2014    8       30     5  40    5.28   695.1    2.6      66.031
2014    8       30     5  46    5.28   695.1    2.6      66.032
2014    8       30     5  51    5.28   695.0    2.6      66.033
2014    8       30     5  57    5.28   695.0    2.6      66.034
2014    8       30     6   2    5.28   695.0    2.6      66.035
2014    8       30     6   8    5.28   695.0    2.6      66.037
2014    8       30     6  13    5.28   695.0    2.6      66.038
2014    8       30     6  19    5.28   695.0    2.6      66.040
2014    8       30     6  25    5.28   695.0    2.6      66.041
2014    8       30     6  30    5.28   695.0    2.6      66.043
2014    8       30     6  36    5.27   694.9    2.6      66.044
2014    8       30     6  41    5.27   694.9    2.6      66.046
2014    8       30     6  47    5.27   694.9    2.6      66.047
2014    8       30     6  52    5.27   694.9    2.6      66.048
2014    8       30     6  58    5.27   694.9    2.6      66.049
2014    8       30     7   4    5.27   694.9    2.6      66.050
2014    8       30     7   9    5.27   694.9    2.6      66.051
2014    8       30     7  15    5.27   694.9    2.6      66.052
2014    8       30     7  20    5.27   694.9    2.6      66.052
2014    8       30     7  26    5.27   694.8    2.6      66.052
2014    8       30     7  31    5.27   694.8    2.6      66.052
2014    8       30     7  37    5.27   694.8    2.6      66.051
2014    8       30     7  43    5.27   694.8    2.6      66.050
2014    8       30     7  48    5.27   694.8    2.6      66.048
2014    8       30     7  54    5.27   694.8    2.6      66.046
2014    8       30     7  59    5.26   694.7    2.6      66.044
2014    8       30     8   5    5.26   694.7    2.6      66.041
2014    8       30     8  10    5.26   694.7    2.6      66.038
2014    8       30     8  16    5.26   694.7    2.6      66.034
2014    8       30     8  21    5.26   694.7    2.6      66.031
2014    8       30     8  27    5.26   694.6    2.6      66.027
2014    8       30     8  33    5.26   694.6    2.6      66.023
2014    8       30     8  38    5.26   694.6    2.6      66.019
2014    8       30     8  44    5.26   694.6    2.6      66.014
2014    8       30     8  49    5.26   694.6    2.6      66.010
2014    8       30     8  55    5.26   694.5    2.6      66.006
2014    8       30     9   0    5.26   694.5    2.6      66.002
2014    8       30     9   6    5.26   694.5    2.6      65.998
2014    8       30     9  12    5.26   694.5    2.6      65.994
2014    8       30     9  17    5.26   694.4    2.6      65.990
2014    8       30     9  23    5.26   694.4    2.6      65.987
2014    8       30     9  28    5.26   694.4    2.6      65.984
2014    8       30     9  34    5.25   694.4    2.6      65.981
2014    8       30     9  39    5.25   694.4    2.6      65.979
2014    8       30     9  45    5.25   694.3    2.6      65.977
2014    8       30     9  51    5.25   694.3    2.6      65.975
2014    8       30     9  56    5.25   694.3    2.6      65.974
2014    8       30    10   2    5.25   694.3    2.6      65.973
2014    8       30    10   7    5.25   694.2    2.6      65.972
2014    8       30    10  13    5.25   694.2    2.6      65.971
2014    8       30    10  18    5.25   694.2    2.6      65.970
2014    8       30    10  24    5.25   694.2    2.6      65.970
2014    8       30    10  30    5.25   694.2    2.6      65.969
2014    8       30    10  35    5.25   694.1    2.6      65.968
2014    8       30    10  41    5.25   694.1    2.6      65.967
2014    8       30    10  46    5.25   694.1    2.6      65.966
2014    8       30    10  52    5.25   694.1    2.6      65.965
2014    8       30    10  57    5.25   694.0    2.6      65.963
2014    8       30    11   3    5.25   694.0    2.6      65.961
2014    8       30    11   8    5.24   694.0    2.6      65.958
2014    8       30    11  14    5.24   694.0    2.6      65.955
2014    8       30    11  20    5.24   693.9    2.6      65.952
2014    8       30    11  25    5.24   693.9    2.6      65.948
2014    8       30    11  31    5.24   693.9    2.6      65.944
2014    8       30    11  36    5.24   693.9    2.6      65.939
2014    8       30    11  42    5.24   693.8    2.6      65.935
2014    8       30    11  47    5.24   693.8    2.6      65.930
2014    8       30    11  53    5.24   693.8    2.6      65.925
2014    8       30    11  59    5.24   693.7    2.6      65.920
2014    8       30    12   4    5.24   693.7    2.6      65.915
2014    8       30    12  10    5.24   693.7    2.6      65.909
2014    8       30    12  15    5.24   693.7    2.6      65.905
2014    8       30    12  21    5.24   693.6    2.6      65.900
2014    8       30    12  26    5.24   693.6    2.6      65.896
2014    8       30    12  32    5.24   693.6    2.6      65.893
2014    8       30    12  38    5.24   693.5    2.6      65.890
2014    8       30    12  43    5.24   693.5    2.6      65.888
2014    8       30    12  49    5.24   693.5    2.6      65.887
2014    8       30    12  54    5.24   693.4    2.6      65.887
2014    8       30    13   0    5.23   693.4    2.6      65.888
2014    8       30    13   5    5.23   693.4    2.6      65.890
2014    8       30    13  11    5.23   693.4    2.6      65.893
2014    8       30    13  17    5.23   693.3    2.6      65.898
2014    8       30    13  22    5.23   693.3    2.6      65.904
2014    8       30    13  28    5.23   693.3    2.6      65.911
2014    8       30    13  33    5.23   693.3    2.6      65.920
2014    8       30    13  39    5.23   693.2    2.6      65.929
2014    8       30    13  44    5.23   693.2    2.6      65.940
2014    8       30    13  50    5.23   693.2    2.6      65.953
2014    8       30    13  56    5.23   693.2    2.6      65.967
2014    8       30    14   1    5.23   693.2    2.6      65.982
2014    8       30    14   7    5.23   693.2    2.6      65.997
2014    8       30    14  12    5.23   693.2    2.6      66.013
2014    8       30    14  18    5.23   693.1    2.6      66.029
2014    8       30    14  23    5.23   693.1    2.6      66.045
2014    8       30    14  29    5.23   693.1    2.6      66.061
2014    8       30    14  35    5.23   693.1    2.6      66.076
2014    8       30    14  40    5.23   693.1    2.6      66.092
2014    8       30    14  46    5.23   693.1    2.6      66.107
2014    8       30    14  51    5.23   693.0    2.6      66.122
2014    8       30    14  57    5.23   693.0    2.6      66.136
2014    8       30    15   2    5.23   693.0    2.6      66.151
2014    8       30    15   8    5.23   693.0    2.6      66.164
2014    8       30    15  13    5.23   693.0    2.6      66.177
2014    8       30    15  19    5.23   693.0    2.6      66.190
2014    8       30    15  25    5.22   692.9    2.6      66.201
2014    8       30    15  30    5.22   692.9    2.6      66.213
2014    8       30    15  36    5.22   692.9    2.6      66.223
2014    8       30    15  41    5.22   692.9    2.6      66.233
2014    8       30    15  47    5.22   692.9    2.6      66.242
2014    8       30    15  52    5.22   692.8    2.6      66.250
2014    8       30    15  58    5.22   692.8    2.6      66.258
2014    8       30    16   4    5.22   692.8    2.6      66.266
2014    8       30    16   9    5.22   692.8    2.6      66.274
2014    8       30    16  15    5.22   692.7    2.6      66.281
2014    8       30    16  20    5.22   692.7    2.6      66.289
2014    8       30    16  26    5.22   692.7    2.6      66.296
2014    8       30    16  31    5.22   692.7    2.6      66.303
2014    8       30    16  37    5.22   692.6    2.6      66.309
2014    8       30    16  43    5.22   692.6    2.6      66.315
2014    8       30    16  48    5.22   692.6    2.6      66.320
2014    8       30    16  54    5.22   692.5    2.6      66.325
2014    8       30    16  59    5.22   692.5    2.6      66.329
2014    8       30    17   5    5.22   692.5    2.6      66.332
2014    8       30    17  10    5.22   692.5    2.6      66.335
2014    8       30    17  16    5.22   692.4    2.6      66.338
2014    8       30    17  22    5.22   692.4    2.6      66.340
2014    8       30    17  27    5.21   692.4    2.6      66.342
2014    8       30    17  33    5.21   692.3    2.6      66.343
2014    8       30    17  38    5.21   692.3    2.6      66.344
2014    8       30    17  44    5.21   692.3    2.6      66.344
2014    8       30    17  49    5.21   692.3    2.6      66.344
2014    8       30    17  55    5.21   692.2    2.6      66.343
2014    8       30    18   1    5.21   692.2    2.6      66.342
2014    8       30    18   6    5.21   692.2    2.6      66.339
2014    8       30    18  12    5.21   692.1    2.6      66.336
2014    8       30    18  17    5.21   692.1    2.6      66.333
2014    8       30    18  23    5.21   692.1    2.6      66.328
2014    8       30    18  28    5.21   692.1    2.6      66.323
2014    8       30    18  34    5.21   692.0    2.6      66.317
2014    8       30    18  39    5.21   692.0    2.6      66.310
2014    8       30    18  45    5.21   692.0    2.6      66.302
2014    8       30    18  51    5.21   691.9    2.6      66.293
2014    8       30    18  56    5.21   691.9    2.6      66.283
2014    8       30    19   2    5.21   691.9    2.6      66.273
2014    8       30    19   7    5.21   691.9    2.6      66.261
2014    8       30    19  13    5.21   691.8    2.6      66.249
2014    8       30    19  18    5.21   691.8    2.6      66.236
2014    8       30    19  24    5.21   691.8    2.6      66.223
2014    8       30    19  30    5.21   691.8    2.6      66.209
2014    8       30    19  35    5.21   691.7    2.6      66.194
2014    8       30    19  41    5.21   691.7    2.6      66.179
2014    8       30    19  46    5.21   691.7    2.6      66.163
2014    8       30    19  52    5.21   691.6    2.6      66.147
2014    8       30    19  57    5.21   691.6    2.6      66.132
2014    8       30    20   3    5.21   691.6    2.6      66.116
2014    8       30    20   9    5.21   691.5    2.6      66.100
2014    8       30    20  14    5.21   691.5    2.6      66.084
2014    8       30    20  20    5.21   691.5    2.6      66.069
2014    8       30    20  25    5.21   691.4    2.6      66.054
2014    8       30    20  31    5.21   691.4    2.6      66.040
2014    8       30    20  36    5.20   691.4    2.6      66.027
2014    8       30    20  42    5.20   691.4    2.6      66.014
2014    8       30    20  48    5.20   691.3    2.6      66.003
2014    8       30    20  53    5.20   691.3    2.6      65.993
2014    8       30    20  59    5.20   691.3    2.6      65.983
2014    8       30    21   4    5.20   691.2    2.6      65.975
2014    8       30    21  10    5.20   691.2    2.6      65.969
2014    8       30    21  15    5.20   691.2    2.6      65.963
2014    8       30    21  21    5.20   691.1    2.6      65.959
2014    8       30    21  26    5.20   691.1    2.6      65.956
2014    8       30    21  32    5.20   691.1    2.6      65.955
2014    8       30    21  38    5.20   691.0    2.6      65.955
2014    8       30    21  43    5.20   691.0    2.6      65.956
2014    8       30    21  49    5.20   691.0    2.6      65.959
2014    8       30    21  54    5.20   690.9    2.6      65.962
2014    8       30    22   0    5.20   690.9    2.6      65.968
2014    8       30    22   5    5.20   690.9    2.6      65.974
2014    8       30    22  11    5.20   690.8    2.6      65.981
2014    8       30    22  17    5.20   690.8    2.6      65.990
2014    8       30    22  22    5.20   690.8    2.6      66.000
2014    8       30    22  28    5.20   690.7    2.6      66.011
2014    8       30    22  33    5.20   690.7    2.6      66.023
2014    8       30    22  39    5.20   690.7    2.6      66.037
2014    8       30    22  44    5.20   690.6    2.6      66.052
2014    8       30    22  50    5.20   690.6    2.6      66.067
2014    8       30    22  56    5.20   690.6    2.6      66.085
2014    8       30    23   1    5.20   690.5    2.6      66.104
2014    8       30    23   7    5.20   690.5    2.6      66.124
2014    8       30    23  12    5.20   690.5    2.6      66.144
2014    8       30    23  18    5.20   690.4    2.6      66.166
2014    8       30    23  23    5.20   690.4    2.6      66.187
2014    8       30    23  29    5.20   690.4    2.6      66.208
2014    8       30    23  35    5.20   690.3    2.6      66.229
2014    8       30    23  40    5.20   690.3    2.6      66.249
2014    8       30    23  46    5.20   690.3    2.6      66.269
2014    8       30    23  51    5.20   690.2    2.6      66.289
2014    8       30    23  57    5.20   690.2    2.6      66.309
2014    8       31     0   2    5.19   690.1    2.6      66.327
2014    8       31     0   8    5.19   690.1    2.6      66.345
2014    8       31     0  14    5.19   690.1    2.6      66.361
2014    8       31     0  19    5.19   690.0    2.6      66.377
2014    8       31     0  25    5.19   690.0    2.6      66.391
2014    8       31     0  30    5.19   689.9    2.6      66.405
2014    8       31     0  36    5.19   689.9    2.6      66.418
2014    8       31     0  41    5.19   689.9    2.6      66.429
2014    8       31     0  47    5.19   689.8    2.6      66.440
2014    8       31     0  53    5.19   689.8    2.6      66.450
2014    8       31     0  58    5.19   689.7    2.6      66.459
2014    8       31     1   4    5.19   689.7    2.6      66.467
2014    8       31     1   9    5.19   689.6    2.6      66.474
2014    8       31     1  15    5.19   689.6    2.6      66.481
2014    8       31     1  20    5.19   689.5    2.6      66.486
2014    8       31     1  26    5.19   689.5    2.6      66.491
2014    8       31     1  31    5.19   689.5    2.6      66.496
2014    8       31     1  37    5.19   689.4    2.6      66.500
2014    8       31     1  43    5.19   689.4    2.6      66.503
2014    8       31     1  48    5.19   689.3    2.6      66.506
2014    8       31     1  54    5.19   689.3    2.6      66.509
2014    8       31     1  59    5.19   689.3    2.6      66.511
2014    8       31     2   5    5.19   689.2    2.6      66.513
2014    8       31     2  10    5.19   689.2    2.6      66.514
2014    8       31     2  16    5.19   689.1    2.6      66.517
2014    8       31     2  22    5.19   689.1    2.6      66.519
2014    8       31     2  27    5.19   689.1    2.6      66.521
2014    8       31     2  33    5.19   689.0    2.6      66.524
2014    8       31     2  38    5.19   689.0    2.6      66.525
2014    8       31     2  44    5.19   689.0    2.6      66.526
2014    8       31     2  49    5.19   688.9    2.6      66.526
2014    8       31     2  55    5.19   688.9    2.6      66.525
2014    8       31     3   1    5.19   688.9    2.6      66.523
2014    8       31     3   6    5.19   688.9    2.6      66.520
2014    8       31     3  12    5.19   688.8    2.6      66.517
2014    8       31     3  17    5.19   688.8    2.6      66.512
2014    8       31     3  23    5.19   688.8    2.6      66.507
2014    8       31     3  28    5.19   688.7    2.6      66.501
2014    8       31     3  34    5.19   688.7    2.6      66.493
2014    8       31     3  40    5.19   688.7    2.6      66.485
2014    8       31     3  45    5.19   688.7    2.6      66.477
2014    8       31     3  51    5.19   688.6    2.6      66.467
2014    8       31     3  56    5.19   688.6    2.6      66.457
2014    8       31     4   2    5.19   688.6    2.6      66.446
2014    8       31     4   7    5.19   688.5    2.6      66.435
2014    8       31     4  13    5.19   688.5    2.6      66.424
2014    8       31     4  18    5.19   688.5    2.6      66.412
2014    8       31     4  24    5.19   688.4    2.6      66.400
2014    8       31     4  30    5.19   688.4    2.6      66.388
2014    8       31     4  35    5.19   688.4    2.6      66.376
2014    8       31     4  41    5.19   688.3    2.6      66.364
2014    8       31     4  46    5.18   688.3    2.6      66.352
2014    8       31     4  52    5.18   688.3    2.6      66.340
2014    8       31     4  57    5.18   688.2    2.6      66.328
2014    8       31     5   3    5.18   688.2    2.6      66.317
2014    8       31     5   9    5.18   688.1    2.6      66.306
2014    8       31     5  14    5.18   688.1    2.6      66.296
2014    8       31     5  20    5.18   688.1    2.6      66.286
2014    8       31     5  25    5.18   688.0    2.6      66.278
2014    8       31     5  31    5.18   688.0    2.6      66.270
2014    8       31     5  36    5.18   687.9    2.6      66.263
2014    8       31     5  42    5.18   687.9    2.6      66.256
2014    8       31     5  48    5.18   687.8    2.6      66.251
2014    8       31     5  53    5.18   687.8    2.6      66.247
2014    8       31     5  59    5.18   687.8    2.6      66.243
2014    8       31     6   4    5.18   687.7    2.6      66.241
2014    8       31     6  10    5.18   687.7    2.6      66.240
2014    8       31     6  15    5.18   687.6    2.6      66.239
2014    8       31     6  21    5.18   687.6    2.6      66.239
2014    8       31     6  27    5.18   687.6    2.6      66.239
2014    8       31     6  32    5.18   687.5    2.6      66.241
2014    8       31     6  38    5.18   687.5    2.6      66.243
2014    8       31     6  43    5.18   687.4    2.6      66.246
2014    8       31     6  49    5.18   687.4    2.6      66.250
2014    8       31     6  54    5.18   687.3    2.6      66.254
2014    8       31     7   0    5.18   687.3    2.6      66.259
2014    8       31     7   6    5.18   687.3    2.6      66.264
2014    8       31     7  11    5.18   687.2    2.6      66.269
2014    8       31     7  17    5.18   687.1    2.6      66.275
2014    8       31     7  22    5.18   687.1    2.6      66.281
2014    8       31     7  28    5.18   687.0    2.6      66.287
2014    8       31     7  33    5.18   687.0    2.6      66.293
2014    8       31     7  39    5.18   686.9    2.6      66.299
2014    8       31     7  45    5.18   686.9    2.6      66.305
2014    8       31     7  50    5.18   686.8    2.6      66.311
2014    8       31     7  56    5.18   686.8    2.6      66.317
2014    8       31     8   1    5.18   686.7    2.6      66.324
2014    8       31     8   7    5.18   686.7    2.6      66.331
2014    8       31     8  12    5.18   686.6    2.6      66.338
2014    8       31     8  18    5.18   686.5    2.6      66.344
2014    8       31     8  23    5.18   686.5    2.6      66.352
2014    8       31     8  29    5.18   686.4    2.6      66.360
2014    8       31     8  35    5.18   686.4    2.6      66.368
2014    8       31     8  40    5.18   686.3    2.6      66.376
2014    8       31     8  46    5.18   686.3    2.6      66.385
2014    8       31     8  51    5.18   686.2    2.6      66.394
2014    8       31     8  57    5.18   686.1    2.6      66.404
2014    8       31     9   2    5.18   686.1    2.6      66.415
2014    8       31     9   8    5.18   686.0    2.6      66.426
2014    8       31     9  14    5.18   686.0    2.6      66.437
2014    8       31     9  19    5.18   685.9    2.6      66.449
2014    8       31     9  25    5.18   685.9    2.6      66.462
2014    8       31     9  30    5.18   685.8    2.7      66.474
2014    8       31     9  36    5.18   685.8    2.7      66.487
2014    8       31     9  41    5.18   685.7    2.7      66.501
2014    8       31     9  47    5.18   685.7    2.7      66.514
2014    8       31     9  53    5.18   685.6    2.7      66.528
2014    8       31     9  58    5.18   685.6    2.7      66.542
2014    8       31    10   4    5.18   685.5    2.7      66.557
2014    8       31    10   9    5.18   685.5    2.7      66.572
2014    8       31    10  15    5.18   685.4    2.7      66.586
2014    8       31    10  20    5.18   685.4    2.7      66.600
2014    8       31    10  26    5.18   685.3    2.7      66.613
2014    8       31    10  32    5.18   685.3    2.7      66.626
2014    8       31    10  37    5.18   685.3    2.7      66.638
2014    8       31    10  43    5.18   685.2    2.7      66.648
2014    8       31    10  48    5.17   685.2    2.7      66.659
2014    8       31    10  54    5.17   685.1    2.7      66.668
2014    8       31    10  59    5.17   685.1    2.7      66.676
2014    8       31    11   5    5.17   685.0    2.7      66.684
2014    8       31    11  10    5.17   685.0    2.7      66.691
2014    8       31    11  16    5.17   684.9    2.7      66.697
2014    8       31    11  22    5.17   684.9    2.7      66.702
2014    8       31    11  27    5.17   684.8    2.7      66.706
2014    8       31    11  33    5.17   684.8    2.7      66.709
2014    8       31    11  38    5.17   684.7    2.7      66.711
2014    8       31    11  44    5.17   684.7    2.7      66.712
2014    8       31    11  49    5.17   684.6    2.7      66.713
2014    8       31    11  55    5.17   684.6    2.7      66.713
2014    8       31    12   1    5.17   684.5    2.7      66.712
2014    8       31    12   6    5.17   684.5    2.7      66.710
2014    8       31    12  12    5.17   684.4    2.7      66.708
2014    8       31    12  17    5.17   684.4    2.7      66.705
2014    8       31    12  23    5.17   684.3    2.7      66.702
2014    8       31    12  28    5.17   684.3    2.7      66.699
2014    8       31    12  34    5.17   684.2    2.7      66.695
2014    8       31    12  40    5.17   684.2    2.7      66.691
2014    8       31    12  45    5.17   684.1    2.7      66.687
2014    8       31    12  51    5.17   684.1    2.7      66.683
2014    8       31    12  56    5.17   684.1    2.7      66.678
2014    8       31    13   2    5.17   684.0    2.7      66.674
2014    8       31    13   7    5.17   684.0    2.7      66.669
2014    8       31    13  13    5.17   683.9    2.7      66.665
2014    8       31    13  19    5.17   683.9    2.7      66.661
2014    8       31    13  24    5.17   683.8    2.7      66.657
2014    8       31    13  30    5.17   683.8    2.7      66.654
2014    8       31    13  35    5.17   683.7    2.7      66.650
2014    8       31    13  41    5.17   683.7    2.7      66.647
2014    8       31    13  46    5.17   683.6    2.7      66.643
2014    8       31    13  52    5.17   683.6    2.7      66.638
2014    8       31    13  58    5.17   683.6    2.7      66.634
2014    8       31    14   3    5.17   683.5    2.7      66.630
2014    8       31    14   9    5.17   683.5    2.7      66.625
2014    8       31    14  14    5.17   683.4    2.7      66.621
2014    8       31    14  20    5.17   683.4    2.7      66.616
2014    8       31    14  25    5.17   683.3    2.7      66.612
2014    8       31    14  31    5.17   683.3    2.7      66.607
2014    8       31    14  37    5.17   683.2    2.7      66.603
2014    8       31    14  42    5.17   683.2    2.7      66.598
2014    8       31    14  48    5.17   683.1    2.7      66.594
2014    8       31    14  53    5.17   683.1    2.7      66.590
2014    8       31    14  59    5.17   683.0    2.7      66.586
2014    8       31    15   4    5.17   683.0    2.7      66.583
2014    8       31    15  10    5.17   682.9    2.7      66.580
2014    8       31    15  15    5.17   682.9    2.7      66.577
2014    8       31    15  21    5.17   682.8    2.7      66.575
2014    8       31    15  27    5.17   682.8    2.7      66.574
2014    8       31    15  32    5.17   682.7    2.7      66.573
2014    8       31    15  38    5.16   682.7    2.7      66.573
2014    8       31    15  43    5.16   682.6    2.7      66.573
2014    8       31    15  49    5.16   682.6    2.7      66.575
2014    8       31    15  54    5.16   682.5    2.7      66.577
2014    8       31    16   0    5.16   682.5    2.7      66.579
2014    8       31    16   6    5.16   682.4    2.7      66.583
2014    8       31    16  11    5.16   682.3    2.7      66.587
2014    8       31    16  17    5.16   682.3    2.7      66.593
2014    8       31    16  22    5.16   682.2    2.7      66.598
2014    8       31    16  28    5.16   682.2    2.7      66.605
2014    8       31    16  33    5.16   682.1    2.7      66.612
2014    8       31    16  39    5.16   682.1    2.7      66.620
2014    8       31    16  45    5.16   682.0    2.7      66.629
2014    8       31    16  50    5.16   681.9    2.7      66.638
2014    8       31    16  56    5.16   681.9    2.7      66.647
2014    8       31    17   1    5.16   681.8    2.7      66.657
2014    8       31    17   7    5.16   681.8    2.7      66.668
2014    8       31    17  12    5.16   681.7    2.7      66.678
2014    8       31    17  18    5.16   681.7    2.7      66.689
2014    8       31    17  24    5.16   681.6    2.7      66.701
2014    8       31    17  29    5.16   681.6    2.7      66.712
2014    8       31    17  35    5.16   681.5    2.7      66.724
2014    8       31    17  40    5.16   681.4    2.7      66.736
2014    8       31    17  46    5.16   681.4    2.7      66.748
2014    8       31    17  51    5.16   681.3    2.7      66.760
2014    8       31    17  57    5.16   681.3    2.7      66.772
2014    8       31    18   2    5.16   681.2    2.7      66.784
2014    8       31    18   8    5.16   681.2    2.7      66.796
2014    8       31    18  14    5.16   681.1    2.7      66.808
2014    8       31    18  19    5.16   681.1    2.7      66.820
2014    8       31    18  25    5.16   681.0    2.7      66.832
2014    8       31    18  30    5.16   681.0    2.7      66.843
2014    8       31    18  36    5.16   680.9    2.7      66.854
2014    8       31    18  41    5.16   680.8    2.7      66.865
2014    8       31    18  47    5.16   680.8    2.7      66.875
2014    8       31    18  53    5.16   680.7    2.7      66.885
2014    8       31    18  58    5.16   680.7    2.7      66.894
2014    8       31    19   4    5.16   680.6    2.7      66.902
2014    8       31    19   9    5.16   680.6    2.7      66.910
2014    8       31    19  15    5.16   680.5    2.7      66.917
2014    8       31    19  20    5.16   680.5    2.7      66.924
2014    8       31    19  26    5.16   680.4    2.7      66.930
2014    8       31    19  32    5.16   680.4    2.7      66.936
2014    8       31    19  37    5.16   680.3    2.7      66.941
2014    8       31    19  43    5.15   680.3    2.7      66.945
2014    8       31    19  48    5.15   680.2    2.7      66.950
2014    8       31    19  54    5.15   680.2    2.7      66.953
2014    8       31    19  59    5.15   680.1    2.7      66.957
2014    8       31    20   5    5.15   680.1    2.7      66.961
2014    8       31    20  11    5.15   680.0    2.7      66.965
2014    8       31    20  16    5.15   680.0    2.7      66.968
2014    8       31    20  22    5.15   679.9    2.7      66.970
2014    8       31    20  27    5.15   679.9    2.7      66.972
2014    8       31    20  33    5.15   679.8    2.7      66.973
2014    8       31    20  38    5.15   679.8    2.7      66.974
2014    8       31    20  44    5.15   679.7    2.7      66.973
2014    8       31    20  50    5.15   679.7    2.7      66.972
2014    8       31    20  55    5.15   679.6    2.7      66.971
2014    8       31    21   1    5.15   679.6    2.7      66.969
2014    8       31    21   6    5.15   679.5    2.7      66.967
2014    8       31    21  12    5.15   679.5    2.7      66.965
2014    8       31    21  17    5.15   679.4    2.7      66.962
2014    8       31    21  23    5.15   679.4    2.7      66.959
2014    8       31    21  29    5.15   679.3    2.7      66.957
2014    8       31    21  34    5.15   679.3    2.7      66.954
2014    8       31    21  40    5.15   679.2    2.7      66.952
2014    8       31    21  45    5.15   679.2    2.7      66.950
2014    8       31    21  51    5.15   679.1    2.7      66.948
2014    8       31    21  56    5.15   679.1    2.7      66.947
2014    8       31    22   2    5.14   679.0    2.7      66.946
2014    8       31    22   7    5.14   678.9    2.7      66.946
2014    8       31    22  13    5.14   678.9    2.7      66.946
2014    8       31    22  19    5.14   678.8    2.7      66.948
2014    8       31    22  24    5.14   678.8    2.7      66.950
2014    8       31    22  30    5.14   678.7    2.7      66.952
2014    8       31    22  35    5.14   678.7    2.7      66.956
2014    8       31    22  41    5.14   678.6    2.7      66.960
2014    8       31    22  46    5.14   678.5    2.7      66.966
2014    8       31    22  52    5.14   678.5    2.7      66.973
2014    8       31    22  58    5.14   678.4    2.7      66.980
2014    8       31    23   3    5.14   678.4    2.7      66.988
2014    8       31    23   9    5.14   678.3    2.7      66.996
2014    8       31    23  14    5.14   678.3    2.7      67.003
2014    8       31    23  20    5.14   678.2    2.7      67.010
2014    8       31    23  25    5.14   678.2    2.7      67.017
2014    8       31    23  31    5.14   678.1    2.7      67.024
2014    8       31    23  37    5.14   678.1    2.7      67.030
2014    8       31    23  42    5.14   678.0    2.7      67.037
2014    8       31    23  48    5.14   678.0    2.7      67.042
2014    8       31    23  53    5.14   677.9    2.7      67.048
2014    8       31    23  59    5.14   677.9    2.7      67.053
2014    9        1     0   4    5.14   677.8    2.7      67.058
2014    9        1     0  10    5.14   677.8    2.7      67.063
2014    9        1     0  16    5.14   677.7    2.7      67.067
2014    9        1     0  21    5.13   677.7    2.7      67.072
2014    9        1     0  27    5.13   677.6    2.7      67.076
2014    9        1     0  32    5.13   677.6    2.7      67.079
2014    9        1     0  38    5.13   677.5    2.7      67.083
2014    9        1     0  43    5.13   677.5    2.7      67.086
2014    9        1     0  49    5.13   677.4    2.7      67.089
2014    9        1     0  54    5.13   677.4    2.7      67.091
2014    9        1     1   0    5.13   677.3    2.7      67.094
2014    9        1     1   6    5.13   677.3    2.7      67.097
2014    9        1     1  11    5.13   677.2    2.7      67.099
2014    9        1     1  17    5.13   677.2    2.7      67.101
2014    9        1     1  22    5.13   677.1    2.7      67.103
2014    9        1     1  28    5.13   677.1    2.7      67.105
2014    9        1     1  33    5.13   677.0    2.7      67.106
2014    9        1     1  39    5.13   677.0    2.7      67.108
2014    9        1     1  45    5.13   676.9    2.7      67.109
2014    9        1     1  50    5.13   676.9    2.7      67.111
2014    9        1     1  56    5.13   676.8    2.7      67.112
2014    9        1     2   1    5.13   676.8    2.7      67.113
2014    9        1     2   7    5.12   676.8    2.7      67.113
2014    9        1     2  12    5.12   676.7    2.7      67.113
2014    9        1     2  18    5.12   676.7    2.7      67.113
2014    9        1     2  24    5.12   676.6    2.7      67.112
2014    9        1     2  29    5.12   676.6    2.7      67.111
2014    9        1     2  35    5.12   676.5    2.7      67.110
2014    9        1     2  40    5.12   676.5    2.7      67.108
2014    9        1     2  46    5.12   676.4    2.7      67.106
2014    9        1     2  51    5.12   676.4    2.7      67.104
2014    9        1     2  57    5.12   676.4    2.7      67.101
2014    9        1     3   3    5.12   676.3    2.7      67.099
2014    9        1     3   8    5.12   676.3    2.7      67.096
2014    9        1     3  14    5.12   676.2    2.7      67.093
2014    9        1     3  19    5.12   676.2    2.7      67.090
2014    9        1     3  25    5.12   676.1    2.7      67.087
2014    9        1     3  30    5.12   676.1    2.7      67.085
2014    9        1     3  36    5.12   676.0    2.7      67.082
2014    9        1     3  42    5.11   676.0    2.7      67.079
2014    9        1     3  47    5.11   675.9    2.7      67.076
2014    9        1     3  53    5.11   675.9    2.7      67.074
2014    9        1     3  58    5.11   675.8    2.7      67.071
2014    9        1     4   4    5.11   675.8    2.7      67.069
2014    9        1     4   9    5.11   675.7    2.7      67.066
2014    9        1     4  15    5.11   675.6    2.7      67.063
2014    9        1     4  20    5.11   675.6    2.7      67.061
2014    9        1     4  26    5.11   675.5    2.7      67.060
2014    9        1     4  32    5.11   675.5    2.7      67.059
2014    9        1     4  37    5.11   675.4    2.7      67.059
2014    9        1     4  43    5.11   675.4    2.7      67.060
2014    9        1     4  48    5.11   675.3    2.7      67.061
2014    9        1     4  54    5.11   675.3    2.7      67.061
2014    9        1     4  59    5.10   675.2    2.7      67.063
2014    9        1     5   5    5.10   675.2    2.7      67.064
2014    9        1     5  11    5.10   675.1    2.7      67.066
2014    9        1     5  16    5.10   675.1    2.7      67.069
2014    9        1     5  22    5.10   675.0    2.7      67.072
2014    9        1     5  27    5.10   675.0    2.7      67.075
2014    9        1     5  33    5.10   674.9    2.7      67.079
2014    9        1     5  38    5.10   674.8    2.7      67.082
2014    9        1     5  44    5.10   674.8    2.7      67.087
2014    9        1     5  50    5.10   674.7    2.7      67.093
2014    9        1     5  55    5.10   674.7    2.7      67.099
2014    9        1     6   1    5.10   674.6    2.7      67.106
2014    9        1     6   6    5.10   674.6    2.7      67.112
2014    9        1     6  12    5.10   674.6    2.7      67.118
2014    9        1     6  17    5.09   674.5    2.7      67.123
2014    9        1     6  23    5.09   674.5    2.7      67.127
2014    9        1     6  29    5.09   674.4    2.7      67.130
2014    9        1     6  34    5.09   674.4    2.7      67.133
2014    9        1     6  40    5.09   674.3    2.7      67.135
2014    9        1     6  45    5.09   674.3    2.7      67.136
2014    9        1     6  51    5.09   674.2    2.7      67.136
2014    9        1     6  56    5.09   674.2    2.7      67.136
2014    9        1     7   2    5.09   674.1    2.7      67.135
2014    9        1     7   8    5.09   674.1    2.7      67.134
2014    9        1     7  13    5.09   674.0    2.7      67.132
2014    9        1     7  19    5.09   674.0    2.7      67.130
2014    9        1     7  24    5.08   673.9    2.7      67.127
2014    9        1     7  30    5.08   673.9    2.7      67.124
2014    9        1     7  35    5.08   673.8    2.7      67.121
2014    9        1     7  41    5.08   673.7    2.7      67.117
2014    9        1     7  46    5.08   673.7    2.7      67.113
2014    9        1     7  52    5.08   673.6    2.7      67.108
2014    9        1     7  58    5.08   673.6    2.7      67.104
2014    9        1     8   3    5.08   673.5    2.7      67.099
2014    9        1     8   9    5.08   673.4    2.7      67.094
2014    9        1     8  14    5.08   673.4    2.7      67.089
2014    9        1     8  20    5.08   673.3    2.7      67.085
2014    9        1     8  25    5.07   673.2    2.7      67.080
2014    9        1     8  31    5.07   673.2    2.7      67.076
2014    9        1     8  37    5.07   673.1    2.7      67.071
2014    9        1     8  42    5.07   673.0    2.7      67.067
2014    9        1     8  48    5.07   673.0    2.7      67.064
2014    9        1     8  53    5.07   672.9    2.7      67.061
2014    9        1     8  59    5.07   672.9    2.7      67.058
2014    9        1     9   4    5.07   672.8    2.7      67.055
2014    9        1     9  10    5.07   672.7    2.7      67.054
2014    9        1     9  16    5.07   672.7    2.7      67.054
2014    9        1     9  21    5.07   672.6    2.7      67.054
2014    9        1     9  27    5.07   672.5    2.7      67.054
2014    9        1     9  32    5.06   672.5    2.7      67.055
2014    9        1     9  38    5.06   672.4    2.7      67.055
2014    9        1     9  43    5.06   672.4    2.7      67.053
2014    9        1     9  49    5.06   672.3    2.7      67.051
2014    9        1     9  55    5.06   672.3    2.7      67.048
2014    9        1    10   0    5.06   672.2    2.7      67.044
2014    9        1    10   6    5.06   672.1    2.7      67.040
2014    9        1    10  11    5.06   672.1    2.7      67.034
2014    9        1    10  17    5.06   672.0    2.7      67.028
2014    9        1    10  22    5.06   672.0    2.7      67.021
2014    9        1    10  28    5.05   671.9    2.7      67.014
2014    9        1    10  34    5.05   671.9    2.7      67.006
2014    9        1    10  39    5.05   671.8    2.7      66.997
2014    9        1    10  45    5.05   671.8    2.7      66.989
2014    9        1    10  50    5.05   671.7    2.7      66.979
2014    9        1    10  56    5.05   671.7    2.7      66.970
2014    9        1    11   1    5.05   671.6    2.7      66.960
2014    9        1    11   7    5.05   671.6    2.7      66.950
2014    9        1    11  12    5.05   671.5    2.7      66.940
2014    9        1    11  18    5.04   671.5    2.7      66.929
2014    9        1    11  24    5.04   671.4    2.7      66.918
2014    9        1    11  29    5.04   671.4    2.7      66.907
2014    9        1    11  35    5.04   671.3    2.7      66.896
2014    9        1    11  40    5.04   671.3    2.7      66.885
2014    9        1    11  46    5.04   671.2    2.7      66.874
2014    9        1    11  51    5.04   671.1    2.7      66.863
2014    9        1    11  57    5.04   671.1    2.7      66.853
2014    9        1    12   3    5.04   671.0    2.7      66.842
2014    9        1    12   8    5.03   671.0    2.7      66.831
2014    9        1    12  14    5.03   670.9    2.7      66.820
2014    9        1    12  19    5.03   670.9    2.7      66.808
2014    9        1    12  25    5.03   670.8    2.7      66.796
2014    9        1    12  30    5.03   670.7    2.7      66.784
2014    9        1    12  36    5.03   670.7    2.7      66.772
2014    9        1    12  42    5.03   670.6    2.7      66.759
2014    9        1    12  47    5.02   670.6    2.7      66.747
2014    9        1    12  53    5.02   670.5    2.7      66.734
2014    9        1    12  58    5.02   670.4    2.7      66.722
2014    9        1    13   4    5.02   670.4    2.7      66.710
2014    9        1    13   9    5.02   670.3    2.7      66.698
2014    9        1    13  15    5.02   670.2    2.7      66.686
2014    9        1    13  21    5.02   670.2    2.7      66.675
2014    9        1    13  26    5.02   670.1    2.7      66.664
2014    9        1    13  32    5.01   670.0    2.7      66.654
2014    9        1    13  37    5.01   670.0    2.7      66.644
2014    9        1    13  43    5.01   669.9    2.7      66.635
2014    9        1    13  48    5.01   669.8    2.7      66.626
2014    9        1    13  54    5.01   669.8    2.7      66.618
2014    9        1    14   0    5.01   669.7    2.7      66.610
2014    9        1    14   5    5.01   669.6    2.7      66.602
2014    9        1    14  11    5.00   669.6    2.7      66.595
2014    9        1    14  16    5.00   669.5    2.7      66.589
2014    9        1    14  22    5.00   669.4    2.7      66.582
2014    9        1    14  27    5.00   669.4    2.7      66.576
2014    9        1    14  33    5.00   669.3    2.7      66.570
2014    9        1    14  38    5.00   669.2    2.7      66.564
2014    9        1    14  44    5.00   669.2    2.7      66.559
2014    9        1    14  50    4.99   669.1    2.7      66.553
2014    9        1    14  55    4.99   669.0    2.7      66.548
2014    9        1    15   1    4.99   668.9    2.7      66.543
2014    9        1    15   6    4.99   668.8    2.7      66.538
2014    9        1    15  12    4.99   668.8    2.7      66.533
2014    9        1    15  17    4.99   668.7    2.7      66.529
2014    9        1    15  23    4.99   668.6    2.7      66.525
2014    9        1    15  29    4.98   668.5    2.7      66.521
2014    9        1    15  34    4.98   668.4    2.7      66.518
2014    9        1    15  40    4.98   668.3    2.7      66.515
2014    9        1    15  45    4.98   668.3    2.7      66.513
2014    9        1    15  51    4.98   668.2    2.7      66.511
2014    9        1    15  56    4.98   668.1    2.7      66.510
2014    9        1    16   2    4.98   668.0    2.7      66.510
2014    9        1    16   8    4.98   667.9    2.7      66.510
2014    9        1    16  13    4.98   667.8    2.7      66.512
2014    9        1    16  19    4.97   667.7    2.7      66.515
2014    9        1    16  24    4.97   667.7    2.7      66.519
2014    9        1    16  30    4.97   667.6    2.7      66.523
2014    9        1    16  35    4.97   667.5    2.7      66.526
2014    9        1    16  41    4.97   667.4    2.7      66.529
2014    9        1    16  47    4.97   667.4    2.7      66.530
2014    9        1    16  52    4.97   667.3    2.7      66.530
2014    9        1    16  58    4.96   667.2    2.7      66.529
2014    9        1    17   3    4.96   667.2    2.7      66.526
2014    9        1    17   9    4.96   667.1    2.7      66.523
2014    9        1    17  14    4.96   667.0    2.7      66.518
2014    9        1    17  20    4.96   666.9    2.7      66.511
2014    9        1    17  26    4.96   666.9    2.7      66.503
2014    9        1    17  31    4.96   666.8    2.7      66.494
2014    9        1    17  37    4.95   666.7    2.7      66.484
2014    9        1    17  42    4.95   666.7    2.7      66.472
2014    9        1    17  48    4.95   666.6    2.7      66.460
2014    9        1    17  53    4.95   666.5    2.7      66.446
2014    9        1    17  59    4.95   666.4    2.7      66.431
2014    9        1    18   4    4.95   666.4    2.7      66.415
2014    9        1    18  10    4.94   666.3    2.7      66.398
2014    9        1    18  16    4.94   666.2    2.7      66.380
2014    9        1    18  21    4.94   666.1    2.7      66.361
2014    9        1    18  27    4.94   666.0    2.7      66.340
2014    9        1    18  32    4.94   666.0    2.7      66.319
2014    9        1    18  38    4.94   665.9    2.7      66.297
2014    9        1    18  43    4.93   665.8    2.7      66.275
2014    9        1    18  49    4.93   665.7    2.7      66.251
2014    9        1    18  55    4.93   665.6    2.7      66.227
2014    9        1    19   0    4.93   665.5    2.7      66.202
2014    9        1    19   6    4.93   665.5    2.7      66.176
2014    9        1    19  11    4.93   665.4    2.7      66.150
2014    9        1    19  17    4.92   665.3    2.7      66.123
2014    9        1    19  22    4.92   665.2    2.7      66.096
2014    9        1    19  28    4.92   665.1    2.7      66.068
2014    9        1    19  34    4.92   665.0    2.7      66.040
2014    9        1    19  39    4.92   664.9    2.7      66.011
2014    9        1    19  45    4.91   664.8    2.7      65.983
2014    9        1    19  50    4.91   664.7    2.7      65.953
2014    9        1    19  56    4.91   664.6    2.7      65.924
2014    9        1    20   1    4.91   664.5    2.7      65.895
2014    9        1    20   7    4.91   664.4    2.7      65.866
2014    9        1    20  13    4.90   664.3    2.7      65.837
2014    9        1    20  18    4.90   664.2    2.7      65.808
2014    9        1    20  24    4.90   664.1    2.7      65.780
2014    9        1    20  29    4.90   664.0    2.7      65.753
2014    9        1    20  35    4.90   663.9    2.7      65.726
2014    9        1    20  40    4.90   663.8    2.7      65.701
2014    9        1    20  46    4.89   663.7    2.7      65.676
2014    9        1    20  51    4.89   663.6    2.7      65.653
2014    9        1    20  57    4.89   663.5    2.7      65.630
2014    9        1    21   3    4.89   663.4    2.7      65.609
2014    9        1    21   8    4.89   663.3    2.7      65.589
2014    9        1    21  14    4.88   663.2    2.7      65.570
2014    9        1    21  19    4.88   663.1    2.7      65.552
2014    9        1    21  25    4.88   663.0    2.7      65.536
2014    9        1    21  30    4.88   662.9    2.7      65.520
2014    9        1    21  36    4.88   662.8    2.7      65.506
2014    9        1    21  42    4.88   662.7    2.7      65.492
2014    9        1    21  47    4.87   662.6    2.7      65.480
2014    9        1    21  53    4.87   662.5    2.7      65.468
2014    9        1    21  58    4.87   662.4    2.7      65.457
2014    9        1    22   4    4.87   662.3    2.7      65.447
2014    9        1    22   9    4.87   662.2    2.7      65.437
2014    9        1    22  15    4.87   662.1    2.7      65.428
2014    9        1    22  21    4.86   662.0    2.7      65.420
2014    9        1    22  26    4.86   661.9    2.7      65.412
2014    9        1    22  32    4.86   661.8    2.7      65.405
2014    9        1    22  37    4.86   661.7    2.7      65.398
2014    9        1    22  43    4.86   661.6    2.7      65.391
2014    9        1    22  48    4.86   661.5    2.7      65.385
2014    9        1    22  54    4.85   661.4    2.7      65.377
2014    9        1    23   0    4.85   661.3    2.7      65.370
2014    9        1    23   5    4.85   661.2    2.7      65.362
2014    9        1    23  11    4.85   661.1    2.7      65.355
2014    9        1    23  16    4.85   661.0    2.7      65.347
2014    9        1    23  22    4.84   660.9    2.7      65.340
2014    9        1    23  27    4.84   660.8    2.7      65.332
2014    9        1    23  33    4.84   660.7    2.7      65.325
2014    9        1    23  39    4.84   660.6    2.7      65.319
2014    9        1    23  44    4.84   660.5    2.7      65.311
2014    9        1    23  50    4.84   660.4    2.7      65.304
2014    9        1    23  55    4.83   660.3    2.7      65.296
2014    9        2     0   1    4.83   660.2    2.7      65.288
