year    month   day   hour  minute  B_enl V_enl   n_enl       T_enl
[year] [month] [day] [hour][minute] [nT]  [km/s]  [cm-3]      [kK]
2014    8       22     0   0    4.63   435.3    6.8      39.117
2014    8       22     0   6    4.64   435.3    6.8      39.143
2014    8       22     0  12    4.64   435.3    6.8      39.169
2014    8       22     0  17    4.64   435.3    6.8      39.195
2014    8       22     0  23    4.64   435.3    6.8      39.221
2014    8       22     0  29    4.65   435.3    6.8      39.246
2014    8       22     0  35    4.65   435.4    6.9      39.272
2014    8       22     0  41    4.65   435.4    6.9      39.298
2014    8       22     0  46    4.65   435.4    6.9      39.325
2014    8       22     0  52    4.66   435.4    6.9      39.353
2014    8       22     0  58    4.66   435.4    6.9      39.382
2014    8       22     1   4    4.66   435.5    6.9      39.411
2014    8       22     1  10    4.66   435.5    6.9      39.440
2014    8       22     1  15    4.66   435.5    6.9      39.471
2014    8       22     1  21    4.67   435.5    6.9      39.501
2014    8       22     1  27    4.67   435.6    6.9      39.532
2014    8       22     1  33    4.67   435.6    6.9      39.562
2014    8       22     1  39    4.67   435.6    6.9      39.592
2014    8       22     1  44    4.68   435.7    6.9      39.622
2014    8       22     1  50    4.68   435.7    6.9      39.651
2014    8       22     1  56    4.68   435.7    6.9      39.681
2014    8       22     2   2    4.68   435.8    6.9      39.709
2014    8       22     2   8    4.68   435.8    6.9      39.738
2014    8       22     2  13    4.69   435.8    6.9      39.767
2014    8       22     2  19    4.69   435.9    6.9      39.795
2014    8       22     2  25    4.69   435.9    6.9      39.822
2014    8       22     2  31    4.69   435.9    6.9      39.850
2014    8       22     2  37    4.69   436.0    6.9      39.877
2014    8       22     2  42    4.70   436.0    6.9      39.903
2014    8       22     2  48    4.70   436.0    6.9      39.929
2014    8       22     2  54    4.70   436.1    6.9      39.955
2014    8       22     3   0    4.70   436.1    6.9      39.981
2014    8       22     3   6    4.70   436.2    6.9      40.006
2014    8       22     3  11    4.71   436.2    6.9      40.031
2014    8       22     3  17    4.71   436.2    6.9      40.056
2014    8       22     3  23    4.71   436.3    6.9      40.080
2014    8       22     3  29    4.71   436.3    6.9      40.105
2014    8       22     3  35    4.71   436.3    7.0      40.128
2014    8       22     3  40    4.72   436.4    7.0      40.152
2014    8       22     3  46    4.72   436.4    7.0      40.175
2014    8       22     3  52    4.72   436.4    7.0      40.198
2014    8       22     3  58    4.72   436.5    7.0      40.221
2014    8       22     4   4    4.72   436.5    7.0      40.244
2014    8       22     4   9    4.73   436.6    7.0      40.267
2014    8       22     4  15    4.73   436.6    7.0      40.289
2014    8       22     4  21    4.73   436.6    7.0      40.312
2014    8       22     4  27    4.73   436.7    7.0      40.334
2014    8       22     4  33    4.73   436.7    7.0      40.357
2014    8       22     4  38    4.73   436.7    7.0      40.380
2014    8       22     4  44    4.74   436.8    7.0      40.402
2014    8       22     4  50    4.74   436.8    7.0      40.424
2014    8       22     4  56    4.74   436.9    7.0      40.447
2014    8       22     5   2    4.74   436.9    7.0      40.471
2014    8       22     5   7    4.74   437.0    7.0      40.495
2014    8       22     5  13    4.75   437.0    7.0      40.520
2014    8       22     5  19    4.75   437.1    7.0      40.545
2014    8       22     5  25    4.75   437.1    7.0      40.571
2014    8       22     5  31    4.75   437.2    7.0      40.596
2014    8       22     5  36    4.75   437.2    7.0      40.621
2014    8       22     5  42    4.75   437.3    7.0      40.645
2014    8       22     5  48    4.75   437.3    7.0      40.668
2014    8       22     5  54    4.75   437.4    7.0      40.691
2014    8       22     6   0    4.76   437.4    7.0      40.714
2014    8       22     6   5    4.76   437.5    7.0      40.736
2014    8       22     6  11    4.76   437.5    7.0      40.757
2014    8       22     6  17    4.76   437.6    7.0      40.778
2014    8       22     6  23    4.76   437.6    7.0      40.798
2014    8       22     6  29    4.76   437.7    7.0      40.817
2014    8       22     6  34    4.76   437.7    7.0      40.836
2014    8       22     6  40    4.76   437.8    7.0      40.855
2014    8       22     6  46    4.76   437.8    7.0      40.873
2014    8       22     6  52    4.76   437.9    7.0      40.890
2014    8       22     6  58    4.77   437.9    7.0      40.907
2014    8       22     7   3    4.77   438.0    7.0      40.924
2014    8       22     7   9    4.77   438.0    7.0      40.940
2014    8       22     7  15    4.77   438.0    7.0      40.956
2014    8       22     7  21    4.77   438.1    7.0      40.972
2014    8       22     7  27    4.77   438.1    7.0      40.987
2014    8       22     7  32    4.77   438.2    7.0      41.002
2014    8       22     7  38    4.77   438.2    7.0      41.016
2014    8       22     7  44    4.77   438.3    7.0      41.030
2014    8       22     7  50    4.77   438.3    7.0      41.044
2014    8       22     7  56    4.77   438.4    7.0      41.058
2014    8       22     8   1    4.77   438.4    7.0      41.072
2014    8       22     8   7    4.77   438.5    7.0      41.085
2014    8       22     8  13    4.77   438.5    7.0      41.098
2014    8       22     8  19    4.77   438.6    7.0      41.111
2014    8       22     8  25    4.78   438.6    7.0      41.124
2014    8       22     8  30    4.78   438.6    7.0      41.137
2014    8       22     8  36    4.78   438.7    7.0      41.150
2014    8       22     8  42    4.78   438.7    7.0      41.163
2014    8       22     8  48    4.78   438.8    7.0      41.177
2014    8       22     8  54    4.78   438.8    7.0      41.190
2014    8       22     8  59    4.78   438.9    7.0      41.203
2014    8       22     9   5    4.78   438.9    7.0      41.217
2014    8       22     9  11    4.78   439.0    7.0      41.230
2014    8       22     9  17    4.78   439.0    7.0      41.243
2014    8       22     9  23    4.78   439.0    7.0      41.257
2014    8       22     9  28    4.78   439.1    7.0      41.270
2014    8       22     9  34    4.78   439.1    7.0      41.283
2014    8       22     9  40    4.78   439.2    7.0      41.295
2014    8       22     9  46    4.78   439.2    7.0      41.308
2014    8       22     9  52    4.78   439.3    7.0      41.321
2014    8       22     9  57    4.78   439.3    7.0      41.333
2014    8       22    10   3    4.78   439.4    7.0      41.346
2014    8       22    10   9    4.78   439.4    7.0      41.358
2014    8       22    10  15    4.79   439.4    7.0      41.370
2014    8       22    10  21    4.79   439.5    7.0      41.383
2014    8       22    10  26    4.79   439.5    7.0      41.395
2014    8       22    10  32    4.79   439.6    7.0      41.407
2014    8       22    10  38    4.79   439.6    7.0      41.420
2014    8       22    10  44    4.79   439.7    7.0      41.432
2014    8       22    10  50    4.79   439.7    7.0      41.445
2014    8       22    10  55    4.79   439.8    7.0      41.457
2014    8       22    11   1    4.79   439.8    7.0      41.470
2014    8       22    11   7    4.79   439.9    7.0      41.484
2014    8       22    11  13    4.79   439.9    7.0      41.498
2014    8       22    11  19    4.79   440.0    7.0      41.512
2014    8       22    11  25    4.79   440.0    7.0      41.526
2014    8       22    11  30    4.79   440.1    7.0      41.541
2014    8       22    11  36    4.79   440.1    7.0      41.557
2014    8       22    11  42    4.79   440.2    7.0      41.572
2014    8       22    11  48    4.79   440.3    7.0      41.587
2014    8       22    11  54    4.79   440.3    7.0      41.601
2014    8       22    11  59    4.80   440.4    7.0      41.615
2014    8       22    12   5    4.80   440.4    7.0      41.629
2014    8       22    12  11    4.80   440.5    7.0      41.644
2014    8       22    12  17    4.80   440.6    7.0      41.659
2014    8       22    12  23    4.80   440.6    7.0      41.674
2014    8       22    12  28    4.80   440.7    7.0      41.689
2014    8       22    12  34    4.80   440.8    7.0      41.705
2014    8       22    12  40    4.80   440.9    7.0      41.721
2014    8       22    12  46    4.79   440.9    7.0      41.736
2014    8       22    12  52    4.79   441.0    7.0      41.750
2014    8       22    12  57    4.79   441.1    7.0      41.764
2014    8       22    13   3    4.79   441.1    7.0      41.777
2014    8       22    13   9    4.79   441.2    7.0      41.790
2014    8       22    13  15    4.79   441.3    7.0      41.802
2014    8       22    13  21    4.79   441.4    7.0      41.813
2014    8       22    13  26    4.79   441.4    7.0      41.824
2014    8       22    13  32    4.79   441.5    7.0      41.834
2014    8       22    13  38    4.79   441.6    7.0      41.843
2014    8       22    13  44    4.79   441.6    7.0      41.852
2014    8       22    13  49    4.79   441.7    7.0      41.860
2014    8       22    13  55    4.79   441.7    7.0      41.867
2014    8       22    14   1    4.79   441.8    7.0      41.874
2014    8       22    14   7    4.79   441.9    7.0      41.880
2014    8       22    14  13    4.78   441.9    7.0      41.886
2014    8       22    14  18    4.78   442.0    7.0      41.892
2014    8       22    14  24    4.78   442.1    7.0      41.897
2014    8       22    14  30    4.78   442.1    6.9      41.901
2014    8       22    14  36    4.78   442.2    6.9      41.905
2014    8       22    14  42    4.78   442.2    6.9      41.908
2014    8       22    14  47    4.78   442.3    6.9      41.912
2014    8       22    14  53    4.78   442.4    6.9      41.914
2014    8       22    14  59    4.78   442.4    6.9      41.916
2014    8       22    15   5    4.78   442.5    6.9      41.918
2014    8       22    15  11    4.77   442.5    6.9      41.920
2014    8       22    15  16    4.77   442.6    6.9      41.921
2014    8       22    15  22    4.77   442.6    6.9      41.921
2014    8       22    15  28    4.77   442.7    6.9      41.922
2014    8       22    15  34    4.77   442.8    6.9      41.922
2014    8       22    15  40    4.77   442.8    6.9      41.921
2014    8       22    15  45    4.77   442.9    6.9      41.921
2014    8       22    15  51    4.77   442.9    6.9      41.920
2014    8       22    15  57    4.77   443.0    6.9      41.919
2014    8       22    16   3    4.76   443.0    6.9      41.918
2014    8       22    16   9    4.76   443.1    6.9      41.917
2014    8       22    16  15    4.76   443.1    6.9      41.916
2014    8       22    16  20    4.76   443.2    6.9      41.915
2014    8       22    16  26    4.76   443.2    6.9      41.914
2014    8       22    16  32    4.76   443.3    6.9      41.912
2014    8       22    16  38    4.76   443.3    6.9      41.911
2014    8       22    16  44    4.75   443.4    6.9      41.909
2014    8       22    16  49    4.75   443.4    6.9      41.907
2014    8       22    16  55    4.75   443.5    6.8      41.905
2014    8       22    17   1    4.75   443.5    6.8      41.902
2014    8       22    17   7    4.75   443.6    6.8      41.899
2014    8       22    17  13    4.75   443.6    6.8      41.896
2014    8       22    17  18    4.75   443.7    6.8      41.893
2014    8       22    17  24    4.75   443.7    6.8      41.890
2014    8       22    17  30    4.74   443.8    6.8      41.886
2014    8       22    17  36    4.74   443.8    6.8      41.882
2014    8       22    17  42    4.74   443.9    6.8      41.878
2014    8       22    17  47    4.74   443.9    6.8      41.874
2014    8       22    17  53    4.74   444.0    6.8      41.870
2014    8       22    17  59    4.74   444.0    6.8      41.867
2014    8       22    18   5    4.74   444.1    6.8      41.862
2014    8       22    18  11    4.73   444.1    6.8      41.858
2014    8       22    18  16    4.73   444.2    6.8      41.854
2014    8       22    18  22    4.73   444.2    6.8      41.851
2014    8       22    18  28    4.73   444.3    6.8      41.847
2014    8       22    18  34    4.73   444.3    6.8      41.844
2014    8       22    18  40    4.73   444.4    6.8      41.842
2014    8       22    18  45    4.72   444.5    6.8      41.839
2014    8       22    18  51    4.72   444.5    6.8      41.836
2014    8       22    18  57    4.72   444.6    6.8      41.833
2014    8       22    19   3    4.72   444.6    6.8      41.829
2014    8       22    19   9    4.72   444.7    6.7      41.825
2014    8       22    19  14    4.71   444.7    6.7      41.820
2014    8       22    19  20    4.71   444.8    6.7      41.815
2014    8       22    19  26    4.71   444.9    6.7      41.809
2014    8       22    19  32    4.71   444.9    6.7      41.803
2014    8       22    19  38    4.71   445.0    6.7      41.795
2014    8       22    19  43    4.70   445.0    6.7      41.788
2014    8       22    19  49    4.70   445.1    6.7      41.779
2014    8       22    19  55    4.70   445.1    6.7      41.771
2014    8       22    20   1    4.70   445.2    6.7      41.761
2014    8       22    20   7    4.69   445.2    6.7      41.752
2014    8       22    20  12    4.69   445.3    6.7      41.742
2014    8       22    20  18    4.69   445.3    6.7      41.731
2014    8       22    20  24    4.69   445.4    6.7      41.720
2014    8       22    20  30    4.68   445.4    6.7      41.708
2014    8       22    20  36    4.68   445.5    6.7      41.697
2014    8       22    20  41    4.68   445.5    6.7      41.684
2014    8       22    20  47    4.68   445.5    6.7      41.672
2014    8       22    20  53    4.67   445.6    6.6      41.659
2014    8       22    20  59    4.67   445.6    6.6      41.645
2014    8       22    21   5    4.67   445.7    6.6      41.632
2014    8       22    21  10    4.67   445.7    6.6      41.618
2014    8       22    21  16    4.66   445.7    6.6      41.603
2014    8       22    21  22    4.66   445.8    6.6      41.589
2014    8       22    21  28    4.66   445.8    6.6      41.574
2014    8       22    21  34    4.66   445.9    6.6      41.558
2014    8       22    21  39    4.65   445.9    6.6      41.542
2014    8       22    21  45    4.65   445.9    6.6      41.526
2014    8       22    21  51    4.65   446.0    6.6      41.510
2014    8       22    21  57    4.65   446.0    6.6      41.493
2014    8       22    22   3    4.64   446.0    6.6      41.475
2014    8       22    22   8    4.64   446.1    6.6      41.458
2014    8       22    22  14    4.64   446.1    6.6      41.440
2014    8       22    22  20    4.63   446.1    6.5      41.422
2014    8       22    22  26    4.63   446.1    6.5      41.403
2014    8       22    22  32    4.63   446.2    6.5      41.384
2014    8       22    22  37    4.63   446.2    6.5      41.365
2014    8       22    22  43    4.62   446.2    6.5      41.346
2014    8       22    22  49    4.62   446.2    6.5      41.326
2014    8       22    22  55    4.62   446.3    6.5      41.306
2014    8       22    23   1    4.62   446.3    6.5      41.285
2014    8       22    23   6    4.61   446.3    6.5      41.265
2014    8       22    23  12    4.61   446.3    6.5      41.244
2014    8       22    23  18    4.61   446.4    6.5      41.222
2014    8       22    23  24    4.60   446.4    6.5      41.201
2014    8       22    23  30    4.60   446.4    6.5      41.179
2014    8       22    23  35    4.60   446.4    6.5      41.158
2014    8       22    23  41    4.60   446.4    6.5      41.136
2014    8       22    23  47    4.59   446.4    6.5      41.114
2014    8       22    23  53    4.59   446.5    6.5      41.091
2014    8       22    23  59    4.59   446.5    6.4      41.069
2014    8       23     0   4    4.58   446.5    6.4      41.045
2014    8       23     0  10    4.58   446.5    6.4      41.022
2014    8       23     0  16    4.58   446.5    6.4      40.998
2014    8       23     0  22    4.57   446.5    6.4      40.974
2014    8       23     0  28    4.57   446.5    6.4      40.949
2014    8       23     0  33    4.57   446.5    6.4      40.924
2014    8       23     0  39    4.56   446.6    6.4      40.898
2014    8       23     0  45    4.56   446.6    6.4      40.872
2014    8       23     0  51    4.56   446.6    6.4      40.845
2014    8       23     0  57    4.56   446.6    6.4      40.818
2014    8       23     1   2    4.55   446.6    6.4      40.791
2014    8       23     1   8    4.55   446.6    6.4      40.763
2014    8       23     1  14    4.55   446.6    6.4      40.735
2014    8       23     1  20    4.54   446.6    6.4      40.706
2014    8       23     1  26    4.54   446.6    6.3      40.677
2014    8       23     1  31    4.54   446.6    6.3      40.648
2014    8       23     1  37    4.53   446.6    6.3      40.619
2014    8       23     1  43    4.53   446.6    6.3      40.589
2014    8       23     1  49    4.53   446.6    6.3      40.559
2014    8       23     1  55    4.52   446.5    6.3      40.528
2014    8       23     2   0    4.52   446.5    6.3      40.497
2014    8       23     2   6    4.52   446.5    6.3      40.466
2014    8       23     2  12    4.51   446.5    6.3      40.435
2014    8       23     2  18    4.51   446.5    6.3      40.403
2014    8       23     2  24    4.51   446.5    6.3      40.371
2014    8       23     2  29    4.50   446.5    6.3      40.338
2014    8       23     2  35    4.50   446.5    6.3      40.306
2014    8       23     2  41    4.50   446.4    6.3      40.273
2014    8       23     2  47    4.49   446.4    6.3      40.239
2014    8       23     2  53    4.49   446.4    6.3      40.206
2014    8       23     2  58    4.49   446.4    6.2      40.172
2014    8       23     3   4    4.48   446.4    6.2      40.138
2014    8       23     3  10    4.48   446.4    6.2      40.104
2014    8       23     3  16    4.48   446.3    6.2      40.070
2014    8       23     3  22    4.47   446.3    6.2      40.035
2014    8       23     3  27    4.47   446.3    6.2      40.001
2014    8       23     3  33    4.47   446.3    6.2      39.966
2014    8       23     3  39    4.47   446.2    6.2      39.931
2014    8       23     3  45    4.46   446.2    6.2      39.895
2014    8       23     3  51    4.46   446.2    6.2      39.860
2014    8       23     3  56    4.46   446.1    6.2      39.825
2014    8       23     4   2    4.45   446.1    6.2      39.790
2014    8       23     4   8    4.45   446.1    6.2      39.755
2014    8       23     4  14    4.45   446.1    6.2      39.719
2014    8       23     4  19    4.44   446.0    6.2      39.684
2014    8       23     4  25    4.44   446.0    6.2      39.649
2014    8       23     4  31    4.44   446.0    6.1      39.614
2014    8       23     4  37    4.43   445.9    6.1      39.579
2014    8       23     4  43    4.43   445.9    6.1      39.544
2014    8       23     4  48    4.43   445.9    6.1      39.509
2014    8       23     4  54    4.43   445.9    6.1      39.474
2014    8       23     5   0    4.42   445.8    6.1      39.439
2014    8       23     5   6    4.42   445.8    6.1      39.404
2014    8       23     5  12    4.42   445.8    6.1      39.368
2014    8       23     5  17    4.41   445.7    6.1      39.333
2014    8       23     5  23    4.41   445.7    6.1      39.298
2014    8       23     5  29    4.41   445.7    6.1      39.262
2014    8       23     5  35    4.40   445.6    6.1      39.227
2014    8       23     5  41    4.40   445.6    6.1      39.192
2014    8       23     5  46    4.40   445.6    6.1      39.156
2014    8       23     5  52    4.40   445.5    6.1      39.121
2014    8       23     5  58    4.39   445.5    6.1      39.085
2014    8       23     6   4    4.39   445.4    6.1      39.049
2014    8       23     6  10    4.39   445.4    6.1      39.013
2014    8       23     6  15    4.38   445.4    6.1      38.977
2014    8       23     6  21    4.38   445.3    6.1      38.940
2014    8       23     6  27    4.38   445.3    6.1      38.903
2014    8       23     6  33    4.37   445.2    6.1      38.866
2014    8       23     6  39    4.37   445.2    6.0      38.829
2014    8       23     6  44    4.37   445.1    6.0      38.792
2014    8       23     6  50    4.37   445.1    6.0      38.754
2014    8       23     6  56    4.36   445.0    6.0      38.716
2014    8       23     7   2    4.36   445.0    6.0      38.679
2014    8       23     7   8    4.36   444.9    6.0      38.641
2014    8       23     7  13    4.35   444.9    6.0      38.602
2014    8       23     7  19    4.35   444.8    6.0      38.564
2014    8       23     7  25    4.35   444.8    6.0      38.525
2014    8       23     7  31    4.34   444.7    6.0      38.486
2014    8       23     7  37    4.34   444.7    6.0      38.447
2014    8       23     7  42    4.34   444.6    6.0      38.408
2014    8       23     7  48    4.34   444.6    6.0      38.368
2014    8       23     7  54    4.33   444.5    6.0      38.328
2014    8       23     8   0    4.33   444.5    6.0      38.287
2014    8       23     8   6    4.33   444.4    6.0      38.247
2014    8       23     8  11    4.32   444.3    6.0      38.206
2014    8       23     8  17    4.32   444.3    6.0      38.164
2014    8       23     8  23    4.32   444.2    6.0      38.123
2014    8       23     8  29    4.31   444.1    6.0      38.082
2014    8       23     8  35    4.31   444.1    6.0      38.040
2014    8       23     8  40    4.31   444.0    6.0      37.998
2014    8       23     8  46    4.31   443.9    6.0      37.956
2014    8       23     8  52    4.30   443.9    5.9      37.913
2014    8       23     8  58    4.30   443.8    5.9      37.871
2014    8       23     9   4    4.30   443.7    5.9      37.828
2014    8       23     9   9    4.29   443.6    5.9      37.785
2014    8       23     9  15    4.29   443.6    5.9      37.742
2014    8       23     9  21    4.29   443.5    5.9      37.700
2014    8       23     9  27    4.29   443.4    5.9      37.656
2014    8       23     9  33    4.28   443.3    5.9      37.613
2014    8       23     9  38    4.28   443.3    5.9      37.570
2014    8       23     9  44    4.28   443.2    5.9      37.526
2014    8       23     9  50    4.28   443.1    5.9      37.483
2014    8       23     9  56    4.27   443.0    5.9      37.440
2014    8       23    10   2    4.27   442.9    5.9      37.396
2014    8       23    10   7    4.27   442.8    5.9      37.353
2014    8       23    10  13    4.26   442.7    5.9      37.310
2014    8       23    10  19    4.26   442.7    5.9      37.267
2014    8       23    10  25    4.26   442.6    5.9      37.224
2014    8       23    10  31    4.26   442.5    5.9      37.181
2014    8       23    10  36    4.25   442.4    5.9      37.139
2014    8       23    10  42    4.25   442.3    5.9      37.096
2014    8       23    10  48    4.25   442.2    5.9      37.054
2014    8       23    10  54    4.25   442.1    5.9      37.013
2014    8       23    11   0    4.24   442.0    5.9      36.971
2014    8       23    11   5    4.24   441.9    5.9      36.930
2014    8       23    11  11    4.24   441.8    5.9      36.889
2014    8       23    11  17    4.24   441.7    5.9      36.849
2014    8       23    11  23    4.23   441.6    5.9      36.809
2014    8       23    11  29    4.23   441.5    5.9      36.770
2014    8       23    11  34    4.23   441.4    5.9      36.731
2014    8       23    11  40    4.23   441.3    5.9      36.692
2014    8       23    11  46    4.23   441.2    5.9      36.654
2014    8       23    11  52    4.22   441.1    5.8      36.616
2014    8       23    11  58    4.22   441.0    5.8      36.579
2014    8       23    12   3    4.22   440.9    5.8      36.543
2014    8       23    12   9    4.22   440.8    5.8      36.506
2014    8       23    12  15    4.21   440.8    5.8      36.470
2014    8       23    12  21    4.21   440.7    5.8      36.435
2014    8       23    12  27    4.21   440.6    5.8      36.400
2014    8       23    12  32    4.21   440.5    5.8      36.365
2014    8       23    12  38    4.21   440.4    5.8      36.330
2014    8       23    12  44    4.20   440.3    5.8      36.295
2014    8       23    12  50    4.20   440.2    5.8      36.260
2014    8       23    12  56    4.20   440.1    5.8      36.226
2014    8       23    13   1    4.20   440.0    5.8      36.191
2014    8       23    13   7    4.20   439.9    5.8      36.156
2014    8       23    13  13    4.19   439.8    5.8      36.121
2014    8       23    13  19    4.19   439.7    5.8      36.086
2014    8       23    13  25    4.19   439.6    5.8      36.050
2014    8       23    13  30    4.19   439.5    5.8      36.015
2014    8       23    13  36    4.19   439.4    5.8      35.979
2014    8       23    13  42    4.18   439.3    5.8      35.943
2014    8       23    13  48    4.18   439.2    5.8      35.907
2014    8       23    13  54    4.18   439.1    5.8      35.871
2014    8       23    13  59    4.18   439.0    5.8      35.835
2014    8       23    14   5    4.18   438.9    5.8      35.798
2014    8       23    14  11    4.17   438.8    5.8      35.761
2014    8       23    14  17    4.17   438.7    5.8      35.725
2014    8       23    14  23    4.17   438.6    5.8      35.688
2014    8       23    14  28    4.17   438.6    5.8      35.651
2014    8       23    14  34    4.17   438.5    5.8      35.614
2014    8       23    14  40    4.16   438.4    5.8      35.577
2014    8       23    14  46    4.16   438.3    5.8      35.540
2014    8       23    14  52    4.16   438.2    5.8      35.503
2014    8       23    14  57    4.16   438.1    5.8      35.466
2014    8       23    15   3    4.16   438.0    5.8      35.429
2014    8       23    15   9    4.16   437.9    5.8      35.391
2014    8       23    15  15    4.15   437.8    5.8      35.354
2014    8       23    15  21    4.15   437.7    5.8      35.316
2014    8       23    15  26    4.15   437.6    5.8      35.278
2014    8       23    15  32    4.15   437.5    5.8      35.240
2014    8       23    15  38    4.15   437.4    5.8      35.203
2014    8       23    15  44    4.14   437.3    5.8      35.165
2014    8       23    15  50    4.14   437.2    5.8      35.127
2014    8       23    15  55    4.14   437.1    5.8      35.088
2014    8       23    16   1    4.14   437.0    5.8      35.050
2014    8       23    16   7    4.14   436.9    5.8      35.012
2014    8       23    16  13    4.14   436.8    5.8      34.974
2014    8       23    16  19    4.13   436.7    5.8      34.935
2014    8       23    16  24    4.13   436.6    5.8      34.897
2014    8       23    16  30    4.13   436.5    5.8      34.858
2014    8       23    16  36    4.13   436.4    5.8      34.820
2014    8       23    16  42    4.13   436.2    5.8      34.782
2014    8       23    16  48    4.12   436.1    5.8      34.743
2014    8       23    16  53    4.12   436.0    5.8      34.705
2014    8       23    16  59    4.12   435.9    5.8      34.667
2014    8       23    17   5    4.12   435.8    5.8      34.629
2014    8       23    17  11    4.12   435.7    5.8      34.591
2014    8       23    17  17    4.12   435.6    5.8      34.553
2014    8       23    17  22    4.11   435.5    5.8      34.515
2014    8       23    17  28    4.11   435.4    5.8      34.478
2014    8       23    17  34    4.11   435.3    5.8      34.440
2014    8       23    17  40    4.11   435.2    5.8      34.403
2014    8       23    17  46    4.11   435.1    5.8      34.366
2014    8       23    17  51    4.11   435.0    5.8      34.329
2014    8       23    17  57    4.10   434.8    5.8      34.293
2014    8       23    18   3    4.10   434.7    5.8      34.256
2014    8       23    18   9    4.10   434.6    5.8      34.220
2014    8       23    18  15    4.10   434.5    5.8      34.184
2014    8       23    18  20    4.10   434.4    5.8      34.149
2014    8       23    18  26    4.10   434.3    5.8      34.113
2014    8       23    18  32    4.09   434.2    5.8      34.078
2014    8       23    18  38    4.09   434.1    5.8      34.044
2014    8       23    18  44    4.09   434.0    5.8      34.009
2014    8       23    18  49    4.09   433.8    5.8      33.975
2014    8       23    18  55    4.09   433.7    5.8      33.940
2014    8       23    19   1    4.09   433.6    5.8      33.907
2014    8       23    19   7    4.09   433.5    5.8      33.873
2014    8       23    19  13    4.08   433.4    5.8      33.840
2014    8       23    19  18    4.08   433.3    5.8      33.807
2014    8       23    19  24    4.08   433.1    5.8      33.775
2014    8       23    19  30    4.08   433.0    5.8      33.742
2014    8       23    19  36    4.08   432.9    5.8      33.710
2014    8       23    19  42    4.08   432.8    5.8      33.678
2014    8       23    19  47    4.08   432.7    5.8      33.646
2014    8       23    19  53    4.08   432.5    5.8      33.615
2014    8       23    19  59    4.07   432.4    5.8      33.583
2014    8       23    20   5    4.07   432.3    5.8      33.551
2014    8       23    20  11    4.07   432.2    5.8      33.520
2014    8       23    20  16    4.07   432.1    5.8      33.488
2014    8       23    20  22    4.07   431.9    5.8      33.457
2014    8       23    20  28    4.07   431.8    5.8      33.425
2014    8       23    20  34    4.07   431.7    5.8      33.393
2014    8       23    20  40    4.07   431.6    5.8      33.362
2014    8       23    20  45    4.06   431.5    5.8      33.330
2014    8       23    20  51    4.06   431.3    5.8      33.298
2014    8       23    20  57    4.06   431.2    5.8      33.267
2014    8       23    21   3    4.06   431.1    5.8      33.235
2014    8       23    21   9    4.06   431.0    5.8      33.204
2014    8       23    21  14    4.06   430.8    5.8      33.172
2014    8       23    21  20    4.06   430.7    5.8      33.141
2014    8       23    21  26    4.06   430.6    5.8      33.110
2014    8       23    21  32    4.06   430.5    5.8      33.078
2014    8       23    21  38    4.05   430.3    5.8      33.047
2014    8       23    21  43    4.05   430.2    5.8      33.016
2014    8       23    21  49    4.05   430.1    5.8      32.985
2014    8       23    21  55    4.05   430.0    5.8      32.954
2014    8       23    22   1    4.05   429.8    5.8      32.923
2014    8       23    22   7    4.05   429.7    5.8      32.892
2014    8       23    22  12    4.05   429.6    5.8      32.861
2014    8       23    22  18    4.05   429.5    5.8      32.830
2014    8       23    22  24    4.05   429.3    5.8      32.798
2014    8       23    22  30    4.05   429.2    5.8      32.768
2014    8       23    22  36    4.04   429.1    5.8      32.737
2014    8       23    22  41    4.04   429.0    5.8      32.706
2014    8       23    22  47    4.04   428.8    5.8      32.675
2014    8       23    22  53    4.04   428.7    5.8      32.644
2014    8       23    22  59    4.04   428.6    5.8      32.613
2014    8       23    23   5    4.04   428.5    5.8      32.582
2014    8       23    23  10    4.04   428.3    5.8      32.551
2014    8       23    23  16    4.04   428.2    5.8      32.520
2014    8       23    23  22    4.04   428.1    5.8      32.489
2014    8       23    23  28    4.04   427.9    5.8      32.459
2014    8       23    23  34    4.04   427.8    5.8      32.428
2014    8       23    23  39    4.03   427.7    5.8      32.397
2014    8       23    23  45    4.03   427.6    5.8      32.366
2014    8       23    23  51    4.03   427.4    5.8      32.335
2014    8       23    23  57    4.03   427.3    5.8      32.304
2014    8       24     0   3    4.03   427.2    5.8      32.274
2014    8       24     0   8    4.03   427.0    5.8      32.243
2014    8       24     0  14    4.03   426.9    5.8      32.212
2014    8       24     0  20    4.03   426.8    5.8      32.182
2014    8       24     0  26    4.03   426.7    5.8      32.151
2014    8       24     0  32    4.03   426.5    5.8      32.120
2014    8       24     0  37    4.03   426.4    5.8      32.090
2014    8       24     0  43    4.03   426.3    5.8      32.059
2014    8       24     0  49    4.02   426.1    5.8      32.029
2014    8       24     0  55    4.02   426.0    5.8      31.998
2014    8       24     1   1    4.02   425.9    5.8      31.968
2014    8       24     1   7    4.02   425.8    5.8      31.937
2014    8       24     1  12    4.02   425.6    5.8      31.907
2014    8       24     1  18    4.02   425.5    5.8      31.876
2014    8       24     1  24    4.02   425.4    5.8      31.846
2014    8       24     1  30    4.02   425.2    5.8      31.816
2014    8       24     1  36    4.02   425.1    5.8      31.785
2014    8       24     1  41    4.02   425.0    5.8      31.755
2014    8       24     1  47    4.02   424.8    5.8      31.724
2014    8       24     1  53    4.02   424.7    5.8      31.694
2014    8       24     1  59    4.02   424.6    5.8      31.664
2014    8       24     2   5    4.02   424.4    5.8      31.634
2014    8       24     2  10    4.02   424.3    5.8      31.603
2014    8       24     2  16    4.01   424.2    5.8      31.573
2014    8       24     2  22    4.01   424.1    5.8      31.543
2014    8       24     2  28    4.01   423.9    5.8      31.513
2014    8       24     2  33    4.01   423.8    5.8      31.483
2014    8       24     2  39    4.01   423.6    5.8      31.453
2014    8       24     2  45    4.01   423.5    5.8      31.424
2014    8       24     2  51    4.01   423.4    5.8      31.394
2014    8       24     2  57    4.01   423.2    5.8      31.364
2014    8       24     3   2    4.01   423.1    5.8      31.335
2014    8       24     3   8    4.01   423.0    5.8      31.306
2014    8       24     3  14    4.01   422.8    5.8      31.277
2014    8       24     3  20    4.01   422.7    5.8      31.248
2014    8       24     3  26    4.01   422.6    5.8      31.219
2014    8       24     3  31    4.01   422.4    5.9      31.190
2014    8       24     3  37    4.01   422.3    5.9      31.162
2014    8       24     3  43    4.01   422.1    5.9      31.134
2014    8       24     3  49    4.01   422.0    5.9      31.106
2014    8       24     3  55    4.01   421.9    5.9      31.078
2014    8       24     4   0    4.01   421.7    5.9      31.050
2014    8       24     4   6    4.00   421.6    5.9      31.023
2014    8       24     4  12    4.00   421.4    5.9      30.995
2014    8       24     4  18    4.00   421.3    5.9      30.968
2014    8       24     4  24    4.00   421.1    5.9      30.942
2014    8       24     4  29    4.00   421.0    5.9      30.915
2014    8       24     4  35    4.00   420.9    5.9      30.889
2014    8       24     4  41    4.00   420.7    5.9      30.863
2014    8       24     4  47    4.00   420.6    5.9      30.837
2014    8       24     4  53    4.00   420.4    5.9      30.811
2014    8       24     4  58    4.00   420.3    5.9      30.786
2014    8       24     5   4    4.00   420.1    5.9      30.760
2014    8       24     5  10    4.00   420.0    5.9      30.735
2014    8       24     5  16    4.00   419.8    5.9      30.711
2014    8       24     5  22    4.00   419.7    5.9      30.686
2014    8       24     5  27    4.00   419.5    5.9      30.662
2014    8       24     5  33    4.00   419.4    5.9      30.638
2014    8       24     5  39    4.00   419.2    5.9      30.614
2014    8       24     5  45    4.00   419.1    5.9      30.590
2014    8       24     5  51    4.00   418.9    5.9      30.567
2014    8       24     5  56    4.00   418.8    5.9      30.544
2014    8       24     6   2    4.00   418.6    5.9      30.521
2014    8       24     6   8    4.00   418.5    5.9      30.499
2014    8       24     6  14    4.00   418.3    5.9      30.476
2014    8       24     6  20    4.00   418.2    5.9      30.454
2014    8       24     6  26    4.00   418.0    5.9      30.432
2014    8       24     6  31    4.00   417.9    5.9      30.411
2014    8       24     6  37    4.00   417.7    5.9      30.390
2014    8       24     6  43    4.00   417.5    5.9      30.369
2014    8       24     6  49    4.00   417.4    5.9      30.348
2014    8       24     6  55    4.00   417.2    5.9      30.327
2014    8       24     7   0    4.00   417.1    5.9      30.307
2014    8       24     7   6    4.00   416.9    6.0      30.287
2014    8       24     7  12    4.00   416.7    6.0      30.267
2014    8       24     7  18    4.00   416.6    6.0      30.248
2014    8       24     7  24    4.00   416.4    6.0      30.229
2014    8       24     7  29    4.00   416.3    6.0      30.210
2014    8       24     7  35    4.00   416.1    6.0      30.192
2014    8       24     7  41    4.00   415.9    6.0      30.174
2014    8       24     7  47    4.00   415.8    6.0      30.156
2014    8       24     7  53    4.00   415.6    6.0      30.138
2014    8       24     7  58    4.01   415.5    6.0      30.121
2014    8       24     8   4    4.01   415.3    6.0      30.104
2014    8       24     8  10    4.01   415.1    6.0      30.088
2014    8       24     8  16    4.01   415.0    6.0      30.072
2014    8       24     8  22    4.01   414.8    6.0      30.056
2014    8       24     8  27    4.01   414.7    6.0      30.040
2014    8       24     8  33    4.01   414.5    6.0      30.025
2014    8       24     8  39    4.01   414.3    6.0      30.010
2014    8       24     8  45    4.01   414.2    6.0      29.996
2014    8       24     8  51    4.01   414.0    6.0      29.982
2014    8       24     8  56    4.01   413.9    6.1      29.968
2014    8       24     9   2    4.01   413.7    6.1      29.954
2014    8       24     9   8    4.02   413.5    6.1      29.941
2014    8       24     9  14    4.02   413.4    6.1      29.928
2014    8       24     9  20    4.02   413.2    6.1      29.915
2014    8       24     9  25    4.02   413.1    6.1      29.903
2014    8       24     9  31    4.02   412.9    6.1      29.891
2014    8       24     9  37    4.02   412.8    6.1      29.879
2014    8       24     9  43    4.02   412.6    6.1      29.868
2014    8       24     9  49    4.02   412.5    6.1      29.857
2014    8       24     9  54    4.03   412.3    6.1      29.846
2014    8       24    10   0    4.03   412.2    6.1      29.836
2014    8       24    10   6    4.03   412.0    6.1      29.825
2014    8       24    10  12    4.03   411.9    6.1      29.815
2014    8       24    10  18    4.03   411.8    6.2      29.805
2014    8       24    10  23    4.03   411.6    6.2      29.794
2014    8       24    10  29    4.03   411.5    6.2      29.784
2014    8       24    10  35    4.04   411.3    6.2      29.773
2014    8       24    10  41    4.04   411.2    6.2      29.762
2014    8       24    10  47    4.04   411.0    6.2      29.751
2014    8       24    10  52    4.04   410.9    6.2      29.740
2014    8       24    10  58    4.04   410.8    6.2      29.729
2014    8       24    11   4    4.04   410.6    6.2      29.718
2014    8       24    11  10    4.04   410.5    6.2      29.707
2014    8       24    11  16    4.05   410.4    6.2      29.696
2014    8       24    11  21    4.05   410.2    6.2      29.685
2014    8       24    11  27    4.05   410.1    6.2      29.674
2014    8       24    11  33    4.05   409.9    6.3      29.663
2014    8       24    11  39    4.05   409.8    6.3      29.651
2014    8       24    11  45    4.05   409.7    6.3      29.640
2014    8       24    11  50    4.06   409.5    6.3      29.629
2014    8       24    11  56    4.06   409.4    6.3      29.618
2014    8       24    12   2    4.06   409.3    6.3      29.607
2014    8       24    12   8    4.06   409.1    6.3      29.596
2014    8       24    12  14    4.06   409.0    6.3      29.586
2014    8       24    12  19    4.06   408.9    6.3      29.575
2014    8       24    12  25    4.07   408.7    6.3      29.565
2014    8       24    12  31    4.07   408.6    6.3      29.555
2014    8       24    12  37    4.07   408.5    6.3      29.545
2014    8       24    12  43    4.07   408.4    6.3      29.535
2014    8       24    12  48    4.07   408.2    6.3      29.525
2014    8       24    12  54    4.07   408.1    6.4      29.516
2014    8       24    13   0    4.08   408.0    6.4      29.507
2014    8       24    13   6    4.08   407.8    6.4      29.499
2014    8       24    13  12    4.08   407.7    6.4      29.490
2014    8       24    13  17    4.08   407.6    6.4      29.482
2014    8       24    13  23    4.08   407.5    6.4      29.475
2014    8       24    13  29    4.09   407.3    6.4      29.468
2014    8       24    13  35    4.09   407.2    6.4      29.461
2014    8       24    13  41    4.09   407.1    6.4      29.454
2014    8       24    13  46    4.09   407.0    6.4      29.448
2014    8       24    13  52    4.10   406.8    6.4      29.443
2014    8       24    13  58    4.10   406.7    6.4      29.438
2014    8       24    14   4    4.10   406.6    6.4      29.433
2014    8       24    14  10    4.10   406.5    6.5      29.429
2014    8       24    14  15    4.11   406.4    6.5      29.425
2014    8       24    14  21    4.11   406.2    6.5      29.422
2014    8       24    14  27    4.11   406.1    6.5      29.419
2014    8       24    14  33    4.11   406.0    6.5      29.416
2014    8       24    14  39    4.12   405.9    6.5      29.415
2014    8       24    14  44    4.12   405.8    6.5      29.413
2014    8       24    14  50    4.12   405.7    6.5      29.412
2014    8       24    14  56    4.12   405.5    6.5      29.412
2014    8       24    15   2    4.13   405.4    6.5      29.412
2014    8       24    15   8    4.13   405.3    6.6      29.412
2014    8       24    15  13    4.13   405.2    6.6      29.413
2014    8       24    15  19    4.13   405.1    6.6      29.414
2014    8       24    15  25    4.14   405.0    6.6      29.416
2014    8       24    15  31    4.14   404.9    6.6      29.419
2014    8       24    15  37    4.14   404.8    6.6      29.422
2014    8       24    15  42    4.15   404.6    6.6      29.425
2014    8       24    15  48    4.15   404.5    6.6      29.429
2014    8       24    15  54    4.15   404.4    6.6      29.433
2014    8       24    16   0    4.16   404.3    6.7      29.438
2014    8       24    16   6    4.16   404.2    6.7      29.444
2014    8       24    16  11    4.16   404.1    6.7      29.451
2014    8       24    16  17    4.17   404.0    6.7      29.458
2014    8       24    16  23    4.17   403.9    6.7      29.466
2014    8       24    16  29    4.17   403.8    6.7      29.475
2014    8       24    16  35    4.18   403.7    6.7      29.485
2014    8       24    16  40    4.18   403.6    6.7      29.495
2014    8       24    16  46    4.18   403.5    6.7      29.506
2014    8       24    16  52    4.19   403.5    6.8      29.518
2014    8       24    16  58    4.19   403.4    6.8      29.530
2014    8       24    17   4    4.19   403.3    6.8      29.542
2014    8       24    17   9    4.20   403.2    6.8      29.555
2014    8       24    17  15    4.20   403.1    6.8      29.569
2014    8       24    17  21    4.21   403.0    6.8      29.582
2014    8       24    17  27    4.21   402.9    6.8      29.595
2014    8       24    17  33    4.21   402.9    6.8      29.608
2014    8       24    17  38    4.22   402.8    6.9      29.621
2014    8       24    17  44    4.22   402.7    6.9      29.634
2014    8       24    17  50    4.22   402.6    6.9      29.646
2014    8       24    17  56    4.23   402.5    6.9      29.658
2014    8       24    18   2    4.23   402.5    6.9      29.670
2014    8       24    18   7    4.23   402.4    6.9      29.682
2014    8       24    18  13    4.24   402.3    6.9      29.694
2014    8       24    18  19    4.24   402.2    6.9      29.705
2014    8       24    18  25    4.25   402.2    6.9      29.716
2014    8       24    18  31    4.25   402.1    7.0      29.727
2014    8       24    18  36    4.25   402.0    7.0      29.738
2014    8       24    18  42    4.26   401.9    7.0      29.749
2014    8       24    18  48    4.26   401.9    7.0      29.759
2014    8       24    18  54    4.26   401.8    7.0      29.769
2014    8       24    19   0    4.27   401.7    7.0      29.779
2014    8       24    19   5    4.27   401.6    7.0      29.789
2014    8       24    19  11    4.28   401.6    7.0      29.799
2014    8       24    19  17    4.28   401.5    7.0      29.808
2014    8       24    19  23    4.28   401.4    7.0      29.818
2014    8       24    19  29    4.29   401.4    7.1      29.828
2014    8       24    19  34    4.29   401.3    7.1      29.837
2014    8       24    19  40    4.30   401.2    7.1      29.847
2014    8       24    19  46    4.30   401.2    7.1      29.856
2014    8       24    19  52    4.30   401.1    7.1      29.866
2014    8       24    19  58    4.31   401.0    7.1      29.875
2014    8       24    20   3    4.31   401.0    7.1      29.885
2014    8       24    20   9    4.32   400.9    7.1      29.896
2014    8       24    20  15    4.32   400.9    7.1      29.907
2014    8       24    20  21    4.33   400.8    7.1      29.918
2014    8       24    20  27    4.33   400.8    7.2      29.929
2014    8       24    20  32    4.33   400.7    7.2      29.941
2014    8       24    20  38    4.34   400.7    7.2      29.954
2014    8       24    20  44    4.34   400.6    7.2      29.966
2014    8       24    20  50    4.35   400.6    7.2      29.979
2014    8       24    20  56    4.35   400.5    7.2      29.992
2014    8       24    21   1    4.36   400.5    7.2      30.005
2014    8       24    21   7    4.36   400.4    7.2      30.018
2014    8       24    21  13    4.37   400.4    7.2      30.031
2014    8       24    21  19    4.37   400.4    7.2      30.044
2014    8       24    21  25    4.37   400.3    7.3      30.058
2014    8       24    21  30    4.38   400.3    7.3      30.071
2014    8       24    21  36    4.38   400.3    7.3      30.085
2014    8       24    21  42    4.39   400.2    7.3      30.098
2014    8       24    21  48    4.39   400.2    7.3      30.112
2014    8       24    21  54    4.40   400.1    7.3      30.126
2014    8       24    21  59    4.40   400.1    7.3      30.140
2014    8       24    22   5    4.41   400.1    7.3      30.154
2014    8       24    22  11    4.41   400.1    7.3      30.169
2014    8       24    22  17    4.41   400.0    7.3      30.183
2014    8       24    22  23    4.42   400.0    7.4      30.198
2014    8       24    22  28    4.42   400.0    7.4      30.213
2014    8       24    22  34    4.43   399.9    7.4      30.227
2014    8       24    22  40    4.43   399.9    7.4      30.242
2014    8       24    22  46    4.44   399.9    7.4      30.257
2014    8       24    22  52    4.44   399.9    7.4      30.272
2014    8       24    22  57    4.45   399.8    7.4      30.288
2014    8       24    23   3    4.45   399.8    7.4      30.303
2014    8       24    23   9    4.46   399.8    7.4      30.319
2014    8       24    23  15    4.46   399.8    7.4      30.336
2014    8       24    23  21    4.47   399.8    7.5      30.353
2014    8       24    23  26    4.47   399.7    7.5      30.370
2014    8       24    23  32    4.48   399.7    7.5      30.388
2014    8       24    23  38    4.48   399.7    7.5      30.407
2014    8       24    23  44    4.48   399.7    7.5      30.426
2014    8       24    23  50    4.49   399.7    7.5      30.446
2014    8       24    23  55    4.49   399.7    7.5      30.465
2014    8       25     0   1    4.50   399.6    7.5      30.486
2014    8       25     0   7    4.50   399.6    7.5      30.506
2014    8       25     0  13    4.51   399.6    7.5      30.527
2014    8       25     0  19    4.51   399.6    7.6      30.547
2014    8       25     0  24    4.52   399.6    7.6      30.568
2014    8       25     0  30    4.52   399.6    7.6      30.589
2014    8       25     0  36    4.53   399.6    7.6      30.610
2014    8       25     0  42    4.53   399.6    7.6      30.631
2014    8       25     0  48    4.54   399.5    7.6      30.652
2014    8       25     0  53    4.54   399.5    7.6      30.673
2014    8       25     0  59    4.55   399.5    7.6      30.694
2014    8       25     1   5    4.55   399.5    7.6      30.715
2014    8       25     1  11    4.56   399.5    7.6      30.736
2014    8       25     1  17    4.56   399.5    7.6      30.757
2014    8       25     1  22    4.57   399.5    7.6      30.778
2014    8       25     1  28    4.57   399.5    7.7      30.799
2014    8       25     1  34    4.58   399.5    7.7      30.820
2014    8       25     1  40    4.58   399.5    7.7      30.840
2014    8       25     1  46    4.59   399.4    7.7      30.861
2014    8       25     1  51    4.59   399.4    7.7      30.881
2014    8       25     1  57    4.60   399.4    7.7      30.902
2014    8       25     2   3    4.60   399.4    7.7      30.922
2014    8       25     2   9    4.61   399.4    7.7      30.943
2014    8       25     2  15    4.61   399.4    7.7      30.963
2014    8       25     2  20    4.62   399.4    7.7      30.983
2014    8       25     2  26    4.62   399.4    7.7      31.003
2014    8       25     2  32    4.63   399.4    7.7      31.023
2014    8       25     2  38    4.63   399.4    7.8      31.043
2014    8       25     2  44    4.64   399.4    7.8      31.063
2014    8       25     2  49    4.64   399.4    7.8      31.083
2014    8       25     2  55    4.65   399.4    7.8      31.103
2014    8       25     3   1    4.65   399.4    7.8      31.122
2014    8       25     3   7    4.66   399.4    7.8      31.142
2014    8       25     3  13    4.66   399.4    7.8      31.162
2014    8       25     3  18    4.67   399.4    7.8      31.182
2014    8       25     3  24    4.67   399.4    7.8      31.202
2014    8       25     3  30    4.68   399.4    7.8      31.223
2014    8       25     3  36    4.68   399.4    7.8      31.243
2014    8       25     3  42    4.69   399.4    7.8      31.264
2014    8       25     3  47    4.69   399.4    7.9      31.285
2014    8       25     3  53    4.70   399.4    7.9      31.307
2014    8       25     3  59    4.70   399.4    7.9      31.328
2014    8       25     4   5    4.71   399.4    7.9      31.350
2014    8       25     4  11    4.71   399.4    7.9      31.373
2014    8       25     4  16    4.72   399.4    7.9      31.395
2014    8       25     4  22    4.73   399.4    7.9      31.417
2014    8       25     4  28    4.73   399.5    7.9      31.439
2014    8       25     4  34    4.74   399.5    7.9      31.461
2014    8       25     4  40    4.74   399.5    7.9      31.484
2014    8       25     4  45    4.75   399.5    7.9      31.506
2014    8       25     4  51    4.75   399.5    7.9      31.529
2014    8       25     4  57    4.76   399.5    8.0      31.552
2014    8       25     5   3    4.76   399.5    8.0      31.575
2014    8       25     5   9    4.77   399.5    8.0      31.599
2014    8       25     5  14    4.77   399.6    8.0      31.624
2014    8       25     5  20    4.78   399.6    8.0      31.648
2014    8       25     5  26    4.78   399.6    8.0      31.674
2014    8       25     5  32    4.79   399.6    8.0      31.699
2014    8       25     5  38    4.79   399.7    8.0      31.725
2014    8       25     5  44    4.80   399.7    8.0      31.751
2014    8       25     5  49    4.81   399.7    8.0      31.777
2014    8       25     5  55    4.81   399.7    8.0      31.803
2014    8       25     6   1    4.82   399.8    8.0      31.829
2014    8       25     6   7    4.82   399.8    8.0      31.855
2014    8       25     6  13    4.83   399.8    8.1      31.881
2014    8       25     6  18    4.83   399.9    8.1      31.906
2014    8       25     6  24    4.84   399.9    8.1      31.932
2014    8       25     6  30    4.84   399.9    8.1      31.957
2014    8       25     6  36    4.85   400.0    8.1      31.982
2014    8       25     6  42    4.85   400.0    8.1      32.008
2014    8       25     6  47    4.86   400.0    8.1      32.033
2014    8       25     6  53    4.86   400.0    8.1      32.058
2014    8       25     6  59    4.87   400.1    8.1      32.082
2014    8       25     7   5    4.88   400.1    8.1      32.107
2014    8       25     7  11    4.88   400.1    8.1      32.131
2014    8       25     7  16    4.89   400.2    8.1      32.155
2014    8       25     7  22    4.89   400.2    8.1      32.179
2014    8       25     7  28    4.90   400.2    8.1      32.203
2014    8       25     7  34    4.90   400.3    8.1      32.227
2014    8       25     7  40    4.91   400.3    8.2      32.251
2014    8       25     7  45    4.91   400.3    8.2      32.275
2014    8       25     7  51    4.92   400.4    8.2      32.299
2014    8       25     7  57    4.92   400.4    8.2      32.322
2014    8       25     8   3    4.93   400.4    8.2      32.346
2014    8       25     8   9    4.94   400.5    8.2      32.370
2014    8       25     8  14    4.94   400.5    8.2      32.393
2014    8       25     8  20    4.95   400.5    8.2      32.417
2014    8       25     8  26    4.95   400.6    8.2      32.441
2014    8       25     8  32    4.96   400.6    8.2      32.464
2014    8       25     8  38    4.96   400.6    8.2      32.488
2014    8       25     8  43    4.97   400.7    8.2      32.512
2014    8       25     8  49    4.98   400.7    8.2      32.536
2014    8       25     8  55    4.98   400.7    8.2      32.560
2014    8       25     9   1    4.99   400.8    8.2      32.585
2014    8       25     9   7    4.99   400.8    8.2      32.609
2014    8       25     9  12    5.00   400.9    8.3      32.634
2014    8       25     9  18    5.01   400.9    8.3      32.658
2014    8       25     9  24    5.01   400.9    8.3      32.683
2014    8       25     9  30    5.02   401.0    8.3      32.709
2014    8       25     9  36    5.02   401.0    8.3      32.734
2014    8       25     9  41    5.03   401.0    8.3      32.760
2014    8       25     9  47    5.04   401.1    8.3      32.786
2014    8       25     9  53    5.04   401.1    8.3      32.812
2014    8       25     9  59    5.05   401.2    8.3      32.839
2014    8       25    10   5    5.06   401.2    8.3      32.867
2014    8       25    10  10    5.06   401.3    8.3      32.897
2014    8       25    10  16    5.07   401.3    8.3      32.927
2014    8       25    10  22    5.08   401.4    8.4      32.959
2014    8       25    10  28    5.08   401.4    8.4      32.992
2014    8       25    10  34    5.09   401.5    8.4      33.025
2014    8       25    10  39    5.09   401.6    8.4      33.059
2014    8       25    10  45    5.10   401.6    8.4      33.094
2014    8       25    10  51    5.11   401.7    8.4      33.128
2014    8       25    10  57    5.11   401.7    8.4      33.162
2014    8       25    11   3    5.12   401.8    8.4      33.196
2014    8       25    11   8    5.12   401.9    8.4      33.229
2014    8       25    11  14    5.13   401.9    8.4      33.262
2014    8       25    11  20    5.14   402.0    8.4      33.295
2014    8       25    11  26    5.14   402.0    8.4      33.328
2014    8       25    11  32    5.15   402.1    8.4      33.360
2014    8       25    11  37    5.16   402.2    8.4      33.392
2014    8       25    11  43    5.16   402.2    8.5      33.424
2014    8       25    11  49    5.17   402.3    8.5      33.455
2014    8       25    11  55    5.17   402.3    8.5      33.487
2014    8       25    12   1    5.18   402.4    8.5      33.518
2014    8       25    12   6    5.19   402.5    8.5      33.549
2014    8       25    12  12    5.19   402.5    8.5      33.581
2014    8       25    12  18    5.20   402.6    8.5      33.612
2014    8       25    12  24    5.21   402.6    8.5      33.644
2014    8       25    12  30    5.21   402.7    8.5      33.675
2014    8       25    12  35    5.22   402.8    8.5      33.708
2014    8       25    12  41    5.22   402.8    8.5      33.740
2014    8       25    12  47    5.23   402.9    8.5      33.773
2014    8       25    12  53    5.24   403.0    8.5      33.806
2014    8       25    12  59    5.24   403.1    8.5      33.838
2014    8       25    13   4    5.25   403.1    8.5      33.871
2014    8       25    13  10    5.26   403.2    8.5      33.904
2014    8       25    13  16    5.26   403.3    8.5      33.936
2014    8       25    13  22    5.27   403.3    8.6      33.969
2014    8       25    13  28    5.28   403.4    8.6      34.001
2014    8       25    13  33    5.28   403.5    8.6      34.032
2014    8       25    13  39    5.29   403.5    8.6      34.064
2014    8       25    13  45    5.30   403.6    8.6      34.095
2014    8       25    13  51    5.30   403.7    8.6      34.126
2014    8       25    13  57    5.31   403.8    8.6      34.157
2014    8       25    14   2    5.32   403.8    8.6      34.188
2014    8       25    14   8    5.32   403.9    8.6      34.218
2014    8       25    14  14    5.33   404.0    8.6      34.249
2014    8       25    14  20    5.34   404.1    8.6      34.279
2014    8       25    14  26    5.34   404.1    8.6      34.309
2014    8       25    14  31    5.35   404.2    8.6      34.340
2014    8       25    14  37    5.36   404.3    8.6      34.370
2014    8       25    14  43    5.36   404.4    8.6      34.400
2014    8       25    14  49    5.37   404.4    8.6      34.430
2014    8       25    14  55    5.38   404.5    8.6      34.461
2014    8       25    15   0    5.38   404.6    8.6      34.492
2014    8       25    15   6    5.39   404.7    8.6      34.523
2014    8       25    15  12    5.40   404.7    8.7      34.554
2014    8       25    15  18    5.41   404.8    8.7      34.585
2014    8       25    15  24    5.41   404.9    8.7      34.617
2014    8       25    15  29    5.42   405.0    8.7      34.650
2014    8       25    15  35    5.43   405.1    8.7      34.683
2014    8       25    15  41    5.44   405.2    8.7      34.717
2014    8       25    15  47    5.44   405.2    8.7      34.752
2014    8       25    15  53    5.45   405.3    8.7      34.787
2014    8       25    15  58    5.46   405.4    8.7      34.824
2014    8       25    16   4    5.47   405.5    8.7      34.861
2014    8       25    16  10    5.47   405.6    8.7      34.900
2014    8       25    16  16    5.48   405.7    8.7      34.940
2014    8       25    16  22    5.49   405.8    8.7      34.981
2014    8       25    16  27    5.50   405.9    8.7      35.024
2014    8       25    16  33    5.51   406.0    8.8      35.068
2014    8       25    16  39    5.51   406.2    8.8      35.114
2014    8       25    16  45    5.52   406.3    8.8      35.163
2014    8       25    16  51    5.53   406.4    8.8      35.212
2014    8       25    16  56    5.54   406.5    8.8      35.264
2014    8       25    17   2    5.55   406.6    8.8      35.319
2014    8       25    17   8    5.56   406.8    8.8      35.376
2014    8       25    17  14    5.57   406.9    8.8      35.435
2014    8       25    17  20    5.57   407.1    8.8      35.498
2014    8       25    17  25    5.58   407.2    8.9      35.563
2014    8       25    17  31    5.59   407.4    8.9      35.632
2014    8       25    17  37    5.60   407.5    8.9      35.705
2014    8       25    17  43    5.62   407.7    8.9      35.781
2014    8       25    17  49    5.63   407.9    8.9      35.862
2014    8       25    17  54    5.64   408.1    8.9      35.948
2014    8       25    18   0    5.65   408.3    9.0      36.039
2014    8       25    18   6    5.66   408.5    9.0      36.137
2014    8       25    18  12    5.68   408.7    9.0      36.240
2014    8       25    18  18    5.69   408.9    9.0      36.352
2014    8       25    18  23    5.71   409.2    9.1      36.471
2014    8       25    18  29    5.72   409.4    9.1      36.600
2014    8       25    18  35    5.74   409.7    9.1      36.739
2014    8       25    18  41    5.76   410.0    9.2      36.889
2014    8       25    18  47    5.78   410.3    9.2      37.051
2014    8       25    18  52    5.80   410.6    9.2      37.228
2014    8       25    18  58    5.82   411.0    9.3      37.419
2014    8       25    19   4    5.84   411.3    9.3      37.629
2014    8       25    19  10    5.87   411.7    9.4      37.856
2014    8       25    19  16    5.90   412.2    9.4      38.105
2014    8       25    19  21    5.93   412.7    9.5      38.376
2014    8       25    19  27    5.96   413.2    9.6      38.671
2014    8       25    19  33    6.00   413.7    9.7      38.994
2014    8       25    19  39    6.03   414.3    9.7      39.346
2014    8       25    19  45    6.08   414.9    9.8      39.730
2014    8       25    19  50    6.12   415.6    9.9      40.146
2014    8       25    19  56    6.17   416.4   10.1      40.598
2014    8       25    20   2    6.22   417.1   10.2      41.088
2014    8       25    20   8    6.27   418.0   10.3      41.619
2014    8       25    20  14    6.33   418.9   10.5      42.190
2014    8       25    20  19    6.39   419.8   10.7      42.798
2014    8       25    20  25    6.46   420.8   10.9      43.449
2014    8       25    20  31    6.53   422.0   11.1      44.143
2014    8       25    20  37    6.60   423.1   11.3      44.899
2014    8       25    20  43    6.67   424.4   11.6      45.711
2014    8       25    20  48    6.75   425.7   11.9      46.577
2014    8       25    20  54    6.83   427.1   12.1      47.501
2014    8       25    21   0    6.91   428.4   12.5      48.461
2014    8       25    21   6    6.99   429.7   12.8      49.435
2014    8       25    21  12    7.07   431.1   13.2      50.421
2014    8       25    21  17    7.16   432.6   13.5      51.417
2014    8       25    21  23    7.24   434.2   13.9      52.478
2014    8       25    21  29    7.31   435.8   14.4      53.606
2014    8       25    21  35    7.39   437.4   14.8      54.794
2014    8       25    21  41    7.46   439.1   15.2      56.035
2014    8       25    21  46    7.53   440.6   15.6      57.301
2014    8       25    21  52    7.59   442.2   16.1      58.578
2014    8       25    21  58    7.64   443.8   16.5      59.848
2014    8       25    22   4    7.68   445.3   16.9      61.098
2014    8       25    22  10    7.72   446.8   17.3      62.361
2014    8       25    22  15    7.76   448.3   17.7      63.636
2014    8       25    22  21    7.78   449.9   18.0      64.940
2014    8       25    22  27    7.80   451.3   18.3      66.263
2014    8       25    22  33    7.81   452.7   18.6      67.593
2014    8       25    22  39    7.82   454.0   18.9      68.913
2014    8       25    22  44    7.82   455.2   19.1      70.184
2014    8       25    22  50    7.81   456.4   19.4      71.409
2014    8       25    22  56    7.79   457.5   19.5      72.594
2014    8       25    23   2    7.77   458.5   19.7      73.745
2014    8       25    23   8    7.75   459.5   19.8      74.864
2014    8       25    23  13    7.72   460.4   19.9      75.952
2014    8       25    23  19    7.69   461.2   20.0      77.008
2014    8       25    23  25    7.65   462.0   20.1      78.028
2014    8       25    23  31    7.61   462.7   20.2      79.015
2014    8       25    23  37    7.57   463.4   20.2      79.970
2014    8       25    23  42    7.52   464.0   20.2      80.896
2014    8       25    23  48    7.46   464.6   20.2      81.793
2014    8       25    23  54    7.41   465.1   20.2      82.663
2014    8       26     0   0    7.35   465.6   20.2      83.504
2014    8       26     0   6    7.30   466.1   20.2      84.319
2014    8       26     0  11    7.24   466.5   20.2      85.107
2014    8       26     0  17    7.18   466.8   20.2      85.869
2014    8       26     0  23    7.12   467.2   20.1      86.603
2014    8       26     0  29    7.06   467.5   20.1      87.311
2014    8       26     0  35    7.00   467.8   20.1      87.992
2014    8       26     0  40    6.94   468.1   20.0      88.646
2014    8       26     0  46    6.88   468.4   20.0      89.270
2014    8       26     0  52    6.83   468.6   20.0      89.864
2014    8       26     0  58    6.77   468.9   19.9      90.428
2014    8       26     1   4    6.72   469.1   19.9      90.962
2014    8       26     1   9    6.66   469.3   19.8      91.465
2014    8       26     1  15    6.61   469.5   19.8      91.938
2014    8       26     1  21    6.56   469.8   19.7      92.380
2014    8       26     1  27    6.51   470.0   19.7      92.796
2014    8       26     1  33    6.46   470.2   19.6      93.185
2014    8       26     1  38    6.42   470.5   19.6      93.545
2014    8       26     1  44    6.37   470.7   19.5      93.877
2014    8       26     1  50    6.33   471.0   19.5      94.186
2014    8       26     1  56    6.29   471.3   19.4      94.472
2014    8       26     2   2    6.24   471.5   19.3      94.738
2014    8       26     2   7    6.20   471.8   19.2      94.986
2014    8       26     2  13    6.16   472.1   19.2      95.223
2014    8       26     2  19    6.12   472.4   19.1      95.451
2014    8       26     2  25    6.08   472.6   19.0      95.675
2014    8       26     2  31    6.04   472.9   18.9      95.896
2014    8       26     2  36    6.00   473.2   18.8      96.116
2014    8       26     2  42    5.96   473.4   18.7      96.337
2014    8       26     2  48    5.92   473.7   18.6      96.558
2014    8       26     2  54    5.89   473.9   18.4      96.786
2014    8       26     3   0    5.85   474.1   18.3      97.023
2014    8       26     3   5    5.82   474.4   18.2      97.265
2014    8       26     3  11    5.78   474.6   18.0      97.513
2014    8       26     3  17    5.75   474.7   17.8      97.765
2014    8       26     3  23    5.72   474.9   17.7      98.017
2014    8       26     3  29    5.68   475.1   17.5      98.265
2014    8       26     3  34    5.65   475.2   17.3      98.506
2014    8       26     3  40    5.63   475.3   17.1      98.738
2014    8       26     3  46    5.60   475.4   16.8      98.972
2014    8       26     3  52    5.57   475.5   16.6      99.206
2014    8       26     3  58    5.55   475.6   16.4      99.437
2014    8       26     4   3    5.53   475.6   16.1      99.660
2014    8       26     4   9    5.50   475.6   15.9      99.870
2014    8       26     4  15    5.49   475.6   15.6     100.052
2014    8       26     4  21    5.47   475.6   15.4     100.199
2014    8       26     4  27    5.45   475.5   15.1     100.298
2014    8       26     4  32    5.44   475.4   14.9     100.360
2014    8       26     4  38    5.42   475.4   14.6     100.398
2014    8       26     4  44    5.41   475.3   14.3     100.409
2014    8       26     4  50    5.40   475.2   14.1     100.395
2014    8       26     4  56    5.40   475.1   13.8     100.364
2014    8       26     5   1    5.39   475.0   13.6     100.306
2014    8       26     5   7    5.39   474.8   13.3     100.208
2014    8       26     5  13    5.38   474.7   13.1     100.063
2014    8       26     5  19    5.38   474.6   12.8      99.870
2014    8       26     5  25    5.38   474.5   12.6      99.635
2014    8       26     5  30    5.38   474.4   12.3      99.366
2014    8       26     5  36    5.39   474.3   12.1      99.069
2014    8       26     5  42    5.39   474.2   11.9      98.755
2014    8       26     5  48    5.40   474.1   11.7      98.426
2014    8       26     5  54    5.41   474.0   11.5      98.079
2014    8       26     5  59    5.41   474.0   11.3      97.715
2014    8       26     6   5    5.42   473.9   11.1      97.333
2014    8       26     6  11    5.44   473.9   10.9      96.933
2014    8       26     6  17    5.45   473.8   10.7      96.517
2014    8       26     6  23    5.46   473.8   10.5      96.089
2014    8       26     6  28    5.47   473.8   10.4      95.646
2014    8       26     6  34    5.49   473.8   10.2      95.190
2014    8       26     6  40    5.50   473.8   10.0      94.719
2014    8       26     6  46    5.52   473.8    9.8      94.235
2014    8       26     6  52    5.54   473.8    9.7      93.736
2014    8       26     6  57    5.55   473.8    9.5      93.225
2014    8       26     7   3    5.57   473.9    9.4      92.699
2014    8       26     7   9    5.59   473.9    9.2      92.161
2014    8       26     7  15    5.60   473.9    9.1      91.610
2014    8       26     7  21    5.62   474.0    8.9      91.047
2014    8       26     7  26    5.64   474.0    8.8      90.471
2014    8       26     7  32    5.65   474.1    8.6      89.885
2014    8       26     7  38    5.67   474.2    8.5      89.286
2014    8       26     7  44    5.69   474.3    8.4      88.677
2014    8       26     7  50    5.70   474.3    8.2      88.058
2014    8       26     7  55    5.72   474.4    8.1      87.429
2014    8       26     8   1    5.73   474.5    8.0      86.790
2014    8       26     8   7    5.74   474.6    7.8      86.142
2014    8       26     8  13    5.76   474.8    7.7      85.486
2014    8       26     8  19    5.77   474.9    7.6      84.823
2014    8       26     8  24    5.78   475.0    7.5      84.152
2014    8       26     8  30    5.79   475.1    7.4      83.476
2014    8       26     8  36    5.80   475.3    7.3      82.794
2014    8       26     8  42    5.81   475.4    7.2      82.108
2014    8       26     8  48    5.82   475.6    7.0      81.417
2014    8       26     8  53    5.82   475.7    6.9      80.723
2014    8       26     8  59    5.83   475.9    6.8      80.027
2014    8       26     9   5    5.84   476.0    6.7      79.330
2014    8       26     9  11    5.84   476.2    6.7      78.631
2014    8       26     9  17    5.85   476.4    6.6      77.933
2014    8       26     9  22    5.85   476.6    6.5      77.236
2014    8       26     9  28    5.86   476.7    6.4      76.541
2014    8       26     9  34    5.86   476.9    6.3      75.848
2014    8       26     9  40    5.86   477.1    6.2      75.159
2014    8       26     9  46    5.86   477.3    6.1      74.474
2014    8       26     9  51    5.86   477.5    6.1      73.794
2014    8       26     9  57    5.87   477.7    6.0      73.120
2014    8       26    10   3    5.87   477.9    5.9      72.454
2014    8       26    10   9    5.87   478.1    5.8      71.794
2014    8       26    10  15    5.86   478.3    5.8      71.143
2014    8       26    10  20    5.86   478.5    5.7      70.501
2014    8       26    10  26    5.86   478.7    5.7      69.870
2014    8       26    10  32    5.86   478.9    5.6      69.249
2014    8       26    10  38    5.86   479.1    5.5      68.639
2014    8       26    10  44    5.85   479.3    5.5      68.041
2014    8       26    10  49    5.85   479.5    5.4      67.456
2014    8       26    10  55    5.84   479.7    5.4      66.883
2014    8       26    11   1    5.84   479.9    5.3      66.324
2014    8       26    11   7    5.83   480.1    5.3      65.779
2014    8       26    11  13    5.82   480.3    5.2      65.248
2014    8       26    11  18    5.82   480.5    5.2      64.732
2014    8       26    11  24    5.81   480.6    5.1      64.231
2014    8       26    11  30    5.80   480.8    5.1      63.746
2014    8       26    11  36    5.79   481.0    5.1      63.276
2014    8       26    11  42    5.78   481.2    5.0      62.821
2014    8       26    11  47    5.77   481.4    5.0      62.383
2014    8       26    11  53    5.76   481.5    5.0      61.959
2014    8       26    11  59    5.75   481.7    4.9      61.552
2014    8       26    12   5    5.74   481.9    4.9      61.161
2014    8       26    12  11    5.73   482.0    4.9      60.787
2014    8       26    12  16    5.72   482.2    4.8      60.429
2014    8       26    12  22    5.71   482.3    4.8      60.086
2014    8       26    12  28    5.70   482.5    4.8      59.759
2014    8       26    12  34    5.69   482.6    4.8      59.447
2014    8       26    12  40    5.68   482.8    4.7      59.150
2014    8       26    12  45    5.67   482.9    4.7      58.867
2014    8       26    12  51    5.66   483.0    4.7      58.597
2014    8       26    12  57    5.65   483.1    4.7      58.342
2014    8       26    13   3    5.64   483.3    4.7      58.099
2014    8       26    13   9    5.64   483.4    4.7      57.868
2014    8       26    13  14    5.63   483.5    4.6      57.649
2014    8       26    13  20    5.62   483.7    4.6      57.438
2014    8       26    13  26    5.61   483.8    4.6      57.233
2014    8       26    13  32    5.60   484.0    4.6      57.037
2014    8       26    13  38    5.60   484.1    4.6      56.847
2014    8       26    13  43    5.59   484.3    4.6      56.664
2014    8       26    13  49    5.58   484.4    4.6      56.487
2014    8       26    13  55    5.57   484.6    4.6      56.317
2014    8       26    14   1    5.57   484.8    4.6      56.155
2014    8       26    14   7    5.56   484.9    4.6      56.000
2014    8       26    14  12    5.55   485.1    4.6      55.853
2014    8       26    14  18    5.55   485.3    4.6      55.715
2014    8       26    14  24    5.54   485.5    4.6      55.583
2014    8       26    14  30    5.54   485.7    4.6      55.459
2014    8       26    14  36    5.53   485.9    4.6      55.343
2014    8       26    14  41    5.53   486.1    4.6      55.234
2014    8       26    14  47    5.52   486.3    4.6      55.134
2014    8       26    14  53    5.52   486.4    4.6      55.040
2014    8       26    14  59    5.51   486.6    4.6      54.953
2014    8       26    15   5    5.51   486.8    4.6      54.872
2014    8       26    15  10    5.50   487.0    4.6      54.797
2014    8       26    15  16    5.50   487.2    4.6      54.726
2014    8       26    15  22    5.50   487.4    4.6      54.660
2014    8       26    15  28    5.49   487.6    4.6      54.596
2014    8       26    15  34    5.49   487.9    4.7      54.534
2014    8       26    15  39    5.49   488.1    4.7      54.472
2014    8       26    15  45    5.49   488.3    4.7      54.410
2014    8       26    15  51    5.48   488.5    4.7      54.349
2014    8       26    15  57    5.48   488.8    4.7      54.288
2014    8       26    16   3    5.48   489.0    4.7      54.226
2014    8       26    16   8    5.48   489.3    4.8      54.163
2014    8       26    16  14    5.47   489.5    4.8      54.101
2014    8       26    16  20    5.47   489.7    4.8      54.040
2014    8       26    16  26    5.47   490.0    4.8      53.981
2014    8       26    16  32    5.47   490.2    4.8      53.922
2014    8       26    16  37    5.47   490.5    4.9      53.865
2014    8       26    16  43    5.47   490.7    4.9      53.808
2014    8       26    16  49    5.47   491.0    4.9      53.754
2014    8       26    16  55    5.47   491.2    4.9      53.701
2014    8       26    17   1    5.46   491.5    5.0      53.649
2014    8       26    17   6    5.46   491.7    5.0      53.597
2014    8       26    17  12    5.46   491.9    5.0      53.546
2014    8       26    17  18    5.46   492.2    5.1      53.496
2014    8       26    17  24    5.46   492.4    5.1      53.448
2014    8       26    17  30    5.46   492.6    5.1      53.402
2014    8       26    17  35    5.46   492.8    5.1      53.357
2014    8       26    17  41    5.46   493.0    5.2      53.315
2014    8       26    17  47    5.46   493.3    5.2      53.274
2014    8       26    17  53    5.46   493.5    5.2      53.236
2014    8       26    17  59    5.47   493.7    5.3      53.200
2014    8       26    18   4    5.47   493.9    5.3      53.167
2014    8       26    18  10    5.47   494.1    5.3      53.137
2014    8       26    18  16    5.47   494.3    5.4      53.109
2014    8       26    18  22    5.47   494.4    5.4      53.083
2014    8       26    18  28    5.47   494.6    5.4      53.061
2014    8       26    18  33    5.48   494.8    5.5      53.042
2014    8       26    18  39    5.48   495.0    5.5      53.027
2014    8       26    18  45    5.48   495.1    5.5      53.012
2014    8       26    18  51    5.48   495.3    5.6      52.999
2014    8       26    18  57    5.49   495.5    5.6      52.992
2014    8       26    19   2    5.49   495.7    5.7      52.989
2014    8       26    19   8    5.49   495.8    5.7      52.989
2014    8       26    19  14    5.50   496.0    5.7      52.991
2014    8       26    19  20    5.50   496.2    5.8      52.996
2014    8       26    19  26    5.51   496.4    5.8      53.005
2014    8       26    19  31    5.51   496.6    5.8      53.016
2014    8       26    19  37    5.52   496.8    5.9      53.027
2014    8       26    19  43    5.52   496.9    5.9      53.039
2014    8       26    19  49    5.53   497.1    5.9      53.051
2014    8       26    19  55    5.53   497.3    6.0      53.064
2014    8       26    20   0    5.54   497.5    6.0      53.078
2014    8       26    20   6    5.55   497.7    6.0      53.093
2014    8       26    20  12    5.55   497.9    6.1      53.110
2014    8       26    20  18    5.56   498.1    6.1      53.129
2014    8       26    20  24    5.57   498.4    6.1      53.149
2014    8       26    20  29    5.58   498.6    6.1      53.171
2014    8       26    20  35    5.58   498.8    6.2      53.197
2014    8       26    20  41    5.59   499.0    6.2      53.224
2014    8       26    20  47    5.60   499.2    6.2      53.256
2014    8       26    20  53    5.61   499.4    6.2      53.291
2014    8       26    20  58    5.62   499.6    6.3      53.330
2014    8       26    21   4    5.63   499.9    6.3      53.372
2014    8       26    21  10    5.64   500.1    6.3      53.418
2014    8       26    21  16    5.64   500.3    6.3      53.468
2014    8       26    21  22    5.65   500.5    6.4      53.522
2014    8       26    21  27    5.66   500.8    6.4      53.579
2014    8       26    21  33    5.67   501.0    6.4      53.639
2014    8       26    21  39    5.68   501.2    6.4      53.702
2014    8       26    21  45    5.69   501.5    6.4      53.766
2014    8       26    21  51    5.70   501.7    6.4      53.831
2014    8       26    21  56    5.71   501.9    6.5      53.896
2014    8       26    22   2    5.72   502.2    6.5      53.960
2014    8       26    22   8    5.73   502.4    6.5      54.023
2014    8       26    22  14    5.74   502.6    6.5      54.085
2014    8       26    22  20    5.75   502.8    6.5      54.146
2014    8       26    22  25    5.76   503.1    6.5      54.206
2014    8       26    22  31    5.77   503.3    6.6      54.264
2014    8       26    22  37    5.78   503.5    6.6      54.321
2014    8       26    22  43    5.79   503.7    6.6      54.375
2014    8       26    22  49    5.80   504.0    6.6      54.429
2014    8       26    22  54    5.81   504.2    6.6      54.480
2014    8       26    23   0    5.82   504.4    6.6      54.531
2014    8       26    23   6    5.83   504.6    6.6      54.580
2014    8       26    23  12    5.84   504.9    6.7      54.627
2014    8       26    23  18    5.85   505.1    6.7      54.674
2014    8       26    23  23    5.86   505.3    6.7      54.720
2014    8       26    23  29    5.87   505.5    6.7      54.765
2014    8       26    23  35    5.88   505.7    6.7      54.809
2014    8       26    23  41    5.89   505.9    6.7      54.853
2014    8       26    23  47    5.90   506.2    6.7      54.896
2014    8       26    23  52    5.91   506.4    6.7      54.940
2014    8       26    23  58    5.92   506.6    6.7      54.983
2014    8       27     0   4    5.93   506.8    6.8      55.026
2014    8       27     0  10    5.94   507.0    6.8      55.071
2014    8       27     0  16    5.95   507.2    6.8      55.115
2014    8       27     0  21    5.96   507.4    6.8      55.160
2014    8       27     0  27    5.97   507.6    6.8      55.206
2014    8       27     0  33    5.98   507.8    6.8      55.253
2014    8       27     0  39    5.99   508.0    6.8      55.303
2014    8       27     0  45    6.00   508.2    6.8      55.354
2014    8       27     0  50    6.01   508.4    6.8      55.405
2014    8       27     0  56    6.02   508.6    6.8      55.458
2014    8       27     1   2    6.03   508.8    6.9      55.515
2014    8       27     1   8    6.04   509.0    6.9      55.576
2014    8       27     1  14    6.05   509.2    6.9      55.645
2014    8       27     1  19    6.06   509.4    6.9      55.721
2014    8       27     1  25    6.07   509.6    6.9      55.811
2014    8       27     1  31    6.08   509.9    6.9      55.912
2014    8       27     1  37    6.10   510.1    6.9      56.023
2014    8       27     1  43    6.11   510.4    6.9      56.141
2014    8       27     1  48    6.12   510.6    6.9      56.264
2014    8       27     1  54    6.13   510.9    7.0      56.389
2014    8       27     2   0    6.14   511.2    7.0      56.512
2014    8       27     2   6    6.15   511.4    7.0      56.633
2014    8       27     2  12    6.16   511.7    7.0      56.751
2014    8       27     2  17    6.17   512.0    7.0      56.865
2014    8       27     2  23    6.18   512.3    7.0      56.977
2014    8       27     2  29    6.19   512.5    7.0      57.086
2014    8       27     2  35    6.19   512.8    7.0      57.190
2014    8       27     2  41    6.20   513.1    7.0      57.291
2014    8       27     2  46    6.21   513.4    7.0      57.388
2014    8       27     2  52    6.22   513.7    7.0      57.481
2014    8       27     2  58    6.23   514.0    7.0      57.571
2014    8       27     3   4    6.24   514.3    7.0      57.657
2014    8       27     3  10    6.25   514.6    7.0      57.740
2014    8       27     3  15    6.26   514.9    7.0      57.820
2014    8       27     3  21    6.26   515.2    7.0      57.898
2014    8       27     3  27    6.27   515.4    7.0      57.972
2014    8       27     3  33    6.28   515.7    7.0      58.043
2014    8       27     3  39    6.29   516.0    7.0      58.112
2014    8       27     3  44    6.30   516.3    7.0      58.178
2014    8       27     3  50    6.30   516.6    7.0      58.242
2014    8       27     3  56    6.31   516.9    6.9      58.304
2014    8       27     4   2    6.32   517.2    6.9      58.364
2014    8       27     4   8    6.33   517.5    6.9      58.421
2014    8       27     4  13    6.33   517.8    6.9      58.477
2014    8       27     4  19    6.34   518.1    6.9      58.532
2014    8       27     4  25    6.35   518.4    6.9      58.584
2014    8       27     4  31    6.36   518.7    6.9      58.636
2014    8       27     4  37    6.36   519.0    6.9      58.685
2014    8       27     4  42    6.37   519.3    6.9      58.734
2014    8       27     4  48    6.38   519.6    6.9      58.781
2014    8       27     4  54    6.39   519.9    6.9      58.827
2014    8       27     5   0    6.39   520.2    6.9      58.873
2014    8       27     5   6    6.40   520.5    6.9      58.916
2014    8       27     5  11    6.41   520.8    6.8      58.959
2014    8       27     5  17    6.41   521.1    6.8      59.001
2014    8       27     5  23    6.42   521.4    6.8      59.041
2014    8       27     5  29    6.43   521.7    6.8      59.081
2014    8       27     5  35    6.43   522.0    6.8      59.121
2014    8       27     5  40    6.44   522.4    6.8      59.159
2014    8       27     5  46    6.45   522.7    6.8      59.196
2014    8       27     5  52    6.45   523.0    6.8      59.234
2014    8       27     5  58    6.46   523.3    6.8      59.270
2014    8       27     6   4    6.46   523.7    6.8      59.306
2014    8       27     6   9    6.47   524.0    6.7      59.342
2014    8       27     6  15    6.47   524.4    6.7      59.378
2014    8       27     6  21    6.48   524.8    6.7      59.412
2014    8       27     6  27    6.49   525.2    6.7      59.444
2014    8       27     6  33    6.49   525.5    6.7      59.474
2014    8       27     6  38    6.50   525.9    6.7      59.503
2014    8       27     6  44    6.50   526.4    6.7      59.532
2014    8       27     6  50    6.50   526.8    6.7      59.556
2014    8       27     6  56    6.51   527.1    6.6      59.574
2014    8       27     7   2    6.51   527.5    6.6      59.589
2014    8       27     7   7    6.52   527.9    6.6      59.602
2014    8       27     7  13    6.52   528.3    6.6      59.612
2014    8       27     7  19    6.53   528.6    6.6      59.620
2014    8       27     7  25    6.53   528.9    6.6      59.625
2014    8       27     7  31    6.53   529.3    6.6      59.629
2014    8       27     7  36    6.54   529.6    6.5      59.634
2014    8       27     7  42    6.54   529.9    6.5      59.641
2014    8       27     7  48    6.54   530.2    6.5      59.648
2014    8       27     7  54    6.55   530.5    6.5      59.655
2014    8       27     8   0    6.55   530.8    6.5      59.662
2014    8       27     8   5    6.55   531.1    6.5      59.670
2014    8       27     8  11    6.56   531.4    6.5      59.678
2014    8       27     8  17    6.56   531.7    6.4      59.686
2014    8       27     8  23    6.56   532.0    6.4      59.695
2014    8       27     8  29    6.56   532.3    6.4      59.703
2014    8       27     8  34    6.57   532.6    6.4      59.714
2014    8       27     8  40    6.57   532.9    6.4      59.725
2014    8       27     8  46    6.57   533.2    6.4      59.736
2014    8       27     8  52    6.57   533.6    6.4      59.747
2014    8       27     8  58    6.58   533.9    6.4      59.757
2014    8       27     9   3    6.58   534.2    6.3      59.766
2014    8       27     9   9    6.58   534.5    6.3      59.775
2014    8       27     9  15    6.58   534.9    6.3      59.783
2014    8       27     9  21    6.58   535.2    6.3      59.789
2014    8       27     9  27    6.59   535.5    6.3      59.793
2014    8       27     9  32    6.59   535.8    6.3      59.797
2014    8       27     9  38    6.59   536.1    6.3      59.800
2014    8       27     9  44    6.59   536.4    6.3      59.804
2014    8       27     9  50    6.59   536.8    6.2      59.807
2014    8       27     9  56    6.59   537.1    6.2      59.809
2014    8       27    10   1    6.59   537.4    6.2      59.810
2014    8       27    10   7    6.59   537.8    6.2      59.810
2014    8       27    10  13    6.59   538.1    6.2      59.808
2014    8       27    10  19    6.59   538.4    6.2      59.806
2014    8       27    10  25    6.59   538.7    6.2      59.802
2014    8       27    10  30    6.59   539.1    6.2      59.798
2014    8       27    10  36    6.59   539.4    6.1      59.792
2014    8       27    10  42    6.59   539.7    6.1      59.786
2014    8       27    10  48    6.59   540.0    6.1      59.782
2014    8       27    10  54    6.59   540.4    6.1      59.780
2014    8       27    10  59    6.58   540.7    6.1      59.778
2014    8       27    11   5    6.58   541.1    6.1      59.777
2014    8       27    11  11    6.58   541.5    6.1      59.779
2014    8       27    11  17    6.58   542.0    6.0      59.785
2014    8       27    11  23    6.58   542.4    6.0      59.794
2014    8       27    11  28    6.57   542.9    6.0      59.799
2014    8       27    11  34    6.57   543.4    6.0      59.800
2014    8       27    11  40    6.57   543.9    6.0      59.798
2014    8       27    11  46    6.56   544.4    6.0      59.796
2014    8       27    11  52    6.56   544.9    5.9      59.784
2014    8       27    11  57    6.56   545.4    5.9      59.758
2014    8       27    12   3    6.55   545.8    5.9      59.721
2014    8       27    12   9    6.55   546.3    5.9      59.678
2014    8       27    12  15    6.54   546.7    5.9      59.630
2014    8       27    12  21    6.54   547.0    5.8      59.578
2014    8       27    12  26    6.53   547.4    5.8      59.520
2014    8       27    12  32    6.53   547.7    5.8      59.463
2014    8       27    12  38    6.52   548.0    5.8      59.410
2014    8       27    12  44    6.52   548.3    5.8      59.361
2014    8       27    12  50    6.51   548.6    5.7      59.316
2014    8       27    12  55    6.51   549.0    5.7      59.276
2014    8       27    13   1    6.50   549.3    5.7      59.239
2014    8       27    13   7    6.50   549.6    5.7      59.203
2014    8       27    13  13    6.50   549.8    5.7      59.171
2014    8       27    13  19    6.49   550.1    5.7      59.141
2014    8       27    13  24    6.49   550.4    5.7      59.113
2014    8       27    13  30    6.48   550.7    5.6      59.088
2014    8       27    13  36    6.48   550.9    5.6      59.064
2014    8       27    13  42    6.47   551.2    5.6      59.042
2014    8       27    13  48    6.47   551.5    5.6      59.021
2014    8       27    13  53    6.47   551.7    5.6      59.002
2014    8       27    13  59    6.46   552.0    5.6      58.986
2014    8       27    14   5    6.46   552.3    5.6      58.972
2014    8       27    14  11    6.45   552.6    5.6      58.959
2014    8       27    14  17    6.45   553.0    5.5      58.946
2014    8       27    14  22    6.44   553.3    5.5      58.934
2014    8       27    14  28    6.44   553.6    5.5      58.921
2014    8       27    14  34    6.44   554.0    5.5      58.909
2014    8       27    14  40    6.43   554.3    5.5      58.894
2014    8       27    14  46    6.43   554.6    5.5      58.876
2014    8       27    14  51    6.42   554.9    5.5      58.857
2014    8       27    14  57    6.42   555.2    5.5      58.836
2014    8       27    15   3    6.41   555.5    5.5      58.815
2014    8       27    15   9    6.41   555.8    5.4      58.793
2014    8       27    15  15    6.40   556.1    5.4      58.772
2014    8       27    15  20    6.40   556.4    5.4      58.752
2014    8       27    15  26    6.39   556.7    5.4      58.733
2014    8       27    15  32    6.38   557.0    5.4      58.717
2014    8       27    15  38    6.38   557.3    5.4      58.702
2014    8       27    15  44    6.37   557.6    5.4      58.686
2014    8       27    15  49    6.37   558.0    5.4      58.672
2014    8       27    15  55    6.36   558.3    5.4      58.658
2014    8       27    16   1    6.36   558.7    5.3      58.644
2014    8       27    16   7    6.35   559.0    5.3      58.628
2014    8       27    16  13    6.34   559.3    5.3      58.611
2014    8       27    16  18    6.34   559.7    5.3      58.593
2014    8       27    16  24    6.33   559.9    5.3      58.574
2014    8       27    16  30    6.32   560.2    5.3      58.555
2014    8       27    16  36    6.32   560.5    5.3      58.536
2014    8       27    16  42    6.31   560.8    5.3      58.517
2014    8       27    16  47    6.31   561.1    5.3      58.498
2014    8       27    16  53    6.30   561.3    5.2      58.479
2014    8       27    16  59    6.29   561.6    5.2      58.460
2014    8       27    17   5    6.29   561.9    5.2      58.443
2014    8       27    17  11    6.28   562.2    5.2      58.429
2014    8       27    17  16    6.28   562.5    5.2      58.416
2014    8       27    17  22    6.27   562.9    5.2      58.404
2014    8       27    17  28    6.26   563.2    5.2      58.394
2014    8       27    17  34    6.26   563.5    5.2      58.384
2014    8       27    17  40    6.25   563.8    5.2      58.375
2014    8       27    17  45    6.25   564.1    5.2      58.363
2014    8       27    17  51    6.24   564.4    5.1      58.351
2014    8       27    17  57    6.24   564.7    5.1      58.338
2014    8       27    18   3    6.23   565.0    5.1      58.327
2014    8       27    18   9    6.23   565.3    5.1      58.317
2014    8       27    18  14    6.22   565.6    5.1      58.307
2014    8       27    18  20    6.22   565.9    5.1      58.298
2014    8       27    18  26    6.21   566.3    5.1      58.290
2014    8       27    18  32    6.21   566.6    5.1      58.283
2014    8       27    18  38    6.20   566.9    5.1      58.276
2014    8       27    18  43    6.20   567.2    5.1      58.269
2014    8       27    18  49    6.19   567.5    5.0      58.261
2014    8       27    18  55    6.19   567.8    5.0      58.255
2014    8       27    19   1    6.18   568.1    5.0      58.248
2014    8       27    19   7    6.18   568.4    5.0      58.242
2014    8       27    19  12    6.17   568.7    5.0      58.236
2014    8       27    19  18    6.17   569.0    5.0      58.231
2014    8       27    19  24    6.17   569.3    5.0      58.228
2014    8       27    19  30    6.16   569.7    5.0      58.226
2014    8       27    19  36    6.16   570.0    5.0      58.225
2014    8       27    19  41    6.15   570.3    5.0      58.225
2014    8       27    19  47    6.15   570.6    5.0      58.225
2014    8       27    19  53    6.14   571.0    4.9      58.225
2014    8       27    19  59    6.14   571.3    4.9      58.223
2014    8       27    20   5    6.14   571.6    4.9      58.221
2014    8       27    20  10    6.13   571.9    4.9      58.220
2014    8       27    20  16    6.13   572.2    4.9      58.219
2014    8       27    20  22    6.12   572.5    4.9      58.219
2014    8       27    20  28    6.12   572.8    4.9      58.221
2014    8       27    20  34    6.11   573.1    4.9      58.224
2014    8       27    20  39    6.11   573.5    4.9      58.229
2014    8       27    20  45    6.11   573.8    4.9      58.233
2014    8       27    20  51    6.10   574.1    4.9      58.237
2014    8       27    20  57    6.10   574.5    4.8      58.239
2014    8       27    21   3    6.09   574.8    4.8      58.241
2014    8       27    21   8    6.09   575.1    4.8      58.241
2014    8       27    21  14    6.08   575.4    4.8      58.241
2014    8       27    21  20    6.08   575.7    4.8      58.240
2014    8       27    21  26    6.08   576.0    4.8      58.240
2014    8       27    21  32    6.07   576.3    4.8      58.241
2014    8       27    21  37    6.07   576.6    4.8      58.242
2014    8       27    21  43    6.06   576.9    4.8      58.243
2014    8       27    21  49    6.06   577.2    4.8      58.246
2014    8       27    21  55    6.05   577.5    4.8      58.249
2014    8       27    22   1    6.05   577.8    4.8      58.253
2014    8       27    22   6    6.05   578.2    4.7      58.257
2014    8       27    22  12    6.04   578.5    4.7      58.261
2014    8       27    22  18    6.04   578.8    4.7      58.266
2014    8       27    22  24    6.03   579.1    4.7      58.271
2014    8       27    22  30    6.03   579.4    4.7      58.276
2014    8       27    22  35    6.03   579.7    4.7      58.282
2014    8       27    22  41    6.02   580.0    4.7      58.287
2014    8       27    22  47    6.02   580.3    4.7      58.293
2014    8       27    22  53    6.01   580.6    4.7      58.300
2014    8       27    22  59    6.01   580.9    4.7      58.308
2014    8       27    23   4    6.01   581.2    4.7      58.317
2014    8       27    23  10    6.00   581.6    4.7      58.326
2014    8       27    23  16    6.00   581.9    4.6      58.335
2014    8       27    23  22    6.00   582.2    4.6      58.345
2014    8       27    23  28    5.99   582.5    4.6      58.354
2014    8       27    23  33    5.99   582.8    4.6      58.363
2014    8       27    23  39    5.98   583.1    4.6      58.373
2014    8       27    23  45    5.98   583.4    4.6      58.382
2014    8       27    23  51    5.98   583.7    4.6      58.392
2014    8       27    23  57    5.97   584.0    4.6      58.402
2014    8       28     0   2    5.97   584.3    4.6      58.413
2014    8       28     0   8    5.97   584.6    4.6      58.423
2014    8       28     0  14    5.96   584.9    4.6      58.435
2014    8       28     0  20    5.96   585.1    4.6      58.447
2014    8       28     0  26    5.96   585.4    4.6      58.460
2014    8       28     0  31    5.95   585.7    4.6      58.473
2014    8       28     0  37    5.95   586.0    4.6      58.488
2014    8       28     0  43    5.95   586.3    4.5      58.503
2014    8       28     0  49    5.94   586.6    4.5      58.520
2014    8       28     0  55    5.94   586.8    4.5      58.537
2014    8       28     1   0    5.94   587.1    4.5      58.555
2014    8       28     1   6    5.94   587.4    4.5      58.572
2014    8       28     1  12    5.93   587.7    4.5      58.591
2014    8       28     1  18    5.93   588.0    4.5      58.608
2014    8       28     1  24    5.93   588.3    4.5      58.626
2014    8       28     1  29    5.92   588.6    4.5      58.643
2014    8       28     1  35    5.92   588.9    4.5      58.659
2014    8       28     1  41    5.92   589.2    4.5      58.675
2014    8       28     1  47    5.91   589.4    4.5      58.690
2014    8       28     1  53    5.91   589.7    4.5      58.705
2014    8       28     1  58    5.91   590.0    4.5      58.719
2014    8       28     2   4    5.90   590.3    4.5      58.733
2014    8       28     2  10    5.90   590.6    4.5      58.745
2014    8       28     2  16    5.90   590.9    4.4      58.758
2014    8       28     2  22    5.90   591.2    4.4      58.770
2014    8       28     2  27    5.89   591.5    4.4      58.782
2014    8       28     2  33    5.89   591.8    4.4      58.794
2014    8       28     2  39    5.89   592.0    4.4      58.805
2014    8       28     2  45    5.88   592.3    4.4      58.816
2014    8       28     2  51    5.88   592.6    4.4      58.828
2014    8       28     2  56    5.88   592.9    4.4      58.838
2014    8       28     3   2    5.87   593.2    4.4      58.849
2014    8       28     3   8    5.87   593.5    4.4      58.860
2014    8       28     3  14    5.87   593.8    4.4      58.872
2014    8       28     3  20    5.87   594.0    4.4      58.883
2014    8       28     3  25    5.86   594.3    4.4      58.895
2014    8       28     3  31    5.86   594.6    4.4      58.906
2014    8       28     3  37    5.86   594.9    4.4      58.919
2014    8       28     3  43    5.85   595.2    4.3      58.931
2014    8       28     3  49    5.85   595.5    4.3      58.944
2014    8       28     3  54    5.85   595.7    4.3      58.957
2014    8       28     4   0    5.84   596.0    4.3      58.971
2014    8       28     4   6    5.84   596.3    4.3      58.985
2014    8       28     4  12    5.84   596.6    4.3      58.999
2014    8       28     4  18    5.84   596.9    4.3      59.014
2014    8       28     4  23    5.83   597.2    4.3      59.030
2014    8       28     4  29    5.83   597.5    4.3      59.045
2014    8       28     4  35    5.83   597.7    4.3      59.062
2014    8       28     4  41    5.82   598.0    4.3      59.078
2014    8       28     4  47    5.82   598.3    4.3      59.095
2014    8       28     4  52    5.82   598.6    4.3      59.112
2014    8       28     4  58    5.82   598.9    4.3      59.129
2014    8       28     5   4    5.81   599.2    4.3      59.147
2014    8       28     5  10    5.81   599.4    4.3      59.164
2014    8       28     5  16    5.81   599.7    4.3      59.183
2014    8       28     5  21    5.81   600.0    4.2      59.201
2014    8       28     5  27    5.80   600.3    4.2      59.220
2014    8       28     5  33    5.80   600.6    4.2      59.239
2014    8       28     5  39    5.80   600.8    4.2      59.258
2014    8       28     5  45    5.79   601.1    4.2      59.277
2014    8       28     5  50    5.79   601.4    4.2      59.296
2014    8       28     5  56    5.79   601.7    4.2      59.316
2014    8       28     6   2    5.79   601.9    4.2      59.335
2014    8       28     6   8    5.78   602.2    4.2      59.355
2014    8       28     6  14    5.78   602.5    4.2      59.374
2014    8       28     6  19    5.78   602.8    4.2      59.394
2014    8       28     6  25    5.78   603.0    4.2      59.415
2014    8       28     6  31    5.77   603.3    4.2      59.435
2014    8       28     6  37    5.77   603.6    4.2      59.456
2014    8       28     6  43    5.77   603.8    4.2      59.477
2014    8       28     6  48    5.77   604.1    4.2      59.498
2014    8       28     6  54    5.76   604.4    4.2      59.520
2014    8       28     7   0    5.76   604.7    4.2      59.542
2014    8       28     7   6    5.76   604.9    4.2      59.564
2014    8       28     7  12    5.76   605.2    4.1      59.587
2014    8       28     7  17    5.75   605.5    4.1      59.610
2014    8       28     7  23    5.75   605.7    4.1      59.633
2014    8       28     7  29    5.75   606.0    4.1      59.656
2014    8       28     7  35    5.75   606.3    4.1      59.679
2014    8       28     7  41    5.74   606.6    4.1      59.701
2014    8       28     7  46    5.74   606.8    4.1      59.724
2014    8       28     7  52    5.74   607.1    4.1      59.745
2014    8       28     7  58    5.74   607.4    4.1      59.767
2014    8       28     8   4    5.73   607.6    4.1      59.788
2014    8       28     8  10    5.73   607.9    4.1      59.810
2014    8       28     8  15    5.73   608.2    4.1      59.831
2014    8       28     8  21    5.73   608.5    4.1      59.851
2014    8       28     8  27    5.72   608.7    4.1      59.872
2014    8       28     8  33    5.72   609.0    4.1      59.892
2014    8       28     8  39    5.72   609.3    4.1      59.912
2014    8       28     8  44    5.72   609.5    4.1      59.932
2014    8       28     8  50    5.71   609.8    4.1      59.951
2014    8       28     8  56    5.71   610.1    4.1      59.970
2014    8       28     9   2    5.71   610.3    4.1      59.989
2014    8       28     9   8    5.71   610.6    4.0      60.008
2014    8       28     9  13    5.71   610.9    4.0      60.026
2014    8       28     9  19    5.70   611.1    4.0      60.045
2014    8       28     9  25    5.70   611.4    4.0      60.063
2014    8       28     9  31    5.70   611.6    4.0      60.081
2014    8       28     9  37    5.70   611.9    4.0      60.099
2014    8       28     9  42    5.69   612.2    4.0      60.116
2014    8       28     9  48    5.69   612.4    4.0      60.134
2014    8       28     9  54    5.69   612.7    4.0      60.151
2014    8       28    10   0    5.69   613.0    4.0      60.168
2014    8       28    10   6    5.68   613.2    4.0      60.185
2014    8       28    10  11    5.68   613.5    4.0      60.203
2014    8       28    10  17    5.68   613.7    4.0      60.220
2014    8       28    10  23    5.68   614.0    4.0      60.237
2014    8       28    10  29    5.67   614.2    4.0      60.254
2014    8       28    10  35    5.67   614.5    4.0      60.271
2014    8       28    10  40    5.67   614.7    4.0      60.288
2014    8       28    10  46    5.67   615.0    4.0      60.305
2014    8       28    10  52    5.66   615.3    4.0      60.322
2014    8       28    10  58    5.66   615.5    4.0      60.340
2014    8       28    11   4    5.66   615.8    4.0      60.357
2014    8       28    11   9    5.66   616.0    3.9      60.375
2014    8       28    11  15    5.65   616.3    3.9      60.393
2014    8       28    11  21    5.65   616.5    3.9      60.411
2014    8       28    11  27    5.65   616.8    3.9      60.429
2014    8       28    11  33    5.65   617.0    3.9      60.447
2014    8       28    11  38    5.65   617.3    3.9      60.466
2014    8       28    11  44    5.64   617.5    3.9      60.485
2014    8       28    11  50    5.64   617.7    3.9      60.504
2014    8       28    11  56    5.64   618.0    3.9      60.524
2014    8       28    12   2    5.64   618.2    3.9      60.544
2014    8       28    12   7    5.63   618.5    3.9      60.563
2014    8       28    12  13    5.63   618.7    3.9      60.584
2014    8       28    12  19    5.63   619.0    3.9      60.604
2014    8       28    12  25    5.63   619.2    3.9      60.625
2014    8       28    12  31    5.62   619.5    3.9      60.646
2014    8       28    12  36    5.62   619.7    3.9      60.667
2014    8       28    12  42    5.62   619.9    3.9      60.688
2014    8       28    12  48    5.62   620.2    3.9      60.709
2014    8       28    12  54    5.62   620.4    3.9      60.731
2014    8       28    13   0    5.61   620.7    3.9      60.753
2014    8       28    13   5    5.61   620.9    3.9      60.774
2014    8       28    13  11    5.61   621.2    3.9      60.796
2014    8       28    13  17    5.61   621.4    3.9      60.818
2014    8       28    13  23    5.60   621.6    3.8      60.840
2014    8       28    13  29    5.60   621.9    3.8      60.861
2014    8       28    13  34    5.60   622.1    3.8      60.883
2014    8       28    13  40    5.60   622.4    3.8      60.905
2014    8       28    13  46    5.60   622.6    3.8      60.926
2014    8       28    13  52    5.59   622.8    3.8      60.948
2014    8       28    13  58    5.59   623.1    3.8      60.969
2014    8       28    14   3    5.59   623.3    3.8      60.990
2014    8       28    14   9    5.59   623.6    3.8      61.010
2014    8       28    14  15    5.59   623.8    3.8      61.031
2014    8       28    14  21    5.58   624.0    3.8      61.051
2014    8       28    14  27    5.58   624.3    3.8      61.071
2014    8       28    14  32    5.58   624.5    3.8      61.090
2014    8       28    14  38    5.58   624.7    3.8      61.109
2014    8       28    14  44    5.58   625.0    3.8      61.129
2014    8       28    14  50    5.57   625.2    3.8      61.148
2014    8       28    14  56    5.57   625.4    3.8      61.166
2014    8       28    15   1    5.57   625.7    3.8      61.185
2014    8       28    15   7    5.57   625.9    3.8      61.204
2014    8       28    15  13    5.56   626.1    3.8      61.222
2014    8       28    15  19    5.56   626.4    3.8      61.241
2014    8       28    15  25    5.56   626.6    3.8      61.260
2014    8       28    15  30    5.56   626.8    3.8      61.278
2014    8       28    15  36    5.56   627.1    3.8      61.297
2014    8       28    15  42    5.55   627.3    3.8      61.316
2014    8       28    15  48    5.55   627.5    3.7      61.335
2014    8       28    15  54    5.55   627.7    3.7      61.354
2014    8       28    15  59    5.55   628.0    3.7      61.374
2014    8       28    16   5    5.55   628.2    3.7      61.393
2014    8       28    16  11    5.54   628.4    3.7      61.413
2014    8       28    16  17    5.54   628.6    3.7      61.433
2014    8       28    16  23    5.54   628.9    3.7      61.453
2014    8       28    16  28    5.54   629.1    3.7      61.474
2014    8       28    16  34    5.54   629.3    3.7      61.494
2014    8       28    16  40    5.53   629.5    3.7      61.515
2014    8       28    16  46    5.53   629.7    3.7      61.536
2014    8       28    16  52    5.53   630.0    3.7      61.557
2014    8       28    16  57    5.53   630.2    3.7      61.578
2014    8       28    17   3    5.53   630.4    3.7      61.599
2014    8       28    17   9    5.52   630.6    3.7      61.620
2014    8       28    17  15    5.52   630.8    3.7      61.641
2014    8       28    17  21    5.52   631.0    3.7      61.662
2014    8       28    17  26    5.52   631.3    3.7      61.682
2014    8       28    17  32    5.52   631.5    3.7      61.703
2014    8       28    17  38    5.51   631.7    3.7      61.724
2014    8       28    17  44    5.51   631.9    3.7      61.744
2014    8       28    17  50    5.51   632.1    3.7      61.764
2014    8       28    17  55    5.51   632.3    3.7      61.784
2014    8       28    18   1    5.51   632.6    3.7      61.804
2014    8       28    18   7    5.50   632.8    3.7      61.823
2014    8       28    18  13    5.50   633.0    3.7      61.842
2014    8       28    18  19    5.50   633.2    3.7      61.861
2014    8       28    18  24    5.50   633.4    3.7      61.880
2014    8       28    18  30    5.50   633.6    3.6      61.898
2014    8       28    18  36    5.49   633.8    3.6      61.916
2014    8       28    18  42    5.49   634.0    3.6      61.933
2014    8       28    18  48    5.49   634.2    3.6      61.951
2014    8       28    18  53    5.49   634.4    3.6      61.968
2014    8       28    18  59    5.49   634.6    3.6      61.985
2014    8       28    19   5    5.48   634.9    3.6      62.002
2014    8       28    19  11    5.48   635.1    3.6      62.018
2014    8       28    19  17    5.48   635.3    3.6      62.035
2014    8       28    19  22    5.48   635.5    3.6      62.051
2014    8       28    19  28    5.48   635.7    3.6      62.068
2014    8       28    19  34    5.47   635.9    3.6      62.084
2014    8       28    19  40    5.47   636.1    3.6      62.100
2014    8       28    19  46    5.47   636.3    3.6      62.117
2014    8       28    19  51    5.47   636.5    3.6      62.134
2014    8       28    19  57    5.47   636.7    3.6      62.150
2014    8       28    20   3    5.46   636.9    3.6      62.167
2014    8       28    20   9    5.46   637.1    3.6      62.184
2014    8       28    20  15    5.46   637.3    3.6      62.202
2014    8       28    20  20    5.46   637.5    3.6      62.219
2014    8       28    20  26    5.46   637.7    3.6      62.237
2014    8       28    20  32    5.45   637.9    3.6      62.254
2014    8       28    20  38    5.45   638.1    3.6      62.272
2014    8       28    20  44    5.45   638.3    3.6      62.291
2014    8       28    20  49    5.45   638.4    3.6      62.309
2014    8       28    20  55    5.45   638.6    3.6      62.327
2014    8       28    21   1    5.45   638.8    3.6      62.346
2014    8       28    21   7    5.44   639.0    3.6      62.365
2014    8       28    21  13    5.44   639.2    3.6      62.384
2014    8       28    21  18    5.44   639.4    3.6      62.403
2014    8       28    21  24    5.44   639.6    3.6      62.422
2014    8       28    21  30    5.44   639.8    3.5      62.441
2014    8       28    21  36    5.43   640.0    3.5      62.461
2014    8       28    21  42    5.43   640.2    3.5      62.480
2014    8       28    21  47    5.43   640.4    3.5      62.499
2014    8       28    21  53    5.43   640.6    3.5      62.519
2014    8       28    21  59    5.43   640.8    3.5      62.538
2014    8       28    22   5    5.43   641.0    3.5      62.558
2014    8       28    22  11    5.42   641.1    3.5      62.577
2014    8       28    22  16    5.42   641.3    3.5      62.597
2014    8       28    22  22    5.42   641.5    3.5      62.616
2014    8       28    22  28    5.42   641.7    3.5      62.636
2014    8       28    22  34    5.42   641.9    3.5      62.655
2014    8       28    22  40    5.41   642.1    3.5      62.675
2014    8       28    22  45    5.41   642.3    3.5      62.694
2014    8       28    22  51    5.41   642.5    3.5      62.714
2014    8       28    22  57    5.41   642.6    3.5      62.733
2014    8       28    23   3    5.41   642.8    3.5      62.753
2014    8       28    23   9    5.41   643.0    3.5      62.772
2014    8       28    23  14    5.40   643.2    3.5      62.792
2014    8       28    23  20    5.40   643.4    3.5      62.811
2014    8       28    23  26    5.40   643.6    3.5      62.830
2014    8       28    23  32    5.40   643.7    3.5      62.850
2014    8       28    23  38    5.40   643.9    3.5      62.869
2014    8       28    23  43    5.39   644.1    3.5      62.888
2014    8       28    23  49    5.39   644.3    3.5      62.907
2014    8       28    23  55    5.39   644.5    3.5      62.925
2014    8       29     0   1    5.39   644.6    3.5      62.944
2014    8       29     0   6    5.39   644.8    3.5      62.962
2014    8       29     0  12    5.39   645.0    3.5      62.980
2014    8       29     0  18    5.38   645.2    3.5      62.998
2014    8       29     0  24    5.38   645.3    3.5      63.016
2014    8       29     0  30    5.38   645.5    3.5      63.033
2014    8       29     0  36    5.38   645.7    3.5      63.050
2014    8       29     0  41    5.38   645.9    3.5      63.067
2014    8       29     0  47    5.37   646.0    3.5      63.083
2014    8       29     0  53    5.37   646.2    3.4      63.099
2014    8       29     0  59    5.37   646.4    3.4      63.115
2014    8       29     1   5    5.37   646.6    3.4      63.130
2014    8       29     1  10    5.37   646.7    3.4      63.145
2014    8       29     1  16    5.37   646.9    3.4      63.160
2014    8       29     1  22    5.36   647.1    3.4      63.174
2014    8       29     1  28    5.36   647.2    3.4      63.188
2014    8       29     1  34    5.36   647.4    3.4      63.202
2014    8       29     1  39    5.36   647.6    3.4      63.215
2014    8       29     1  45    5.36   647.7    3.4      63.228
2014    8       29     1  51    5.35   647.9    3.4      63.240
2014    8       29     1  57    5.35   648.1    3.4      63.253
2014    8       29     2   3    5.35   648.2    3.4      63.265
2014    8       29     2   8    5.35   648.4    3.4      63.277
2014    8       29     2  14    5.35   648.6    3.4      63.289
2014    8       29     2  20    5.35   648.7    3.4      63.301
2014    8       29     2  26    5.34   648.9    3.4      63.313
2014    8       29     2  32    5.34   649.0    3.4      63.325
2014    8       29     2  37    5.34   649.2    3.4      63.336
2014    8       29     2  43    5.34   649.4    3.4      63.348
2014    8       29     2  49    5.34   649.5    3.4      63.360
2014    8       29     2  55    5.34   649.7    3.4      63.371
2014    8       29     3   1    5.33   649.8    3.4      63.383
2014    8       29     3   6    5.33   650.0    3.4      63.396
2014    8       29     3  12    5.33   650.1    3.4      63.408
2014    8       29     3  18    5.33   650.3    3.4      63.420
2014    8       29     3  24    5.33   650.4    3.4      63.433
2014    8       29     3  30    5.33   650.6    3.4      63.446
2014    8       29     3  35    5.32   650.8    3.4      63.460
2014    8       29     3  41    5.32   650.9    3.4      63.473
2014    8       29     3  47    5.32   651.1    3.4      63.487
2014    8       29     3  53    5.32   651.2    3.4      63.501
2014    8       29     3  59    5.32   651.4    3.4      63.516
2014    8       29     4   4    5.32   651.5    3.4      63.531
2014    8       29     4  10    5.31   651.7    3.4      63.546
2014    8       29     4  16    5.31   651.8    3.4      63.561
2014    8       29     4  22    5.31   652.0    3.4      63.577
2014    8       29     4  28    5.31   652.1    3.4      63.593
2014    8       29     4  33    5.31   652.3    3.3      63.609
2014    8       29     4  39    5.31   652.4    3.3      63.626
2014    8       29     4  45    5.31   652.6    3.3      63.642
2014    8       29     4  51    5.30   652.7    3.3      63.659
2014    8       29     4  57    5.30   652.9    3.3      63.676
2014    8       29     5   2    5.30   653.0    3.3      63.693
2014    8       29     5   8    5.30   653.1    3.3      63.710
2014    8       29     5  14    5.30   653.3    3.3      63.727
2014    8       29     5  20    5.30   653.4    3.3      63.744
2014    8       29     5  26    5.29   653.6    3.3      63.761
2014    8       29     5  31    5.29   653.7    3.3      63.778
2014    8       29     5  37    5.29   653.9    3.3      63.795
2014    8       29     5  43    5.29   654.0    3.3      63.812
2014    8       29     5  49    5.29   654.2    3.3      63.828
2014    8       29     5  55    5.29   654.3    3.3      63.845
2014    8       29     6   0    5.28   654.5    3.3      63.861
2014    8       29     6   6    5.28   654.6    3.3      63.877
2014    8       29     6  12    5.28   654.8    3.3      63.894
2014    8       29     6  18    5.28   654.9    3.3      63.909
2014    8       29     6  23    5.28   655.0    3.3      63.925
2014    8       29     6  29    5.28   655.2    3.3      63.941
2014    8       29     6  35    5.27   655.3    3.3      63.956
2014    8       29     6  41    5.27   655.5    3.3      63.971
2014    8       29     6  47    5.27   655.6    3.3      63.986
2014    8       29     6  52    5.27   655.8    3.3      64.000
2014    8       29     6  58    5.27   655.9    3.3      64.015
2014    8       29     7   4    5.26   656.0    3.3      64.029
2014    8       29     7  10    5.26   656.2    3.3      64.043
2014    8       29     7  16    5.26   656.3    3.3      64.057
2014    8       29     7  21    5.26   656.4    3.3      64.070
2014    8       29     7  27    5.26   656.6    3.3      64.084
2014    8       29     7  33    5.26   656.7    3.3      64.097
2014    8       29     7  39    5.25   656.9    3.3      64.110
2014    8       29     7  45    5.25   657.0    3.3      64.123
2014    8       29     7  50    5.25   657.1    3.3      64.135
2014    8       29     7  56    5.25   657.3    3.3      64.147
2014    8       29     8   2    5.25   657.4    3.3      64.159
2014    8       29     8   8    5.25   657.5    3.3      64.171
2014    8       29     8  14    5.24   657.6    3.3      64.182
2014    8       29     8  19    5.24   657.8    3.3      64.193
2014    8       29     8  25    5.24   657.9    3.3      64.204
2014    8       29     8  31    5.24   658.0    3.3      64.215
2014    8       29     8  37    5.24   658.2    3.3      64.225
2014    8       29     8  43    5.24   658.3    3.2      64.235
2014    8       29     8  48    5.23   658.4    3.2      64.245
2014    8       29     8  54    5.23   658.5    3.2      64.254
2014    8       29     9   0    5.23   658.7    3.2      64.264
2014    8       29     9   6    5.23   658.8    3.2      64.273
2014    8       29     9  12    5.23   658.9    3.2      64.282
2014    8       29     9  17    5.23   659.0    3.2      64.291
2014    8       29     9  23    5.22   659.2    3.2      64.299
2014    8       29     9  29    5.22   659.3    3.2      64.308
2014    8       29     9  35    5.22   659.4    3.2      64.317
2014    8       29     9  41    5.22   659.5    3.2      64.325
2014    8       29     9  46    5.22   659.7    3.2      64.334
2014    8       29     9  52    5.22   659.8    3.2      64.342
2014    8       29     9  58    5.21   659.9    3.2      64.351
2014    8       29    10   4    5.21   660.0    3.2      64.359
2014    8       29    10  10    5.21   660.1    3.2      64.368
2014    8       29    10  15    5.21   660.3    3.2      64.377
2014    8       29    10  21    5.21   660.4    3.2      64.385
2014    8       29    10  27    5.21   660.5    3.2      64.394
2014    8       29    10  33    5.21   660.6    3.2      64.403
2014    8       29    10  39    5.20   660.7    3.2      64.413
2014    8       29    10  44    5.20   660.9    3.2      64.422
2014    8       29    10  50    5.20   661.0    3.2      64.431
2014    8       29    10  56    5.20   661.1    3.2      64.441
2014    8       29    11   2    5.20   661.2    3.2      64.450
2014    8       29    11   8    5.20   661.3    3.2      64.460
2014    8       29    11  14    5.19   661.4    3.2      64.470
2014    8       29    11  19    5.19   661.6    3.2      64.479
2014    8       29    11  25    5.19   661.7    3.2      64.489
2014    8       29    11  31    5.19   661.8    3.2      64.499
2014    8       29    11  37    5.19   661.9    3.2      64.508
2014    8       29    11  42    5.19   662.0    3.2      64.518
2014    8       29    11  48    5.18   662.1    3.2      64.528
2014    8       29    11  54    5.18   662.2    3.2      64.538
2014    8       29    12   0    5.18   662.3    3.2      64.547
2014    8       29    12   6    5.18   662.5    3.2      64.557
2014    8       29    12  11    5.18   662.6    3.2      64.566
2014    8       29    12  17    5.18   662.7    3.2      64.576
2014    8       29    12  23    5.17   662.8    3.2      64.585
2014    8       29    12  29    5.17   662.9    3.2      64.594
2014    8       29    12  35    5.17   663.0    3.2      64.603
2014    8       29    12  40    5.17   663.1    3.2      64.612
2014    8       29    12  46    5.17   663.2    3.2      64.621
2014    8       29    12  52    5.17   663.3    3.2      64.629
2014    8       29    12  58    5.16   663.4    3.2      64.638
2014    8       29    13   4    5.16   663.5    3.2      64.646
2014    8       29    13   9    5.16   663.6    3.2      64.654
2014    8       29    13  15    5.16   663.7    3.2      64.662
2014    8       29    13  21    5.16   663.8    3.1      64.670
2014    8       29    13  27    5.16   663.9    3.1      64.677
2014    8       29    13  33    5.15   664.0    3.1      64.685
2014    8       29    13  38    5.15   664.1    3.1      64.692
2014    8       29    13  44    5.15   664.2    3.1      64.700
2014    8       29    13  50    5.15   664.3    3.1      64.707
2014    8       29    13  56    5.15   664.4    3.1      64.714
2014    8       29    14   2    5.15   664.5    3.1      64.721
2014    8       29    14   7    5.14   664.6    3.1      64.728
2014    8       29    14  13    5.14   664.7    3.1      64.734
2014    8       29    14  19    5.14   664.8    3.1      64.741
2014    8       29    14  25    5.14   664.9    3.1      64.747
2014    8       29    14  31    5.14   665.0    3.1      64.754
2014    8       29    14  36    5.14   665.1    3.1      64.760
2014    8       29    14  42    5.13   665.1    3.1      64.766
2014    8       29    14  48    5.13   665.2    3.1      64.772
2014    8       29    14  54    5.13   665.3    3.1      64.777
2014    8       29    15   0    5.13   665.4    3.1      64.782
2014    8       29    15   5    5.13   665.5    3.1      64.787
2014    8       29    15  11    5.13   665.6    3.1      64.792
2014    8       29    15  17    5.12   665.7    3.1      64.796
2014    8       29    15  23    5.12   665.8    3.1      64.800
2014    8       29    15  29    5.12   665.9    3.1      64.804
2014    8       29    15  34    5.12   665.9    3.1      64.807
2014    8       29    15  40    5.12   666.0    3.1      64.810
2014    8       29    15  46    5.12   666.1    3.1      64.813
2014    8       29    15  52    5.11   666.2    3.1      64.815
2014    8       29    15  58    5.11   666.3    3.1      64.816
2014    8       29    16   3    5.11   666.4    3.1      64.818
2014    8       29    16   9    5.11   666.4    3.1      64.819
2014    8       29    16  15    5.11   666.5    3.1      64.819
2014    8       29    16  21    5.11   666.6    3.1      64.820
2014    8       29    16  27    5.10   666.7    3.1      64.820
2014    8       29    16  32    5.10   666.8    3.1      64.820
2014    8       29    16  38    5.10   666.8    3.1      64.819
2014    8       29    16  44    5.10   666.9    3.1      64.819
2014    8       29    16  50    5.10   667.0    3.1      64.818
2014    8       29    16  56    5.10   667.1    3.1      64.817
2014    8       29    17   1    5.09   667.1    3.1      64.817
2014    8       29    17   7    5.09   667.2    3.1      64.816
2014    8       29    17  13    5.09   667.3    3.1      64.815
2014    8       29    17  19    5.09   667.4    3.1      64.814
2014    8       29    17  25    5.09   667.4    3.1      64.814
2014    8       29    17  30    5.09   667.5    3.1      64.814
2014    8       29    17  36    5.08   667.6    3.1      64.813
2014    8       29    17  42    5.08   667.6    3.1      64.813
2014    8       29    17  48    5.08   667.7    3.1      64.814
2014    8       29    17  54    5.08   667.8    3.1      64.814
2014    8       29    17  59    5.08   667.9    3.1      64.814
2014    8       29    18   5    5.08   667.9    3.1      64.815
2014    8       29    18  11    5.08   668.0    3.1      64.816
2014    8       29    18  17    5.07   668.1    3.1      64.817
2014    8       29    18  23    5.07   668.1    3.0      64.818
2014    8       29    18  28    5.07   668.2    3.0      64.820
2014    8       29    18  34    5.07   668.3    3.0      64.821
2014    8       29    18  40    5.07   668.3    3.0      64.823
2014    8       29    18  46    5.07   668.4    3.0      64.825
2014    8       29    18  52    5.06   668.5    3.0      64.826
2014    8       29    18  57    5.06   668.5    3.0      64.828
2014    8       29    19   3    5.06   668.6    3.0      64.830
2014    8       29    19   9    5.06   668.6    3.0      64.832
2014    8       29    19  15    5.06   668.7    3.0      64.834
2014    8       29    19  21    5.06   668.8    3.0      64.836
2014    8       29    19  26    5.05   668.8    3.0      64.838
2014    8       29    19  32    5.05   668.9    3.0      64.840
2014    8       29    19  38    5.05   668.9    3.0      64.842
2014    8       29    19  44    5.05   669.0    3.0      64.844
2014    8       29    19  50    5.05   669.1    3.0      64.846
2014    8       29    19  55    5.05   669.1    3.0      64.847
2014    8       29    20   1    5.04   669.2    3.0      64.849
2014    8       29    20   7    5.04   669.2    3.0      64.851
2014    8       29    20  13    5.04   669.3    3.0      64.852
2014    8       29    20  19    5.04   669.3    3.0      64.853
2014    8       29    20  24    5.04   669.4    3.0      64.855
2014    8       29    20  30    5.04   669.4    3.0      64.856
2014    8       29    20  36    5.03   669.5    3.0      64.857
2014    8       29    20  42    5.03   669.5    3.0      64.858
2014    8       29    20  48    5.03   669.6    3.0      64.858
2014    8       29    20  53    5.03   669.6    3.0      64.859
2014    8       29    20  59    5.03   669.7    3.0      64.859
2014    8       29    21   5    5.03   669.7    3.0      64.859
2014    8       29    21  11    5.02   669.8    3.0      64.859
2014    8       29    21  17    5.02   669.8    3.0      64.858
2014    8       29    21  22    5.02   669.8    3.0      64.858
2014    8       29    21  28    5.02   669.9    3.0      64.857
2014    8       29    21  34    5.02   669.9    3.0      64.856
2014    8       29    21  40    5.02   670.0    3.0      64.855
2014    8       29    21  46    5.01   670.0    3.0      64.853
2014    8       29    21  51    5.01   670.1    3.0      64.852
2014    8       29    21  57    5.01   670.1    3.0      64.850
2014    8       29    22   3    5.01   670.1    3.0      64.848
2014    8       29    22   9    5.01   670.2    3.0      64.845
2014    8       29    22  15    5.01   670.2    3.0      64.843
2014    8       29    22  20    5.01   670.2    3.0      64.840
2014    8       29    22  26    5.00   670.3    3.0      64.837
2014    8       29    22  32    5.00   670.3    3.0      64.833
2014    8       29    22  38    5.00   670.3    3.0      64.829
2014    8       29    22  44    5.00   670.4    3.0      64.825
2014    8       29    22  49    5.00   670.4    3.0      64.821
2014    8       29    22  55    5.00   670.5    3.0      64.816
2014    8       29    23   1    4.99   670.5    3.0      64.811
2014    8       29    23   7    4.99   670.5    3.0      64.805
2014    8       29    23  13    4.99   670.6    3.0      64.799
2014    8       29    23  18    4.99   670.6    3.0      64.793
2014    8       29    23  24    4.99   670.6    3.0      64.787
2014    8       29    23  30    4.99   670.6    3.0      64.780
2014    8       29    23  36    4.99   670.7    3.0      64.773
2014    8       29    23  42    4.98   670.7    3.0      64.766
2014    8       29    23  47    4.98   670.7    3.0      64.758
2014    8       29    23  53    4.98   670.8    3.0      64.751
2014    8       29    23  59    4.98   670.8    3.0      64.743
2014    8       30     0   5    4.98   670.8    3.0      64.734
2014    8       30     0  11    4.98   670.9    3.0      64.726
2014    8       30     0  16    4.98   670.9    3.0      64.718
2014    8       30     0  22    4.97   670.9    3.0      64.709
2014    8       30     0  28    4.97   670.9    3.0      64.701
2014    8       30     0  34    4.97   671.0    3.0      64.692
2014    8       30     0  40    4.97   671.0    3.0      64.684
2014    8       30     0  45    4.97   671.0    3.0      64.675
2014    8       30     0  51    4.97   671.0    3.0      64.667
2014    8       30     0  57    4.97   671.1    2.9      64.659
2014    8       30     1   3    4.96   671.1    2.9      64.651
2014    8       30     1   9    4.96   671.1    2.9      64.643
2014    8       30     1  14    4.96   671.1    2.9      64.635
2014    8       30     1  20    4.96   671.1    2.9      64.628
2014    8       30     1  26    4.96   671.2    2.9      64.621
2014    8       30     1  32    4.96   671.2    2.9      64.614
2014    8       30     1  38    4.96   671.2    2.9      64.607
2014    8       30     1  43    4.95   671.2    2.9      64.601
2014    8       30     1  49    4.95   671.2    2.9      64.595
2014    8       30     1  55    4.95   671.3    2.9      64.589
2014    8       30     2   1    4.95   671.3    2.9      64.584
2014    8       30     2   7    4.95   671.3    2.9      64.579
2014    8       30     2  12    4.95   671.3    2.9      64.574
2014    8       30     2  18    4.95   671.3    2.9      64.570
2014    8       30     2  24    4.94   671.4    2.9      64.566
2014    8       30     2  30    4.94   671.4    2.9      64.562
2014    8       30     2  36    4.94   671.4    2.9      64.558
2014    8       30     2  41    4.94   671.4    2.9      64.555
2014    8       30     2  47    4.94   671.4    2.9      64.552
2014    8       30     2  53    4.94   671.4    2.9      64.549
2014    8       30     2  59    4.94   671.4    2.9      64.546
2014    8       30     3   5    4.93   671.5    2.9      64.544
2014    8       30     3  10    4.93   671.5    2.9      64.542
2014    8       30     3  16    4.93   671.5    2.9      64.540
2014    8       30     3  22    4.93   671.5    2.9      64.538
2014    8       30     3  28    4.93   671.5    2.9      64.536
2014    8       30     3  34    4.93   671.5    2.9      64.535
2014    8       30     3  39    4.92   671.5    2.9      64.533
2014    8       30     3  45    4.92   671.5    2.9      64.531
2014    8       30     3  51    4.92   671.5    2.9      64.530
2014    8       30     3  57    4.92   671.6    2.9      64.528
2014    8       30     4   3    4.92   671.6    2.9      64.526
2014    8       30     4   8    4.92   671.6    2.9      64.525
2014    8       30     4  14    4.92   671.6    2.9      64.522
2014    8       30     4  20    4.91   671.6    2.9      64.520
2014    8       30     4  26    4.91   671.6    2.9      64.518
2014    8       30     4  32    4.91   671.6    2.9      64.515
2014    8       30     4  37    4.91   671.6    2.9      64.513
2014    8       30     4  43    4.91   671.6    2.9      64.509
2014    8       30     4  49    4.91   671.6    2.9      64.506
2014    8       30     4  55    4.91   671.6    2.9      64.502
2014    8       30     5   1    4.91   671.6    2.9      64.498
2014    8       30     5   6    4.90   671.6    2.9      64.493
2014    8       30     5  12    4.90   671.6    2.9      64.489
2014    8       30     5  18    4.90   671.6    2.9      64.484
2014    8       30     5  24    4.90   671.6    2.9      64.478
2014    8       30     5  30    4.90   671.6    2.9      64.473
2014    8       30     5  35    4.90   671.6    2.9      64.467
2014    8       30     5  41    4.90   671.6    2.9      64.460
2014    8       30     5  47    4.89   671.6    2.9      64.453
2014    8       30     5  53    4.89   671.6    2.9      64.446
2014    8       30     5  59    4.89   671.6    2.9      64.438
2014    8       30     6   4    4.89   671.6    2.9      64.430
2014    8       30     6  10    4.89   671.6    2.9      64.421
2014    8       30     6  16    4.89   671.6    2.9      64.412
2014    8       30     6  22    4.89   671.6    2.9      64.402
2014    8       30     6  28    4.89   671.6    2.9      64.391
2014    8       30     6  33    4.88   671.6    2.9      64.380
2014    8       30     6  39    4.88   671.6    2.9      64.369
2014    8       30     6  45    4.88   671.6    2.9      64.357
2014    8       30     6  51    4.88   671.6    2.9      64.344
2014    8       30     6  57    4.88   671.5    2.9      64.331
2014    8       30     7   2    4.88   671.5    2.9      64.318
2014    8       30     7   8    4.88   671.5    2.9      64.304
2014    8       30     7  14    4.88   671.5    2.9      64.289
2014    8       30     7  20    4.87   671.5    2.9      64.275
2014    8       30     7  26    4.87   671.5    2.9      64.260
2014    8       30     7  31    4.87   671.5    2.9      64.244
2014    8       30     7  37    4.87   671.5    2.9      64.229
2014    8       30     7  43    4.87   671.5    2.9      64.213
2014    8       30     7  49    4.87   671.5    2.9      64.198
2014    8       30     7  55    4.87   671.4    2.9      64.182
2014    8       30     8   0    4.87   671.4    2.9      64.166
2014    8       30     8   6    4.87   671.4    2.9      64.151
2014    8       30     8  12    4.86   671.4    2.9      64.135
2014    8       30     8  18    4.86   671.4    2.9      64.120
2014    8       30     8  24    4.86   671.4    2.9      64.106
2014    8       30     8  29    4.86   671.4    2.9      64.091
2014    8       30     8  35    4.86   671.3    2.9      64.078
2014    8       30     8  41    4.86   671.3    2.9      64.064
2014    8       30     8  47    4.86   671.3    2.9      64.052
2014    8       30     8  53    4.86   671.3    2.9      64.040
2014    8       30     8  58    4.85   671.3    2.9      64.029
2014    8       30     9   4    4.85   671.3    2.9      64.018
2014    8       30     9  10    4.85   671.2    2.9      64.008
2014    8       30     9  16    4.85   671.2    2.9      63.999
2014    8       30     9  22    4.85   671.2    2.9      63.991
2014    8       30     9  27    4.85   671.2    2.9      63.984
2014    8       30     9  33    4.85   671.2    2.9      63.977
2014    8       30     9  39    4.85   671.1    2.9      63.971
2014    8       30     9  45    4.84   671.1    2.9      63.966
2014    8       30     9  51    4.84   671.1    2.9      63.962
2014    8       30     9  56    4.84   671.1    2.9      63.958
2014    8       30    10   2    4.84   671.1    2.9      63.954
2014    8       30    10   8    4.84   671.0    2.9      63.952
2014    8       30    10  14    4.84   671.0    2.9      63.950
2014    8       30    10  20    4.84   671.0    2.9      63.948
2014    8       30    10  25    4.84   671.0    2.9      63.947
2014    8       30    10  31    4.83   671.0    2.9      63.946
2014    8       30    10  37    4.83   670.9    2.9      63.945
2014    8       30    10  43    4.83   670.9    2.9      63.944
2014    8       30    10  49    4.83   670.9    2.9      63.944
2014    8       30    10  54    4.83   670.9    2.9      63.944
2014    8       30    11   0    4.83   670.9    2.9      63.943
2014    8       30    11   6    4.83   670.8    2.9      63.943
2014    8       30    11  12    4.83   670.8    2.9      63.942
2014    8       30    11  18    4.82   670.8    2.9      63.941
2014    8       30    11  23    4.82   670.8    2.9      63.940
2014    8       30    11  29    4.82   670.7    2.9      63.939
2014    8       30    11  35    4.82   670.7    2.9      63.937
2014    8       30    11  41    4.82   670.7    2.9      63.935
2014    8       30    11  47    4.82   670.7    2.9      63.933
2014    8       30    11  52    4.82   670.6    2.9      63.930
2014    8       30    11  58    4.82   670.6    2.9      63.926
2014    8       30    12   4    4.82   670.6    2.9      63.922
2014    8       30    12  10    4.81   670.6    2.9      63.918
2014    8       30    12  16    4.81   670.5    2.9      63.913
2014    8       30    12  21    4.81   670.5    2.9      63.908
2014    8       30    12  27    4.81   670.5    2.9      63.902
2014    8       30    12  33    4.81   670.4    2.9      63.896
2014    8       30    12  39    4.81   670.4    2.9      63.889
2014    8       30    12  45    4.81   670.4    2.9      63.882
2014    8       30    12  50    4.81   670.3    2.9      63.874
2014    8       30    12  56    4.81   670.3    2.9      63.865
2014    8       30    13   2    4.81   670.3    2.9      63.857
2014    8       30    13   8    4.80   670.2    2.9      63.848
2014    8       30    13  14    4.80   670.2    2.9      63.838
2014    8       30    13  19    4.80   670.2    2.9      63.829
2014    8       30    13  25    4.80   670.1    2.9      63.819
2014    8       30    13  31    4.80   670.1    2.9      63.809
2014    8       30    13  37    4.80   670.1    2.9      63.799
2014    8       30    13  43    4.80   670.0    2.9      63.789
2014    8       30    13  48    4.80   670.0    2.9      63.779
2014    8       30    13  54    4.80   670.0    2.9      63.769
2014    8       30    14   0    4.80   670.0    2.8      63.759
2014    8       30    14   6    4.80   669.9    2.8      63.749
2014    8       30    14  12    4.79   669.9    2.8      63.738
2014    8       30    14  17    4.79   669.9    2.8      63.726
2014    8       30    14  23    4.79   669.8    2.8      63.714
2014    8       30    14  29    4.79   669.8    2.8      63.702
2014    8       30    14  35    4.79   669.8    2.8      63.689
2014    8       30    14  41    4.79   669.7    2.8      63.675
2014    8       30    14  46    4.79   669.7    2.8      63.661
2014    8       30    14  52    4.79   669.7    2.8      63.646
2014    8       30    14  58    4.79   669.6    2.8      63.631
2014    8       30    15   4    4.79   669.6    2.8      63.615
2014    8       30    15  10    4.78   669.6    2.8      63.599
2014    8       30    15  15    4.78   669.5    2.8      63.582
2014    8       30    15  21    4.78   669.5    2.8      63.566
2014    8       30    15  27    4.78   669.5    2.8      63.548
2014    8       30    15  33    4.78   669.4    2.8      63.531
2014    8       30    15  39    4.78   669.4    2.8      63.514
2014    8       30    15  44    4.78   669.4    2.8      63.496
2014    8       30    15  50    4.78   669.3    2.8      63.478
2014    8       30    15  56    4.78   669.3    2.8      63.461
2014    8       30    16   2    4.78   669.2    2.8      63.444
2014    8       30    16   8    4.77   669.2    2.8      63.427
2014    8       30    16  13    4.77   669.1    2.8      63.410
2014    8       30    16  19    4.77   669.1    2.8      63.395
2014    8       30    16  25    4.77   669.1    2.8      63.380
2014    8       30    16  31    4.77   669.0    2.8      63.365
2014    8       30    16  37    4.77   669.0    2.8      63.352
2014    8       30    16  42    4.77   668.9    2.8      63.339
2014    8       30    16  48    4.77   668.9    2.8      63.328
2014    8       30    16  54    4.77   668.8    2.8      63.317
2014    8       30    17   0    4.77   668.8    2.8      63.308
2014    8       30    17   6    4.76   668.7    2.8      63.300
2014    8       30    17  11    4.76   668.7    2.8      63.293
2014    8       30    17  17    4.76   668.6    2.8      63.287
2014    8       30    17  23    4.76   668.6    2.8      63.283
2014    8       30    17  29    4.76   668.5    2.8      63.280
2014    8       30    17  35    4.76   668.5    2.8      63.278
2014    8       30    17  40    4.76   668.5    2.8      63.277
2014    8       30    17  46    4.76   668.4    2.8      63.277
2014    8       30    17  52    4.76   668.4    2.8      63.277
2014    8       30    17  58    4.76   668.3    2.8      63.278
2014    8       30    18   4    4.76   668.3    2.8      63.280
2014    8       30    18   9    4.75   668.2    2.8      63.282
2014    8       30    18  15    4.75   668.2    2.8      63.284
2014    8       30    18  21    4.75   668.1    2.8      63.287
2014    8       30    18  27    4.75   668.1    2.8      63.289
2014    8       30    18  33    4.75   668.1    2.8      63.292
2014    8       30    18  38    4.75   668.0    2.8      63.294
2014    8       30    18  44    4.75   668.0    2.8      63.297
2014    8       30    18  50    4.75   667.9    2.8      63.299
2014    8       30    18  56    4.75   667.9    2.8      63.300
2014    8       30    19   2    4.75   667.9    2.8      63.301
2014    8       30    19   7    4.75   667.8    2.8      63.300
2014    8       30    19  13    4.75   667.8    2.8      63.299
2014    8       30    19  19    4.74   667.7    2.8      63.296
2014    8       30    19  25    4.74   667.7    2.8      63.292
2014    8       30    19  31    4.74   667.6    2.8      63.288
2014    8       30    19  36    4.74   667.6    2.8      63.282
2014    8       30    19  42    4.74   667.5    2.8      63.276
2014    8       30    19  48    4.74   667.5    2.8      63.269
2014    8       30    19  54    4.74   667.4    2.8      63.261
2014    8       30    20   0    4.74   667.4    2.8      63.252
2014    8       30    20   5    4.74   667.4    2.8      63.242
2014    8       30    20  11    4.74   667.3    2.8      63.233
2014    8       30    20  17    4.74   667.2    2.8      63.222
2014    8       30    20  23    4.74   667.2    2.8      63.212
2014    8       30    20  29    4.74   667.1    2.8      63.201
2014    8       30    20  34    4.74   667.1    2.8      63.190
2014    8       30    20  40    4.74   667.0    2.8      63.178
2014    8       30    20  46    4.73   667.0    2.8      63.167
2014    8       30    20  52    4.73   666.9    2.8      63.156
2014    8       30    20  58    4.73   666.9    2.8      63.145
2014    8       30    21   3    4.73   666.8    2.8      63.135
2014    8       30    21   9    4.73   666.8    2.8      63.124
2014    8       30    21  15    4.73   666.7    2.8      63.114
2014    8       30    21  21    4.73   666.7    2.8      63.106
2014    8       30    21  27    4.73   666.6    2.8      63.099
2014    8       30    21  32    4.73   666.6    2.8      63.093
2014    8       30    21  38    4.73   666.5    2.8      63.088
2014    8       30    21  44    4.73   666.5    2.8      63.083
2014    8       30    21  50    4.73   666.4    2.8      63.079
2014    8       30    21  56    4.73   666.4    2.8      63.075
2014    8       30    22   1    4.73   666.4    2.8      63.072
2014    8       30    22   7    4.72   666.3    2.8      63.069
2014    8       30    22  13    4.72   666.3    2.8      63.066
2014    8       30    22  19    4.72   666.2    2.8      63.062
2014    8       30    22  25    4.72   666.2    2.8      63.058
2014    8       30    22  30    4.72   666.1    2.8      63.053
2014    8       30    22  36    4.72   666.1    2.8      63.047
2014    8       30    22  42    4.72   666.0    2.8      63.040
2014    8       30    22  48    4.72   666.0    2.8      63.032
2014    8       30    22  54    4.72   665.9    2.8      63.023
2014    8       30    22  59    4.72   665.9    2.8      63.014
2014    8       30    23   5    4.72   665.9    2.8      63.003
2014    8       30    23  11    4.72   665.8    2.8      62.992
2014    8       30    23  17    4.71   665.8    2.8      62.980
2014    8       30    23  23    4.71   665.7    2.8      62.967
2014    8       30    23  28    4.71   665.7    2.8      62.954
2014    8       30    23  34    4.71   665.6    2.8      62.940
2014    8       30    23  40    4.71   665.6    2.8      62.926
2014    8       30    23  46    4.71   665.5    2.8      62.912
2014    8       30    23  52    4.71   665.4    2.8      62.898
2014    8       30    23  57    4.71   665.4    2.8      62.883
2014    8       31     0   3    4.71   665.3    2.8      62.868
2014    8       31     0   9    4.71   665.3    2.8      62.853
2014    8       31     0  15    4.71   665.2    2.8      62.839
2014    8       31     0  21    4.71   665.2    2.8      62.824
2014    8       31     0  26    4.70   665.1    2.8      62.810
2014    8       31     0  32    4.70   665.1    2.8      62.796
2014    8       31     0  38    4.70   665.0    2.8      62.783
2014    8       31     0  44    4.70   664.9    2.8      62.770
2014    8       31     0  50    4.70   664.9    2.8      62.758
2014    8       31     0  55    4.70   664.8    2.8      62.747
2014    8       31     1   1    4.70   664.8    2.8      62.736
2014    8       31     1   7    4.70   664.7    2.8      62.726
2014    8       31     1  13    4.70   664.6    2.8      62.717
2014    8       31     1  19    4.70   664.6    2.8      62.709
2014    8       31     1  24    4.70   664.5    2.8      62.702
2014    8       31     1  30    4.70   664.5    2.8      62.696
2014    8       31     1  36    4.70   664.4    2.8      62.690
2014    8       31     1  42    4.69   664.4    2.8      62.685
2014    8       31     1  48    4.69   664.3    2.8      62.681
2014    8       31     1  53    4.69   664.2    2.8      62.678
2014    8       31     1  59    4.69   664.2    2.8      62.675
2014    8       31     2   5    4.69   664.1    2.8      62.673
2014    8       31     2  11    4.69   664.1    2.8      62.670
2014    8       31     2  17    4.69   664.0    2.8      62.667
2014    8       31     2  22    4.69   664.0    2.8      62.665
2014    8       31     2  28    4.69   663.9    2.8      62.661
2014    8       31     2  34    4.69   663.8    2.8      62.658
2014    8       31     2  40    4.69   663.8    2.8      62.654
2014    8       31     2  46    4.69   663.7    2.8      62.650
2014    8       31     2  51    4.69   663.7    2.8      62.646
2014    8       31     2  57    4.69   663.6    2.8      62.641
2014    8       31     3   3    4.69   663.6    2.8      62.637
2014    8       31     3   9    4.69   663.5    2.8      62.632
2014    8       31     3  15    4.69   663.5    2.8      62.627
2014    8       31     3  20    4.69   663.4    2.8      62.622
2014    8       31     3  26    4.69   663.4    2.8      62.617
2014    8       31     3  32    4.69   663.3    2.8      62.611
2014    8       31     3  38    4.68   663.3    2.8      62.605
2014    8       31     3  44    4.68   663.2    2.8      62.599
2014    8       31     3  49    4.68   663.2    2.8      62.592
2014    8       31     3  55    4.68   663.1    2.8      62.584
2014    8       31     4   1    4.68   663.1    2.8      62.575
2014    8       31     4   7    4.68   663.0    2.8      62.567
2014    8       31     4  13    4.68   663.0    2.8      62.558
2014    8       31     4  18    4.68   662.9    2.8      62.548
2014    8       31     4  24    4.68   662.8    2.8      62.538
2014    8       31     4  30    4.68   662.8    2.8      62.529
2014    8       31     4  36    4.68   662.7    2.8      62.520
2014    8       31     4  42    4.68   662.7    2.8      62.511
2014    8       31     4  47    4.68   662.6    2.8      62.504
2014    8       31     4  53    4.68   662.6    2.8      62.496
2014    8       31     4  59    4.68   662.5    2.8      62.488
2014    8       31     5   5    4.68   662.5    2.8      62.481
2014    8       31     5  11    4.67   662.4    2.8      62.474
2014    8       31     5  16    4.67   662.4    2.8      62.467
2014    8       31     5  22    4.67   662.3    2.8      62.461
2014    8       31     5  28    4.67   662.2    2.8      62.455
2014    8       31     5  34    4.67   662.2    2.8      62.449
2014    8       31     5  40    4.67   662.1    2.8      62.443
2014    8       31     5  45    4.67   662.1    2.8      62.437
2014    8       31     5  51    4.67   662.0    2.8      62.429
2014    8       31     5  57    4.67   661.9    2.8      62.422
2014    8       31     6   3    4.67   661.9    2.8      62.414
2014    8       31     6   9    4.67   661.8    2.8      62.406
2014    8       31     6  14    4.67   661.7    2.8      62.398
2014    8       31     6  20    4.66   661.7    2.8      62.391
2014    8       31     6  26    4.66   661.6    2.8      62.383
2014    8       31     6  32    4.66   661.5    2.8      62.376
2014    8       31     6  38    4.66   661.4    2.8      62.369
2014    8       31     6  43    4.66   661.4    2.8      62.363
2014    8       31     6  49    4.66   661.3    2.8      62.356
2014    8       31     6  55    4.66   661.2    2.8      62.350
2014    8       31     7   1    4.66   661.2    2.8      62.343
2014    8       31     7   7    4.66   661.1    2.8      62.337
2014    8       31     7  12    4.66   661.0    2.8      62.330
2014    8       31     7  18    4.66   661.0    2.8      62.323
2014    8       31     7  24    4.66   660.9    2.8      62.316
2014    8       31     7  30    4.66   660.8    2.8      62.307
2014    8       31     7  36    4.65   660.8    2.8      62.297
2014    8       31     7  41    4.65   660.7    2.8      62.287
2014    8       31     7  47    4.65   660.6    2.8      62.276
2014    8       31     7  53    4.65   660.5    2.8      62.265
2014    8       31     7  59    4.65   660.5    2.8      62.252
2014    8       31     8   5    4.65   660.4    2.8      62.240
2014    8       31     8  10    4.65   660.3    2.8      62.227
2014    8       31     8  16    4.65   660.3    2.8      62.213
2014    8       31     8  22    4.65   660.2    2.8      62.199
2014    8       31     8  28    4.65   660.1    2.8      62.185
2014    8       31     8  34    4.65   660.1    2.8      62.170
2014    8       31     8  39    4.65   660.0    2.8      62.156
2014    8       31     8  45    4.65   659.9    2.8      62.141
2014    8       31     8  51    4.65   659.8    2.8      62.126
2014    8       31     8  57    4.65   659.8    2.8      62.111
2014    8       31     9   2    4.64   659.7    2.8      62.096
2014    8       31     9   8    4.64   659.6    2.8      62.081
2014    8       31     9  14    4.64   659.6    2.8      62.066
2014    8       31     9  20    4.64   659.5    2.8      62.051
2014    8       31     9  26    4.64   659.4    2.8      62.036
2014    8       31     9  31    4.64   659.3    2.8      62.020
2014    8       31     9  37    4.64   659.3    2.8      62.005
2014    8       31     9  43    4.64   659.2    2.8      61.990
2014    8       31     9  49    4.64   659.1    2.8      61.976
2014    8       31     9  55    4.64   659.0    2.8      61.961
2014    8       31    10   0    4.64   659.0    2.8      61.947
2014    8       31    10   6    4.64   658.9    2.8      61.934
2014    8       31    10  12    4.64   658.8    2.8      61.921
2014    8       31    10  18    4.64   658.7    2.8      61.909
2014    8       31    10  24    4.64   658.7    2.8      61.897
2014    8       31    10  29    4.64   658.6    2.8      61.887
2014    8       31    10  35    4.64   658.5    2.8      61.877
2014    8       31    10  41    4.64   658.5    2.8      61.868
2014    8       31    10  47    4.64   658.4    2.8      61.860
2014    8       31    10  53    4.63   658.3    2.8      61.853
2014    8       31    10  58    4.63   658.3    2.8      61.846
2014    8       31    11   4    4.63   658.2    2.8      61.841
2014    8       31    11  10    4.63   658.1    2.8      61.836
2014    8       31    11  16    4.63   658.1    2.8      61.832
2014    8       31    11  22    4.63   658.0    2.8      61.828
2014    8       31    11  27    4.63   657.9    2.8      61.824
2014    8       31    11  33    4.63   657.9    2.8      61.820
2014    8       31    11  39    4.63   657.8    2.8      61.815
2014    8       31    11  45    4.63   657.7    2.8      61.810
2014    8       31    11  51    4.63   657.7    2.8      61.804
2014    8       31    11  56    4.63   657.6    2.8      61.797
2014    8       31    12   2    4.63   657.5    2.8      61.788
2014    8       31    12   8    4.63   657.5    2.8      61.779
2014    8       31    12  14    4.63   657.4    2.8      61.768
2014    8       31    12  20    4.62   657.3    2.8      61.757
2014    8       31    12  25    4.62   657.3    2.8      61.744
2014    8       31    12  31    4.62   657.2    2.8      61.731
2014    8       31    12  37    4.62   657.1    2.8      61.716
2014    8       31    12  43    4.62   657.1    2.8      61.701
2014    8       31    12  49    4.62   657.0    2.8      61.685
2014    8       31    12  54    4.62   656.9    2.8      61.668
2014    8       31    13   0    4.62   656.8    2.8      61.651
2014    8       31    13   6    4.62   656.7    2.8      61.633
2014    8       31    13  12    4.62   656.7    2.8      61.614
2014    8       31    13  18    4.62   656.6    2.8      61.595
2014    8       31    13  23    4.62   656.5    2.8      61.576
2014    8       31    13  29    4.61   656.4    2.8      61.556
2014    8       31    13  35    4.61   656.3    2.8      61.537
2014    8       31    13  41    4.61   656.2    2.8      61.517
2014    8       31    13  47    4.61   656.1    2.8      61.497
2014    8       31    13  52    4.61   656.0    2.8      61.477
2014    8       31    13  58    4.61   655.9    2.8      61.458
2014    8       31    14   4    4.61   655.8    2.8      61.440
2014    8       31    14  10    4.61   655.7    2.8      61.422
2014    8       31    14  16    4.61   655.6    2.8      61.405
2014    8       31    14  21    4.61   655.5    2.8      61.390
2014    8       31    14  27    4.61   655.4    2.8      61.375
2014    8       31    14  33    4.61   655.3    2.8      61.362
2014    8       31    14  39    4.60   655.2    2.8      61.350
2014    8       31    14  45    4.60   655.1    2.8      61.340
2014    8       31    14  51    4.60   655.0    2.8      61.331
2014    8       31    14  56    4.60   654.9    2.8      61.323
2014    8       31    15   2    4.60   654.8    2.8      61.315
2014    8       31    15   8    4.60   654.7    2.8      61.307
2014    8       31    15  14    4.60   654.6    2.8      61.299
2014    8       31    15  19    4.60   654.5    2.8      61.291
2014    8       31    15  25    4.60   654.4    2.8      61.284
2014    8       31    15  31    4.60   654.3    2.8      61.277
2014    8       31    15  37    4.60   654.2    2.8      61.270
2014    8       31    15  43    4.60   654.1    2.8      61.263
2014    8       31    15  48    4.60   654.0    2.8      61.257
2014    8       31    15  54    4.60   653.9    2.8      61.252
2014    8       31    16   0    4.60   653.8    2.8      61.246
2014    8       31    16   6    4.60   653.7    2.8      61.242
2014    8       31    16  12    4.60   653.6    2.8      61.238
2014    8       31    16  17    4.60   653.5    2.8      61.234
2014    8       31    16  23    4.59   653.4    2.8      61.231
2014    8       31    16  29    4.59   653.3    2.8      61.228
2014    8       31    16  35    4.59   653.2    2.8      61.224
2014    8       31    16  41    4.59   653.1    2.8      61.221
2014    8       31    16  46    4.59   653.0    2.8      61.215
2014    8       31    16  52    4.59   652.9    2.8      61.209
2014    8       31    16  58    4.59   652.8    2.8      61.203
2014    8       31    17   4    4.59   652.7    2.8      61.195
2014    8       31    17  10    4.59   652.6    2.8      61.186
2014    8       31    17  15    4.59   652.5    2.8      61.177
2014    8       31    17  21    4.59   652.4    2.8      61.167
2014    8       31    17  27    4.59   652.3    2.8      61.157
2014    8       31    17  33    4.59   652.2    2.8      61.146
2014    8       31    17  39    4.59   652.1    2.8      61.135
2014    8       31    17  44    4.59   652.0    2.8      61.124
2014    8       31    17  50    4.59   652.0    2.9      61.114
2014    8       31    17  56    4.59   651.9    2.9      61.103
2014    8       31    18   2    4.59   651.8    2.9      61.092
2014    8       31    18   8    4.59   651.7    2.9      61.082
2014    8       31    18  13    4.59   651.6    2.9      61.072
2014    8       31    18  19    4.59   651.5    2.9      61.063
2014    8       31    18  25    4.58   651.4    2.9      61.053
2014    8       31    18  31    4.58   651.3    2.9      61.043
2014    8       31    18  37    4.58   651.2    2.9      61.033
2014    8       31    18  42    4.58   651.1    2.9      61.022
2014    8       31    18  48    4.58   651.0    2.9      61.012
2014    8       31    18  54    4.58   651.0    2.9      61.001
2014    8       31    19   0    4.58   650.9    2.9      60.989
2014    8       31    19   6    4.58   650.8    2.9      60.977
2014    8       31    19  11    4.58   650.7    2.9      60.964
2014    8       31    19  17    4.58   650.6    2.9      60.950
2014    8       31    19  23    4.58   650.5    2.9      60.936
2014    8       31    19  29    4.58   650.4    2.9      60.921
2014    8       31    19  35    4.58   650.3    2.9      60.906
2014    8       31    19  40    4.58   650.2    2.9      60.890
2014    8       31    19  46    4.58   650.1    2.9      60.874
2014    8       31    19  52    4.57   650.0    2.9      60.857
2014    8       31    19  58    4.57   649.9    2.9      60.840
2014    8       31    20   4    4.57   649.8    2.9      60.824
2014    8       31    20   9    4.57   649.7    2.9      60.807
2014    8       31    20  15    4.57   649.6    2.9      60.790
2014    8       31    20  21    4.57   649.5    2.9      60.774
2014    8       31    20  27    4.57   649.4    2.9      60.758
2014    8       31    20  33    4.57   649.3    2.9      60.741
2014    8       31    20  38    4.57   649.2    2.9      60.725
2014    8       31    20  44    4.57   649.1    2.9      60.709
2014    8       31    20  50    4.57   649.0    2.9      60.694
2014    8       31    20  56    4.57   648.9    2.9      60.678
2014    8       31    21   2    4.57   648.8    2.9      60.663
2014    8       31    21   7    4.57   648.6    2.9      60.647
2014    8       31    21  13    4.57   648.5    2.9      60.632
2014    8       31    21  19    4.56   648.4    2.9      60.617
2014    8       31    21  25    4.56   648.3    2.9      60.602
2014    8       31    21  31    4.56   648.2    2.9      60.587
2014    8       31    21  36    4.56   648.1    2.9      60.572
2014    8       31    21  42    4.56   648.0    2.9      60.557
2014    8       31    21  48    4.56   647.9    2.9      60.542
2014    8       31    21  54    4.56   647.7    2.9      60.527
2014    8       31    22   0    4.56   647.6    2.9      60.512
2014    8       31    22   5    4.56   647.5    2.9      60.498
2014    8       31    22  11    4.56   647.4    2.9      60.484
2014    8       31    22  17    4.56   647.3    2.9      60.471
2014    8       31    22  23    4.56   647.1    2.9      60.457
2014    8       31    22  29    4.56   647.0    2.9      60.445
2014    8       31    22  34    4.56   646.9    2.9      60.432
2014    8       31    22  40    4.56   646.8    2.9      60.420
2014    8       31    22  46    4.56   646.7    2.9      60.409
2014    8       31    22  52    4.56   646.6    2.9      60.397
2014    8       31    22  58    4.56   646.4    2.9      60.386
2014    8       31    23   3    4.56   646.3    2.9      60.375
2014    8       31    23   9    4.56   646.2    2.9      60.364
2014    8       31    23  15    4.56   646.1    2.9      60.353
2014    8       31    23  21    4.56   645.9    2.9      60.343
2014    8       31    23  27    4.55   645.8    2.9      60.333
2014    8       31    23  32    4.55   645.7    2.9      60.324
2014    8       31    23  38    4.55   645.5    2.9      60.315
2014    8       31    23  44    4.55   645.4    2.9      60.307
2014    8       31    23  50    4.55   645.3    2.9      60.299
2014    8       31    23  56    4.55   645.2    2.9      60.292
2014    9        1     0   1    4.55   645.0    2.9      60.285
