year    month   day   hour  minute  B_enl V_enl   n_enl       T_enl
[year] [month] [day] [hour][minute] [nT]  [km/s]  [cm-3]      [kK]
2014    8        4     0   1    5.15   597.1    3.5      59.254
2014    8        4     0   6    5.14   597.0    3.5      59.236
2014    8        4     0  12    5.14   597.0    3.5      59.219
2014    8        4     0  17    5.14   597.0    3.5      59.201
2014    8        4     0  23    5.14   597.0    3.5      59.183
2014    8        4     0  28    5.13   596.9    3.5      59.166
2014    8        4     0  34    5.13   596.9    3.5      59.148
2014    8        4     0  39    5.13   596.9    3.5      59.130
2014    8        4     0  45    5.13   596.8    3.5      59.113
2014    8        4     0  50    5.12   596.8    3.5      59.095
2014    8        4     0  56    5.12   596.8    3.5      59.078
2014    8        4     1   1    5.12   596.7    3.5      59.060
2014    8        4     1   7    5.11   596.7    3.5      59.042
2014    8        4     1  12    5.11   596.7    3.5      59.024
2014    8        4     1  18    5.11   596.6    3.5      59.006
2014    8        4     1  23    5.11   596.6    3.5      58.988
2014    8        4     1  29    5.10   596.5    3.5      58.970
2014    8        4     1  35    5.10   596.5    3.5      58.952
2014    8        4     1  40    5.10   596.5    3.5      58.934
2014    8        4     1  46    5.10   596.4    3.5      58.915
2014    8        4     1  51    5.09   596.4    3.5      58.897
2014    8        4     1  57    5.09   596.3    3.5      58.879
2014    8        4     2   2    5.09   596.3    3.5      58.860
2014    8        4     2   8    5.09   596.2    3.5      58.842
2014    8        4     2  13    5.08   596.2    3.5      58.824
2014    8        4     2  19    5.08   596.2    3.5      58.806
2014    8        4     2  24    5.08   596.1    3.5      58.788
2014    8        4     2  30    5.08   596.1    3.5      58.770
2014    8        4     2  35    5.07   596.0    3.5      58.752
2014    8        4     2  41    5.07   596.0    3.5      58.734
2014    8        4     2  46    5.07   595.9    3.5      58.715
2014    8        4     2  52    5.07   595.9    3.5      58.697
2014    8        4     2  57    5.06   595.8    3.5      58.678
2014    8        4     3   3    5.06   595.8    3.5      58.659
2014    8        4     3   8    5.06   595.7    3.5      58.640
2014    8        4     3  14    5.06   595.7    3.5      58.621
2014    8        4     3  19    5.05   595.7    3.5      58.601
2014    8        4     3  25    5.05   595.6    3.5      58.581
2014    8        4     3  30    5.05   595.6    3.5      58.561
2014    8        4     3  36    5.05   595.5    3.5      58.540
2014    8        4     3  41    5.04   595.5    3.5      58.519
2014    8        4     3  47    5.04   595.4    3.5      58.498
2014    8        4     3  53    5.04   595.4    3.5      58.476
2014    8        4     3  58    5.04   595.3    3.5      58.454
2014    8        4     4   4    5.03   595.3    3.5      58.431
2014    8        4     4   9    5.03   595.2    3.5      58.409
2014    8        4     4  15    5.03   595.2    3.5      58.385
2014    8        4     4  20    5.03   595.2    3.5      58.362
2014    8        4     4  26    5.02   595.1    3.5      58.337
2014    8        4     4  31    5.02   595.1    3.5      58.313
2014    8        4     4  37    5.02   595.0    3.5      58.288
2014    8        4     4  42    5.02   595.0    3.5      58.263
2014    8        4     4  48    5.01   594.9    3.5      58.238
2014    8        4     4  53    5.01   594.9    3.5      58.212
2014    8        4     4  59    5.01   594.8    3.5      58.186
2014    8        4     5   4    5.01   594.7    3.5      58.160
2014    8        4     5  10    5.00   594.7    3.5      58.134
2014    8        4     5  15    5.00   594.6    3.5      58.108
2014    8        4     5  21    5.00   594.6    3.5      58.082
2014    8        4     5  26    4.99   594.5    3.5      58.056
2014    8        4     5  32    4.99   594.5    3.5      58.030
2014    8        4     5  37    4.99   594.4    3.4      58.004
2014    8        4     5  43    4.99   594.4    3.4      57.978
2014    8        4     5  48    4.98   594.3    3.4      57.953
2014    8        4     5  54    4.98   594.2    3.4      57.928
2014    8        4     5  59    4.98   594.2    3.4      57.903
2014    8        4     6   5    4.98   594.1    3.4      57.878
2014    8        4     6  11    4.97   594.1    3.4      57.853
2014    8        4     6  16    4.97   594.0    3.4      57.829
2014    8        4     6  22    4.97   593.9    3.4      57.806
2014    8        4     6  27    4.97   593.9    3.4      57.782
2014    8        4     6  33    4.96   593.8    3.4      57.759
2014    8        4     6  38    4.96   593.7    3.4      57.736
2014    8        4     6  44    4.96   593.7    3.4      57.713
2014    8        4     6  49    4.96   593.6    3.4      57.691
2014    8        4     6  55    4.95   593.5    3.4      57.669
2014    8        4     7   0    4.95   593.5    3.4      57.647
2014    8        4     7   6    4.95   593.4    3.4      57.625
2014    8        4     7  11    4.94   593.3    3.4      57.603
2014    8        4     7  17    4.94   593.3    3.4      57.582
2014    8        4     7  22    4.94   593.2    3.4      57.560
2014    8        4     7  28    4.94   593.1    3.4      57.539
2014    8        4     7  33    4.93   593.1    3.4      57.517
2014    8        4     7  39    4.93   593.0    3.4      57.495
2014    8        4     7  44    4.93   592.9    3.4      57.473
2014    8        4     7  50    4.93   592.8    3.4      57.451
2014    8        4     7  55    4.92   592.8    3.4      57.429
2014    8        4     8   1    4.92   592.7    3.4      57.406
2014    8        4     8   6    4.92   592.6    3.4      57.383
2014    8        4     8  12    4.92   592.5    3.4      57.360
2014    8        4     8  17    4.91   592.4    3.4      57.337
2014    8        4     8  23    4.91   592.4    3.4      57.313
2014    8        4     8  29    4.91   592.3    3.4      57.289
2014    8        4     8  34    4.91   592.2    3.4      57.265
2014    8        4     8  40    4.90   592.1    3.4      57.240
2014    8        4     8  45    4.90   592.0    3.4      57.215
2014    8        4     8  51    4.90   591.9    3.4      57.190
2014    8        4     8  56    4.89   591.8    3.4      57.164
2014    8        4     9   2    4.89   591.8    3.4      57.139
2014    8        4     9   7    4.89   591.7    3.4      57.113
2014    8        4     9  13    4.89   591.6    3.4      57.086
2014    8        4     9  18    4.88   591.5    3.4      57.060
2014    8        4     9  24    4.88   591.4    3.4      57.033
2014    8        4     9  29    4.88   591.3    3.4      57.005
2014    8        4     9  35    4.88   591.2    3.4      56.978
2014    8        4     9  40    4.87   591.1    3.4      56.950
2014    8        4     9  46    4.87   591.0    3.4      56.923
2014    8        4     9  51    4.87   591.0    3.4      56.895
2014    8        4     9  57    4.87   590.9    3.4      56.867
2014    8        4    10   2    4.86   590.8    3.4      56.839
2014    8        4    10   8    4.86   590.7    3.4      56.811
2014    8        4    10  13    4.86   590.6    3.4      56.782
2014    8        4    10  19    4.86   590.5    3.4      56.754
2014    8        4    10  24    4.85   590.4    3.4      56.725
2014    8        4    10  30    4.85   590.3    3.4      56.696
2014    8        4    10  35    4.85   590.2    3.4      56.666
2014    8        4    10  41    4.85   590.1    3.4      56.637
2014    8        4    10  47    4.84   590.0    3.4      56.607
2014    8        4    10  52    4.84   589.9    3.4      56.576
2014    8        4    10  58    4.84   589.8    3.4      56.545
2014    8        4    11   3    4.84   589.7    3.4      56.514
2014    8        4    11   9    4.84   589.6    3.4      56.482
2014    8        4    11  14    4.83   589.5    3.4      56.450
2014    8        4    11  20    4.83   589.4    3.4      56.418
2014    8        4    11  25    4.83   589.3    3.4      56.385
2014    8        4    11  31    4.83   589.2    3.4      56.352
2014    8        4    11  36    4.82   589.1    3.4      56.319
2014    8        4    11  42    4.82   589.0    3.4      56.285
2014    8        4    11  47    4.82   588.9    3.4      56.251
2014    8        4    11  53    4.82   588.8    3.4      56.217
2014    8        4    11  58    4.81   588.7    3.4      56.183
2014    8        4    12   4    4.81   588.6    3.4      56.148
2014    8        4    12   9    4.81   588.5    3.4      56.113
2014    8        4    12  15    4.81   588.4    3.4      56.078
2014    8        4    12  20    4.80   588.3    3.4      56.044
2014    8        4    12  26    4.80   588.2    3.4      56.009
2014    8        4    12  31    4.80   588.1    3.4      55.974
2014    8        4    12  37    4.80   588.0    3.4      55.939
2014    8        4    12  42    4.79   587.8    3.4      55.904
2014    8        4    12  48    4.79   587.7    3.4      55.869
2014    8        4    12  53    4.79   587.6    3.4      55.834
2014    8        4    12  59    4.79   587.5    3.4      55.800
2014    8        4    13   5    4.78   587.4    3.4      55.766
2014    8        4    13  10    4.78   587.3    3.4      55.732
2014    8        4    13  16    4.78   587.2    3.4      55.699
2014    8        4    13  21    4.78   587.1    3.4      55.666
2014    8        4    13  27    4.78   587.0    3.4      55.633
2014    8        4    13  32    4.77   586.8    3.4      55.600
2014    8        4    13  38    4.77   586.7    3.4      55.568
2014    8        4    13  43    4.77   586.6    3.4      55.537
2014    8        4    13  49    4.77   586.5    3.4      55.506
2014    8        4    13  54    4.76   586.4    3.4      55.475
2014    8        4    14   0    4.76   586.3    3.4      55.445
2014    8        4    14   5    4.76   586.2    3.4      55.415
2014    8        4    14  11    4.76   586.0    3.4      55.385
2014    8        4    14  16    4.75   585.9    3.4      55.356
2014    8        4    14  22    4.75   585.8    3.4      55.327
2014    8        4    14  27    4.75   585.7    3.4      55.298
2014    8        4    14  33    4.75   585.6    3.3      55.269
2014    8        4    14  38    4.74   585.5    3.3      55.240
2014    8        4    14  44    4.74   585.3    3.3      55.212
2014    8        4    14  49    4.74   585.2    3.3      55.184
2014    8        4    14  55    4.74   585.1    3.3      55.155
2014    8        4    15   0    4.73   585.0    3.3      55.126
2014    8        4    15   6    4.73   584.9    3.3      55.097
2014    8        4    15  11    4.73   584.7    3.3      55.069
2014    8        4    15  17    4.73   584.6    3.3      55.039
2014    8        4    15  23    4.72   584.5    3.3      55.010
2014    8        4    15  28    4.72   584.4    3.3      54.980
2014    8        4    15  34    4.72   584.2    3.3      54.950
2014    8        4    15  39    4.72   584.1    3.3      54.919
2014    8        4    15  45    4.71   584.0    3.3      54.888
2014    8        4    15  50    4.71   583.8    3.3      54.856
2014    8        4    15  56    4.71   583.7    3.3      54.823
2014    8        4    16   1    4.71   583.6    3.3      54.791
2014    8        4    16   7    4.70   583.4    3.3      54.757
2014    8        4    16  12    4.70   583.3    3.3      54.723
2014    8        4    16  18    4.70   583.2    3.3      54.689
2014    8        4    16  23    4.70   583.0    3.3      54.654
2014    8        4    16  29    4.69   582.9    3.3      54.620
2014    8        4    16  34    4.69   582.8    3.3      54.585
2014    8        4    16  40    4.69   582.6    3.3      54.549
2014    8        4    16  45    4.69   582.5    3.3      54.514
2014    8        4    16  51    4.68   582.3    3.3      54.478
2014    8        4    16  56    4.68   582.2    3.3      54.443
2014    8        4    17   2    4.68   582.0    3.3      54.407
2014    8        4    17   7    4.68   581.9    3.3      54.371
2014    8        4    17  13    4.67   581.8    3.3      54.336
2014    8        4    17  18    4.67   581.6    3.3      54.300
2014    8        4    17  24    4.67   581.5    3.3      54.264
2014    8        4    17  29    4.67   581.3    3.3      54.229
2014    8        4    17  35    4.66   581.2    3.3      54.194
2014    8        4    17  41    4.66   581.0    3.3      54.159
2014    8        4    17  46    4.66   580.9    3.3      54.124
2014    8        4    17  52    4.66   580.8    3.3      54.089
2014    8        4    17  57    4.66   580.6    3.3      54.055
2014    8        4    18   3    4.65   580.5    3.3      54.021
2014    8        4    18   8    4.65   580.3    3.3      53.988
2014    8        4    18  14    4.65   580.2    3.3      53.955
2014    8        4    18  19    4.65   580.0    3.3      53.922
2014    8        4    18  25    4.65   579.9    3.3      53.889
2014    8        4    18  30    4.64   579.7    3.3      53.858
2014    8        4    18  36    4.64   579.6    3.3      53.827
2014    8        4    18  41    4.64   579.4    3.3      53.798
2014    8        4    18  47    4.64   579.3    3.3      53.769
2014    8        4    18  52    4.63   579.2    3.3      53.741
2014    8        4    18  58    4.63   579.0    3.3      53.713
2014    8        4    19   3    4.63   578.9    3.3      53.685
2014    8        4    19   9    4.63   578.7    3.3      53.656
2014    8        4    19  14    4.63   578.6    3.3      53.627
2014    8        4    19  20    4.62   578.5    3.3      53.597
2014    8        4    19  25    4.62   578.3    3.3      53.568
2014    8        4    19  31    4.62   578.2    3.3      53.538
2014    8        4    19  36    4.62   578.0    3.3      53.507
2014    8        4    19  42    4.62   577.9    3.3      53.476
2014    8        4    19  47    4.61   577.8    3.3      53.444
2014    8        4    19  53    4.61   577.6    3.3      53.412
2014    8        4    19  59    4.61   577.5    3.3      53.380
2014    8        4    20   4    4.61   577.3    3.3      53.347
2014    8        4    20  10    4.61   577.2    3.3      53.313
2014    8        4    20  15    4.60   577.0    3.3      53.279
2014    8        4    20  21    4.60   576.9    3.3      53.245
2014    8        4    20  26    4.60   576.8    3.3      53.210
2014    8        4    20  32    4.60   576.6    3.3      53.175
2014    8        4    20  37    4.59   576.5    3.3      53.140
2014    8        4    20  43    4.59   576.3    3.3      53.104
2014    8        4    20  48    4.59   576.2    3.3      53.068
2014    8        4    20  54    4.59   576.0    3.3      53.031
2014    8        4    20  59    4.59   575.9    3.3      52.994
2014    8        4    21   5    4.58   575.7    3.3      52.957
2014    8        4    21  10    4.58   575.6    3.3      52.919
2014    8        4    21  16    4.58   575.4    3.3      52.881
2014    8        4    21  21    4.58   575.2    3.3      52.843
2014    8        4    21  27    4.57   575.1    3.3      52.805
2014    8        4    21  32    4.57   574.9    3.3      52.766
2014    8        4    21  38    4.57   574.8    3.3      52.727
2014    8        4    21  43    4.57   574.6    3.3      52.687
2014    8        4    21  49    4.57   574.5    3.3      52.648
2014    8        4    21  54    4.56   574.3    3.3      52.608
2014    8        4    22   0    4.56   574.1    3.3      52.568
2014    8        4    22   5    4.56   574.0    3.3      52.527
2014    8        4    22  11    4.56   573.8    3.3      52.486
2014    8        4    22  17    4.55   573.7    3.3      52.445
2014    8        4    22  22    4.55   573.5    3.3      52.403
2014    8        4    22  28    4.55   573.3    3.3      52.361
2014    8        4    22  33    4.55   573.2    3.3      52.319
2014    8        4    22  39    4.54   573.0    3.3      52.277
2014    8        4    22  44    4.54   572.8    3.3      52.234
2014    8        4    22  50    4.54   572.7    3.3      52.191
2014    8        4    22  55    4.54   572.5    3.3      52.147
2014    8        4    23   1    4.54   572.3    3.3      52.103
2014    8        4    23   6    4.53   572.1    3.3      52.059
2014    8        4    23  12    4.53   572.0    3.3      52.015
2014    8        4    23  17    4.53   571.8    3.3      51.970
2014    8        4    23  23    4.53   571.6    3.3      51.926
2014    8        4    23  28    4.52   571.4    3.3      51.881
2014    8        4    23  34    4.52   571.3    3.3      51.836
2014    8        4    23  39    4.52   571.1    3.3      51.791
2014    8        4    23  45    4.52   570.9    3.3      51.746
2014    8        4    23  50    4.51   570.7    3.3      51.701
2014    8        4    23  56    4.51   570.6    3.3      51.656
2014    8        5     0   1    4.51   570.4    3.3      51.611
2014    8        5     0   7    4.51   570.2    3.3      51.567
2014    8        5     0  12    4.51   570.0    3.3      51.523
2014    8        5     0  18    4.50   569.8    3.3      51.479
2014    8        5     0  23    4.50   569.7    3.3      51.436
2014    8        5     0  29    4.50   569.5    3.3      51.393
2014    8        5     0  35    4.50   569.3    3.3      51.350
2014    8        5     0  40    4.50   569.1    3.3      51.308
2014    8        5     0  46    4.49   569.0    3.3      51.267
2014    8        5     0  51    4.49   568.8    3.3      51.226
2014    8        5     0  57    4.49   568.6    3.3      51.186
2014    8        5     1   2    4.49   568.4    3.3      51.147
2014    8        5     1   8    4.48   568.3    3.3      51.108
2014    8        5     1  13    4.48   568.1    3.3      51.071
2014    8        5     1  19    4.48   567.9    3.3      51.034
2014    8        5     1  24    4.48   567.7    3.3      50.997
2014    8        5     1  30    4.48   567.6    3.3      50.962
2014    8        5     1  35    4.47   567.4    3.3      50.927
2014    8        5     1  41    4.47   567.2    3.3      50.894
2014    8        5     1  46    4.47   567.0    3.3      50.862
2014    8        5     1  52    4.47   566.9    3.3      50.831
2014    8        5     1  57    4.47   566.7    3.3      50.802
2014    8        5     2   3    4.47   566.5    3.3      50.773
2014    8        5     2   8    4.46   566.4    3.3      50.745
2014    8        5     2  14    4.46   566.2    3.3      50.716
2014    8        5     2  19    4.46   566.0    3.3      50.687
2014    8        5     2  25    4.46   565.8    3.3      50.658
2014    8        5     2  30    4.46   565.7    3.3      50.628
2014    8        5     2  36    4.45   565.5    3.3      50.597
2014    8        5     2  41    4.45   565.3    3.3      50.567
2014    8        5     2  47    4.45   565.1    3.3      50.536
2014    8        5     2  53    4.45   565.0    3.3      50.504
2014    8        5     2  58    4.44   564.8    3.3      50.472
2014    8        5     3   4    4.44   564.6    3.3      50.439
2014    8        5     3   9    4.44   564.4    3.3      50.406
2014    8        5     3  15    4.44   564.2    3.3      50.373
2014    8        5     3  20    4.44   564.0    3.3      50.340
2014    8        5     3  26    4.43   563.8    3.3      50.306
2014    8        5     3  31    4.43   563.7    3.3      50.272
2014    8        5     3  37    4.43   563.5    3.3      50.237
2014    8        5     3  42    4.43   563.3    3.3      50.203
2014    8        5     3  48    4.43   563.1    3.3      50.168
2014    8        5     3  53    4.42   562.9    3.3      50.133
2014    8        5     3  59    4.42   562.7    3.3      50.099
2014    8        5     4   4    4.42   562.5    3.3      50.064
2014    8        5     4  10    4.42   562.3    3.3      50.030
2014    8        5     4  15    4.42   562.1    3.3      49.995
2014    8        5     4  21    4.41   561.9    3.3      49.961
2014    8        5     4  26    4.41   561.7    3.3      49.926
2014    8        5     4  32    4.41   561.5    3.3      49.892
2014    8        5     4  37    4.41   561.3    3.3      49.858
2014    8        5     4  43    4.41   561.1    3.3      49.826
2014    8        5     4  48    4.40   560.9    3.3      49.794
2014    8        5     4  54    4.40   560.7    3.3      49.762
2014    8        5     4  59    4.40   560.5    3.3      49.732
2014    8        5     5   5    4.40   560.3    3.3      49.702
2014    8        5     5  10    4.40   560.2    3.3      49.671
2014    8        5     5  16    4.40   560.0    3.3      49.640
2014    8        5     5  22    4.39   559.8    3.3      49.609
2014    8        5     5  27    4.39   559.6    3.3      49.577
2014    8        5     5  33    4.39   559.4    3.3      49.545
2014    8        5     5  38    4.39   559.2    3.3      49.512
2014    8        5     5  44    4.39   559.0    3.3      49.479
2014    8        5     5  49    4.38   558.9    3.3      49.445
2014    8        5     5  55    4.38   558.7    3.3      49.411
2014    8        5     6   0    4.38   558.5    3.3      49.376
2014    8        5     6   6    4.38   558.3    3.3      49.340
2014    8        5     6  11    4.38   558.1    3.3      49.304
2014    8        5     6  17    4.37   557.9    3.3      49.267
2014    8        5     6  22    4.37   557.8    3.3      49.230
2014    8        5     6  28    4.37   557.6    3.3      49.192
2014    8        5     6  33    4.37   557.4    3.3      49.153
2014    8        5     6  39    4.37   557.2    3.3      49.114
2014    8        5     6  44    4.36   557.0    3.3      49.075
2014    8        5     6  50    4.36   556.8    3.3      49.035
2014    8        5     6  55    4.36   556.6    3.3      48.994
2014    8        5     7   1    4.36   556.5    3.3      48.953
2014    8        5     7   6    4.36   556.3    3.3      48.912
2014    8        5     7  12    4.35   556.1    3.3      48.871
2014    8        5     7  17    4.35   555.9    3.3      48.829
2014    8        5     7  23    4.35   555.7    3.3      48.787
2014    8        5     7  29    4.35   555.5    3.3      48.744
2014    8        5     7  34    4.35   555.3    3.3      48.701
2014    8        5     7  40    4.34   555.2    3.3      48.658
2014    8        5     7  45    4.34   555.0    3.3      48.615
2014    8        5     7  51    4.34   554.8    3.3      48.572
2014    8        5     7  56    4.34   554.6    3.3      48.528
2014    8        5     8   2    4.34   554.4    3.3      48.485
2014    8        5     8   7    4.33   554.2    3.3      48.441
2014    8        5     8  13    4.33   554.0    3.3      48.397
2014    8        5     8  18    4.33   553.8    3.3      48.353
2014    8        5     8  24    4.33   553.6    3.3      48.309
2014    8        5     8  29    4.32   553.4    3.3      48.264
2014    8        5     8  35    4.32   553.2    3.3      48.220
2014    8        5     8  40    4.32   553.1    3.3      48.176
2014    8        5     8  46    4.32   552.9    3.3      48.131
2014    8        5     8  51    4.32   552.7    3.3      48.087
2014    8        5     8  57    4.31   552.5    3.3      48.042
2014    8        5     9   2    4.31   552.3    3.3      47.997
2014    8        5     9   8    4.31   552.1    3.3      47.953
2014    8        5     9  13    4.31   551.9    3.3      47.908
2014    8        5     9  19    4.31   551.7    3.3      47.863
2014    8        5     9  24    4.30   551.5    3.3      47.818
2014    8        5     9  30    4.30   551.2    3.3      47.773
2014    8        5     9  35    4.30   551.0    3.3      47.728
2014    8        5     9  41    4.30   550.8    3.3      47.682
2014    8        5     9  47    4.30   550.6    3.3      47.637
2014    8        5     9  52    4.29   550.4    3.3      47.592
2014    8        5     9  58    4.29   550.2    3.3      47.547
2014    8        5    10   3    4.29   550.0    3.3      47.502
2014    8        5    10   9    4.29   549.7    3.3      47.457
2014    8        5    10  14    4.28   549.5    3.3      47.412
2014    8        5    10  20    4.28   549.3    3.3      47.367
2014    8        5    10  25    4.28   549.1    3.3      47.322
2014    8        5    10  31    4.28   548.8    3.3      47.278
2014    8        5    10  36    4.28   548.6    3.3      47.233
2014    8        5    10  42    4.27   548.4    3.3      47.189
2014    8        5    10  47    4.27   548.2    3.3      47.146
2014    8        5    10  53    4.27   547.9    3.3      47.103
2014    8        5    10  58    4.27   547.7    3.3      47.060
2014    8        5    11   4    4.27   547.5    3.3      47.019
2014    8        5    11   9    4.27   547.2    3.3      46.977
2014    8        5    11  15    4.26   547.0    3.3      46.937
2014    8        5    11  20    4.26   546.8    3.3      46.897
2014    8        5    11  26    4.26   546.5    3.3      46.858
2014    8        5    11  31    4.26   546.3    3.3      46.820
2014    8        5    11  37    4.26   546.1    3.3      46.783
2014    8        5    11  42    4.25   545.8    3.3      46.747
2014    8        5    11  48    4.25   545.6    3.3      46.714
2014    8        5    11  53    4.25   545.4    3.3      46.681
2014    8        5    11  59    4.25   545.1    3.3      46.650
2014    8        5    12   4    4.25   544.9    3.3      46.621
2014    8        5    12  10    4.25   544.7    3.3      46.594
2014    8        5    12  16    4.25   544.5    3.3      46.567
2014    8        5    12  21    4.24   544.3    3.3      46.541
2014    8        5    12  27    4.24   544.0    3.3      46.515
2014    8        5    12  32    4.24   543.8    3.3      46.489
2014    8        5    12  38    4.24   543.6    3.3      46.464
2014    8        5    12  43    4.24   543.4    3.3      46.440
2014    8        5    12  49    4.24   543.2    3.3      46.416
2014    8        5    12  54    4.24   543.0    3.3      46.392
2014    8        5    13   0    4.23   542.8    3.3      46.368
2014    8        5    13   5    4.23   542.6    3.3      46.344
2014    8        5    13  11    4.23   542.4    3.3      46.320
2014    8        5    13  16    4.23   542.2    3.3      46.296
2014    8        5    13  22    4.23   542.0    3.3      46.272
2014    8        5    13  27    4.23   541.8    3.3      46.247
2014    8        5    13  33    4.23   541.6    3.3      46.222
2014    8        5    13  38    4.22   541.4    3.3      46.197
2014    8        5    13  44    4.22   541.2    3.3      46.172
2014    8        5    13  49    4.22   541.0    3.3      46.146
2014    8        5    13  55    4.22   540.8    3.3      46.119
2014    8        5    14   0    4.22   540.5    3.3      46.092
2014    8        5    14   6    4.22   540.3    3.3      46.065
2014    8        5    14  11    4.21   540.1    3.3      46.037
2014    8        5    14  17    4.21   539.9    3.4      46.008
2014    8        5    14  23    4.21   539.7    3.4      45.979
2014    8        5    14  28    4.21   539.5    3.4      45.949
2014    8        5    14  34    4.21   539.3    3.4      45.919
2014    8        5    14  39    4.21   539.1    3.4      45.888
2014    8        5    14  45    4.20   538.8    3.4      45.857
2014    8        5    14  50    4.20   538.6    3.4      45.826
2014    8        5    14  56    4.20   538.4    3.4      45.794
2014    8        5    15   1    4.20   538.2    3.4      45.762
2014    8        5    15   7    4.20   538.0    3.4      45.730
2014    8        5    15  12    4.19   537.7    3.4      45.697
2014    8        5    15  18    4.19   537.5    3.4      45.664
2014    8        5    15  23    4.19   537.3    3.4      45.632
2014    8        5    15  29    4.19   537.1    3.4      45.598
2014    8        5    15  34    4.19   536.9    3.4      45.565
2014    8        5    15  40    4.19   536.6    3.4      45.532
2014    8        5    15  45    4.18   536.4    3.4      45.498
2014    8        5    15  51    4.18   536.2    3.4      45.464
2014    8        5    15  56    4.18   536.0    3.4      45.430
2014    8        5    16   2    4.18   535.8    3.4      45.396
2014    8        5    16   7    4.18   535.5    3.4      45.363
2014    8        5    16  13    4.18   535.3    3.4      45.329
2014    8        5    16  18    4.17   535.1    3.4      45.295
2014    8        5    16  24    4.17   534.9    3.4      45.262
2014    8        5    16  29    4.17   534.7    3.4      45.228
2014    8        5    16  35    4.17   534.4    3.4      45.194
2014    8        5    16  41    4.17   534.2    3.4      45.159
2014    8        5    16  46    4.17   534.0    3.4      45.124
2014    8        5    16  52    4.16   533.8    3.4      45.088
2014    8        5    16  57    4.16   533.6    3.4      45.053
2014    8        5    17   3    4.16   533.3    3.4      45.016
2014    8        5    17   8    4.16   533.1    3.4      44.979
2014    8        5    17  14    4.16   532.9    3.4      44.942
2014    8        5    17  19    4.15   532.7    3.4      44.904
2014    8        5    17  25    4.15   532.4    3.4      44.866
2014    8        5    17  30    4.15   532.2    3.4      44.828
2014    8        5    17  36    4.15   532.0    3.4      44.788
2014    8        5    17  41    4.15   531.8    3.4      44.749
2014    8        5    17  47    4.15   531.5    3.4      44.709
2014    8        5    17  52    4.14   531.3    3.4      44.669
2014    8        5    17  58    4.14   531.1    3.4      44.628
2014    8        5    18   3    4.14   530.8    3.4      44.588
2014    8        5    18   9    4.14   530.6    3.4      44.547
2014    8        5    18  14    4.14   530.4    3.4      44.506
2014    8        5    18  20    4.14   530.1    3.4      44.465
2014    8        5    18  25    4.13   529.9    3.4      44.424
2014    8        5    18  31    4.13   529.7    3.4      44.383
2014    8        5    18  36    4.13   529.4    3.4      44.342
2014    8        5    18  42    4.13   529.2    3.4      44.302
2014    8        5    18  47    4.13   528.9    3.4      44.261
2014    8        5    18  53    4.13   528.7    3.4      44.221
2014    8        5    18  59    4.13   528.5    3.4      44.182
2014    8        5    19   4    4.12   528.2    3.4      44.142
2014    8        5    19  10    4.12   528.0    3.4      44.104
2014    8        5    19  15    4.12   527.8    3.4      44.065
2014    8        5    19  21    4.12   527.5    3.4      44.028
2014    8        5    19  26    4.12   527.3    3.4      43.991
2014    8        5    19  32    4.12   527.1    3.4      43.954
2014    8        5    19  37    4.12   526.8    3.4      43.918
2014    8        5    19  43    4.11   526.6    3.4      43.883
2014    8        5    19  48    4.11   526.4    3.4      43.848
2014    8        5    19  54    4.11   526.1    3.4      43.814
2014    8        5    19  59    4.11   525.9    3.4      43.780
2014    8        5    20   5    4.11   525.7    3.4      43.746
2014    8        5    20  10    4.11   525.4    3.4      43.713
2014    8        5    20  16    4.11   525.2    3.4      43.680
2014    8        5    20  21    4.10   525.0    3.4      43.648
2014    8        5    20  27    4.10   524.7    3.4      43.615
2014    8        5    20  32    4.10   524.5    3.4      43.583
2014    8        5    20  38    4.10   524.3    3.4      43.551
2014    8        5    20  43    4.10   524.0    3.4      43.518
2014    8        5    20  49    4.10   523.8    3.4      43.486
2014    8        5    20  54    4.10   523.6    3.4      43.454
2014    8        5    21   0    4.09   523.3    3.4      43.422
2014    8        5    21   5    4.09   523.1    3.4      43.390
2014    8        5    21  11    4.09   522.8    3.4      43.357
2014    8        5    21  17    4.09   522.6    3.4      43.325
2014    8        5    21  22    4.09   522.4    3.4      43.293
2014    8        5    21  28    4.09   522.1    3.4      43.261
2014    8        5    21  33    4.09   521.9    3.4      43.228
2014    8        5    21  39    4.08   521.6    3.4      43.197
2014    8        5    21  44    4.08   521.4    3.4      43.165
2014    8        5    21  50    4.08   521.1    3.4      43.133
2014    8        5    21  55    4.08   520.9    3.4      43.102
2014    8        5    22   1    4.08   520.6    3.4      43.071
2014    8        5    22   6    4.08   520.3    3.4      43.040
2014    8        5    22  12    4.08   520.1    3.4      43.010
2014    8        5    22  17    4.07   519.8    3.4      42.980
2014    8        5    22  23    4.07   519.6    3.4      42.952
2014    8        5    22  28    4.07   519.3    3.4      42.923
2014    8        5    22  34    4.07   519.1    3.4      42.895
2014    8        5    22  39    4.07   518.8    3.4      42.868
2014    8        5    22  45    4.07   518.6    3.4      42.841
2014    8        5    22  50    4.07   518.3    3.4      42.815
2014    8        5    22  56    4.07   518.1    3.4      42.789
2014    8        5    23   1    4.06   517.8    3.4      42.763
2014    8        5    23   7    4.06   517.6    3.4      42.739
2014    8        5    23  12    4.06   517.3    3.4      42.715
2014    8        5    23  18    4.06   517.1    3.4      42.691
2014    8        5    23  23    4.06   516.8    3.4      42.668
2014    8        5    23  29    4.06   516.6    3.5      42.645
2014    8        5    23  35    4.06   516.4    3.5      42.623
2014    8        5    23  40    4.06   516.1    3.5      42.602
2014    8        5    23  46    4.06   515.9    3.5      42.580
2014    8        5    23  51    4.06   515.6    3.5      42.558
2014    8        5    23  57    4.05   515.4    3.5      42.536
2014    8        6     0   2    4.05   515.2    3.5      42.514
2014    8        6     0   8    4.05   514.9    3.5      42.491
2014    8        6     0  13    4.05   514.7    3.5      42.469
2014    8        6     0  19    4.05   514.5    3.5      42.446
2014    8        6     0  24    4.05   514.2    3.5      42.423
2014    8        6     0  30    4.05   514.0    3.5      42.400
2014    8        6     0  35    4.05   513.7    3.5      42.377
2014    8        6     0  41    4.05   513.5    3.5      42.353
2014    8        6     0  46    4.05   513.3    3.5      42.329
2014    8        6     0  52    4.04   513.0    3.5      42.305
2014    8        6     0  57    4.04   512.8    3.5      42.280
2014    8        6     1   3    4.04   512.6    3.5      42.255
2014    8        6     1   8    4.04   512.3    3.5      42.231
2014    8        6     1  14    4.04   512.1    3.5      42.206
2014    8        6     1  19    4.04   511.9    3.5      42.180
2014    8        6     1  25    4.04   511.6    3.5      42.155
2014    8        6     1  30    4.04   511.4    3.5      42.129
2014    8        6     1  36    4.04   511.2    3.5      42.103
2014    8        6     1  41    4.03   510.9    3.5      42.077
2014    8        6     1  47    4.03   510.7    3.5      42.051
2014    8        6     1  53    4.03   510.5    3.5      42.025
2014    8        6     1  58    4.03   510.2    3.5      41.999
2014    8        6     2   4    4.03   510.0    3.5      41.972
2014    8        6     2   9    4.03   509.8    3.5      41.946
2014    8        6     2  15    4.03   509.5    3.5      41.919
2014    8        6     2  20    4.03   509.3    3.5      41.892
2014    8        6     2  26    4.03   509.1    3.5      41.864
2014    8        6     2  31    4.03   508.8    3.5      41.837
2014    8        6     2  37    4.02   508.6    3.5      41.810
2014    8        6     2  42    4.02   508.4    3.5      41.782
2014    8        6     2  48    4.02   508.1    3.5      41.754
2014    8        6     2  53    4.02   507.9    3.5      41.726
2014    8        6     2  59    4.02   507.7    3.5      41.698
2014    8        6     3   4    4.02   507.4    3.5      41.670
2014    8        6     3  10    4.02   507.2    3.5      41.641
2014    8        6     3  15    4.02   507.0    3.5      41.612
2014    8        6     3  21    4.02   506.7    3.5      41.583
2014    8        6     3  26    4.02   506.5    3.5      41.553
2014    8        6     3  32    4.01   506.3    3.5      41.523
2014    8        6     3  37    4.01   506.0    3.5      41.493
2014    8        6     3  43    4.01   505.8    3.5      41.463
2014    8        6     3  48    4.01   505.5    3.5      41.432
2014    8        6     3  54    4.01   505.3    3.5      41.401
2014    8        6     3  59    4.01   505.1    3.5      41.370
2014    8        6     4   5    4.01   504.8    3.5      41.338
2014    8        6     4  11    4.01   504.6    3.5      41.306
2014    8        6     4  16    4.01   504.3    3.6      41.275
2014    8        6     4  22    4.00   504.1    3.6      41.243
2014    8        6     4  27    4.00   503.8    3.6      41.211
2014    8        6     4  33    4.00   503.6    3.6      41.178
2014    8        6     4  38    4.00   503.3    3.6      41.147
2014    8        6     4  44    4.00   503.1    3.6      41.114
2014    8        6     4  49    4.00   502.8    3.6      41.083
2014    8        6     4  55    4.00   502.6    3.6      41.051
2014    8        6     5   0    4.00   502.3    3.6      41.020
2014    8        6     5   6    4.00   502.1    3.6      40.988
2014    8        6     5  11    4.00   501.9    3.6      40.957
2014    8        6     5  17    4.00   501.6    3.6      40.927
2014    8        6     5  22    3.99   501.4    3.6      40.896
2014    8        6     5  28    3.99   501.1    3.6      40.866
2014    8        6     5  33    3.99   500.9    3.6      40.837
2014    8        6     5  39    3.99   500.6    3.6      40.808
2014    8        6     5  44    3.99   500.4    3.6      40.779
2014    8        6     5  50    3.99   500.1    3.6      40.750
2014    8        6     5  55    3.99   499.9    3.6      40.722
2014    8        6     6   1    3.99   499.6    3.6      40.694
2014    8        6     6   6    3.99   499.4    3.6      40.667
2014    8        6     6  12    3.99   499.1    3.6      40.640
2014    8        6     6  17    3.99   498.9    3.6      40.613
2014    8        6     6  23    3.99   498.7    3.6      40.587
2014    8        6     6  29    3.99   498.4    3.6      40.561
2014    8        6     6  34    3.99   498.2    3.6      40.535
2014    8        6     6  40    3.99   497.9    3.6      40.509
2014    8        6     6  45    3.99   497.7    3.6      40.483
2014    8        6     6  51    3.98   497.4    3.6      40.458
2014    8        6     6  56    3.98   497.2    3.6      40.433
2014    8        6     7   2    3.98   497.0    3.6      40.408
2014    8        6     7   7    3.98   496.7    3.6      40.383
2014    8        6     7  13    3.98   496.5    3.6      40.358
2014    8        6     7  18    3.98   496.2    3.6      40.333
2014    8        6     7  24    3.98   496.0    3.6      40.308
2014    8        6     7  29    3.98   495.8    3.6      40.284
2014    8        6     7  35    3.98   495.5    3.6      40.259
2014    8        6     7  40    3.98   495.3    3.6      40.235
2014    8        6     7  46    3.98   495.0    3.6      40.210
2014    8        6     7  51    3.98   494.8    3.6      40.186
2014    8        6     7  57    3.98   494.6    3.6      40.162
2014    8        6     8   2    3.98   494.3    3.6      40.138
2014    8        6     8   8    3.98   494.1    3.6      40.114
2014    8        6     8  13    3.98   493.9    3.7      40.090
2014    8        6     8  19    3.98   493.6    3.7      40.067
2014    8        6     8  24    3.98   493.4    3.7      40.044
2014    8        6     8  30    3.98   493.1    3.7      40.020
2014    8        6     8  35    3.98   492.9    3.7      39.998
2014    8        6     8  41    3.98   492.7    3.7      39.975
2014    8        6     8  47    3.98   492.4    3.7      39.952
2014    8        6     8  52    3.98   492.2    3.7      39.930
2014    8        6     8  58    3.98   492.0    3.7      39.908
2014    8        6     9   3    3.98   491.7    3.7      39.886
2014    8        6     9   9    3.98   491.5    3.7      39.864
2014    8        6     9  14    3.97   491.3    3.7      39.843
2014    8        6     9  20    3.97   491.0    3.7      39.822
2014    8        6     9  25    3.97   490.8    3.7      39.801
2014    8        6     9  31    3.97   490.6    3.7      39.780
2014    8        6     9  36    3.97   490.3    3.7      39.759
2014    8        6     9  42    3.97   490.1    3.7      39.739
2014    8        6     9  47    3.97   489.9    3.7      39.719
2014    8        6     9  53    3.97   489.6    3.7      39.698
2014    8        6     9  58    3.97   489.4    3.7      39.678
2014    8        6    10   4    3.97   489.2    3.7      39.658
2014    8        6    10   9    3.97   489.0    3.7      39.638
2014    8        6    10  15    3.97   488.7    3.7      39.618
2014    8        6    10  20    3.97   488.5    3.7      39.598
2014    8        6    10  26    3.97   488.3    3.7      39.578
2014    8        6    10  31    3.97   488.1    3.7      39.558
2014    8        6    10  37    3.97   487.8    3.7      39.538
2014    8        6    10  42    3.97   487.6    3.7      39.518
2014    8        6    10  48    3.97   487.4    3.7      39.498
2014    8        6    10  53    3.97   487.2    3.7      39.477
2014    8        6    10  59    3.97   486.9    3.7      39.456
2014    8        6    11   5    3.97   486.7    3.8      39.435
2014    8        6    11  10    3.97   486.5    3.8      39.414
2014    8        6    11  16    3.97   486.3    3.8      39.393
2014    8        6    11  21    3.97   486.0    3.8      39.372
2014    8        6    11  27    3.97   485.8    3.8      39.350
2014    8        6    11  32    3.97   485.6    3.8      39.329
2014    8        6    11  38    3.97   485.4    3.8      39.307
2014    8        6    11  43    3.97   485.1    3.8      39.284
2014    8        6    11  49    3.97   484.9    3.8      39.262
2014    8        6    11  54    3.97   484.7    3.8      39.239
2014    8        6    12   0    3.97   484.5    3.8      39.217
2014    8        6    12   5    3.97   484.3    3.8      39.194
2014    8        6    12  11    3.97   484.0    3.8      39.171
2014    8        6    12  16    3.97   483.8    3.8      39.147
2014    8        6    12  22    3.97   483.6    3.8      39.124
2014    8        6    12  27    3.97   483.4    3.8      39.100
2014    8        6    12  33    3.97   483.1    3.8      39.076
2014    8        6    12  38    3.97   482.9    3.8      39.053
2014    8        6    12  44    3.97   482.7    3.8      39.028
2014    8        6    12  49    3.97   482.5    3.8      39.004
2014    8        6    12  55    3.97   482.3    3.8      38.980
2014    8        6    13   0    3.97   482.0    3.8      38.956
2014    8        6    13   6    3.97   481.8    3.8      38.931
2014    8        6    13  11    3.96   481.6    3.8      38.907
2014    8        6    13  17    3.96   481.4    3.8      38.883
2014    8        6    13  23    3.96   481.1    3.8      38.858
2014    8        6    13  28    3.96   480.9    3.8      38.834
2014    8        6    13  34    3.96   480.7    3.8      38.810
2014    8        6    13  39    3.96   480.5    3.8      38.785
2014    8        6    13  45    3.96   480.3    3.8      38.761
2014    8        6    13  50    3.96   480.0    3.8      38.737
2014    8        6    13  56    3.96   479.8    3.8      38.713
2014    8        6    14   1    3.96   479.6    3.8      38.688
2014    8        6    14   7    3.96   479.4    3.8      38.664
2014    8        6    14  12    3.96   479.1    3.8      38.641
2014    8        6    14  18    3.96   478.9    3.8      38.617
2014    8        6    14  23    3.96   478.7    3.8      38.593
2014    8        6    14  29    3.96   478.5    3.9      38.569
2014    8        6    14  34    3.96   478.3    3.9      38.546
2014    8        6    14  40    3.96   478.0    3.9      38.523
2014    8        6    14  45    3.96   477.8    3.9      38.499
2014    8        6    14  51    3.96   477.6    3.9      38.476
2014    8        6    14  56    3.96   477.4    3.9      38.453
2014    8        6    15   2    3.96   477.2    3.9      38.431
2014    8        6    15   7    3.96   476.9    3.9      38.408
2014    8        6    15  13    3.96   476.7    3.9      38.386
2014    8        6    15  18    3.96   476.5    3.9      38.363
2014    8        6    15  24    3.96   476.3    3.9      38.341
2014    8        6    15  30    3.96   476.1    3.9      38.319
2014    8        6    15  35    3.96   475.8    3.9      38.297
2014    8        6    15  41    3.96   475.6    3.9      38.276
2014    8        6    15  46    3.96   475.4    3.9      38.254
2014    8        6    15  52    3.96   475.2    3.9      38.233
2014    8        6    15  57    3.96   475.0    3.9      38.211
2014    8        6    16   3    3.96   474.7    3.9      38.190
2014    8        6    16   8    3.96   474.5    3.9      38.169
2014    8        6    16  14    3.96   474.3    3.9      38.148
2014    8        6    16  19    3.96   474.1    3.9      38.128
2014    8        6    16  25    3.96   473.9    3.9      38.107
2014    8        6    16  30    3.96   473.6    3.9      38.087
2014    8        6    16  36    3.96   473.4    3.9      38.066
2014    8        6    16  41    3.96   473.2    3.9      38.046
2014    8        6    16  47    3.96   473.0    3.9      38.026
2014    8        6    16  52    3.96   472.8    3.9      38.006
2014    8        6    16  58    3.96   472.6    3.9      37.986
2014    8        6    17   3    3.96   472.3    3.9      37.967
2014    8        6    17   9    3.96   472.1    3.9      37.947
2014    8        6    17  14    3.96   471.9    3.9      37.928
2014    8        6    17  20    3.96   471.7    3.9      37.908
2014    8        6    17  25    3.96   471.5    3.9      37.889
2014    8        6    17  31    3.96   471.3    4.0      37.869
2014    8        6    17  36    3.96   471.1    4.0      37.850
2014    8        6    17  42    3.96   470.8    4.0      37.831
2014    8        6    17  48    3.96   470.6    4.0      37.812
2014    8        6    17  53    3.96   470.4    4.0      37.792
2014    8        6    17  59    3.96   470.2    4.0      37.773
2014    8        6    18   4    3.96   470.0    4.0      37.754
2014    8        6    18  10    3.97   469.8    4.0      37.735
2014    8        6    18  15    3.97   469.6    4.0      37.716
2014    8        6    18  21    3.97   469.4    4.0      37.697
2014    8        6    18  26    3.97   469.1    4.0      37.678
2014    8        6    18  32    3.97   468.9    4.0      37.659
2014    8        6    18  37    3.97   468.7    4.0      37.640
2014    8        6    18  43    3.97   468.5    4.0      37.620
2014    8        6    18  48    3.97   468.3    4.0      37.601
2014    8        6    18  54    3.97   468.1    4.0      37.582
2014    8        6    18  59    3.97   467.9    4.0      37.562
2014    8        6    19   5    3.97   467.7    4.0      37.542
2014    8        6    19  10    3.97   467.5    4.0      37.523
2014    8        6    19  16    3.97   467.3    4.0      37.503
2014    8        6    19  21    3.97   467.0    4.0      37.483
2014    8        6    19  27    3.97   466.8    4.0      37.463
2014    8        6    19  32    3.97   466.6    4.0      37.443
2014    8        6    19  38    3.97   466.4    4.0      37.423
2014    8        6    19  43    3.97   466.2    4.0      37.402
2014    8        6    19  49    3.97   466.0    4.0      37.382
2014    8        6    19  55    3.97   465.8    4.0      37.361
2014    8        6    20   0    3.97   465.6    4.0      37.341
2014    8        6    20   6    3.97   465.4    4.1      37.320
2014    8        6    20  11    3.97   465.2    4.1      37.299
2014    8        6    20  17    3.97   464.9    4.1      37.278
2014    8        6    20  22    3.97   464.7    4.1      37.257
2014    8        6    20  28    3.97   464.5    4.1      37.236
2014    8        6    20  33    3.97   464.3    4.1      37.214
2014    8        6    20  39    3.97   464.1    4.1      37.193
2014    8        6    20  44    3.97   463.9    4.1      37.172
2014    8        6    20  50    3.97   463.7    4.1      37.150
2014    8        6    20  55    3.97   463.5    4.1      37.129
2014    8        6    21   1    3.97   463.3    4.1      37.107
2014    8        6    21   6    3.97   463.1    4.1      37.086
2014    8        6    21  12    3.97   462.9    4.1      37.064
2014    8        6    21  17    3.97   462.6    4.1      37.043
2014    8        6    21  23    3.97   462.4    4.1      37.021
2014    8        6    21  28    3.97   462.2    4.1      37.000
2014    8        6    21  34    3.97   462.0    4.1      36.979
2014    8        6    21  39    3.97   461.8    4.1      36.957
2014    8        6    21  45    3.97   461.6    4.1      36.936
2014    8        6    21  50    3.97   461.4    4.1      36.915
2014    8        6    21  56    3.97   461.2    4.1      36.894
2014    8        6    22   1    3.97   461.0    4.1      36.873
2014    8        6    22   7    3.97   460.8    4.1      36.853
2014    8        6    22  13    3.97   460.6    4.1      36.832
2014    8        6    22  18    3.97   460.3    4.1      36.812
2014    8        6    22  24    3.97   460.1    4.1      36.791
2014    8        6    22  29    3.97   459.9    4.1      36.771
2014    8        6    22  35    3.97   459.7    4.1      36.751
2014    8        6    22  40    3.97   459.5    4.1      36.732
2014    8        6    22  46    3.97   459.3    4.1      36.712
2014    8        6    22  51    3.97   459.1    4.1      36.693
2014    8        6    22  57    3.97   458.9    4.1      36.674
2014    8        6    23   2    3.97   458.7    4.1      36.655
2014    8        6    23   8    3.97   458.5    4.2      36.636
2014    8        6    23  13    3.97   458.3    4.2      36.618
2014    8        6    23  19    3.97   458.1    4.2      36.599
2014    8        6    23  24    3.97   457.9    4.2      36.581
2014    8        6    23  30    3.97   457.7    4.2      36.563
2014    8        6    23  35    3.97   457.4    4.2      36.546
2014    8        6    23  41    3.97   457.2    4.2      36.528
2014    8        6    23  46    3.98   457.0    4.2      36.511
2014    8        6    23  52    3.98   456.8    4.2      36.494
2014    8        6    23  57    3.98   456.6    4.2      36.477
2014    8        7     0   3    3.98   456.4    4.2      36.460
2014    8        7     0   8    3.98   456.2    4.2      36.443
2014    8        7     0  14    3.98   456.0    4.2      36.427
2014    8        7     0  20    3.98   455.8    4.2      36.410
2014    8        7     0  25    3.98   455.6    4.2      36.394
2014    8        7     0  31    3.98   455.4    4.2      36.378
2014    8        7     0  36    3.98   455.2    4.2      36.362
2014    8        7     0  42    3.98   455.0    4.2      36.346
2014    8        7     0  47    3.98   454.8    4.2      36.331
2014    8        7     0  53    3.98   454.6    4.2      36.315
2014    8        7     0  58    3.98   454.4    4.2      36.300
2014    8        7     1   4    3.98   454.2    4.2      36.285
2014    8        7     1   9    3.98   454.0    4.2      36.270
2014    8        7     1  15    3.98   453.8    4.2      36.254
2014    8        7     1  20    3.98   453.6    4.2      36.239
2014    8        7     1  26    3.98   453.4    4.2      36.224
2014    8        7     1  31    3.98   453.2    4.2      36.209
2014    8        7     1  37    3.98   453.0    4.2      36.194
2014    8        7     1  42    3.98   452.8    4.3      36.179
2014    8        7     1  48    3.98   452.6    4.3      36.164
2014    8        7     1  53    3.98   452.4    4.3      36.150
2014    8        7     1  59    3.98   452.2    4.3      36.135
2014    8        7     2   4    3.98   452.0    4.3      36.120
2014    8        7     2  10    3.99   451.8    4.3      36.105
2014    8        7     2  15    3.99   451.6    4.3      36.090
2014    8        7     2  21    3.99   451.4    4.3      36.074
2014    8        7     2  26    3.99   451.2    4.3      36.059
2014    8        7     2  32    3.99   451.0    4.3      36.044
2014    8        7     2  38    3.99   450.8    4.3      36.028
2014    8        7     2  43    3.99   450.6    4.3      36.013
2014    8        7     2  49    3.99   450.4    4.3      35.997
2014    8        7     2  54    3.99   450.2    4.3      35.981
2014    8        7     3   0    3.99   450.0    4.3      35.965
2014    8        7     3   5    3.99   449.8    4.3      35.949
2014    8        7     3  11    3.99   449.6    4.3      35.933
2014    8        7     3  16    3.99   449.4    4.3      35.917
2014    8        7     3  22    3.99   449.2    4.3      35.900
2014    8        7     3  27    3.99   449.0    4.3      35.883
2014    8        7     3  33    3.99   448.8    4.3      35.867
2014    8        7     3  38    3.99   448.6    4.3      35.849
2014    8        7     3  44    3.99   448.4    4.3      35.832
2014    8        7     3  49    3.99   448.2    4.3      35.815
2014    8        7     3  55    3.99   448.0    4.3      35.797
2014    8        7     4   0    3.99   447.8    4.3      35.780
2014    8        7     4   6    3.99   447.6    4.4      35.762
2014    8        7     4  11    4.00   447.4    4.4      35.744
2014    8        7     4  17    4.00   447.2    4.4      35.726
2014    8        7     4  22    4.00   447.0    4.4      35.708
2014    8        7     4  28    4.00   446.8    4.4      35.690
2014    8        7     4  33    4.00   446.7    4.4      35.671
2014    8        7     4  39    4.00   446.5    4.4      35.653
2014    8        7     4  45    4.00   446.3    4.4      35.635
2014    8        7     4  50    4.00   446.1    4.4      35.616
2014    8        7     4  56    4.00   445.9    4.4      35.597
2014    8        7     5   1    4.00   445.7    4.4      35.579
2014    8        7     5   7    4.00   445.5    4.4      35.560
2014    8        7     5  12    4.00   445.3    4.4      35.541
2014    8        7     5  18    4.00   445.1    4.4      35.522
2014    8        7     5  23    4.00   444.9    4.4      35.504
2014    8        7     5  29    4.00   444.7    4.4      35.485
2014    8        7     5  34    4.00   444.5    4.4      35.466
2014    8        7     5  40    4.00   444.3    4.4      35.448
2014    8        7     5  45    4.00   444.1    4.4      35.429
2014    8        7     5  51    4.01   443.9    4.4      35.411
2014    8        7     5  56    4.01   443.7    4.4      35.392
2014    8        7     6   2    4.01   443.5    4.4      35.374
2014    8        7     6   7    4.01   443.3    4.4      35.356
2014    8        7     6  13    4.01   443.1    4.4      35.338
2014    8        7     6  18    4.01   442.9    4.4      35.320
2014    8        7     6  24    4.01   442.8    4.4      35.302
2014    8        7     6  29    4.01   442.6    4.4      35.284
2014    8        7     6  35    4.01   442.4    4.5      35.267
2014    8        7     6  40    4.01   442.2    4.5      35.250
2014    8        7     6  46    4.01   442.0    4.5      35.233
2014    8        7     6  51    4.01   441.8    4.5      35.216
2014    8        7     6  57    4.01   441.6    4.5      35.199
2014    8        7     7   3    4.01   441.4    4.5      35.182
2014    8        7     7   8    4.01   441.2    4.5      35.166
2014    8        7     7  14    4.02   441.0    4.5      35.150
2014    8        7     7  19    4.02   440.8    4.5      35.134
2014    8        7     7  25    4.02   440.6    4.5      35.118
2014    8        7     7  30    4.02   440.5    4.5      35.102
2014    8        7     7  36    4.02   440.3    4.5      35.087
2014    8        7     7  41    4.02   440.1    4.5      35.072
2014    8        7     7  47    4.02   439.9    4.5      35.056
2014    8        7     7  52    4.02   439.7    4.5      35.042
2014    8        7     7  58    4.02   439.5    4.5      35.027
2014    8        7     8   3    4.02   439.3    4.5      35.012
2014    8        7     8   9    4.02   439.1    4.5      34.998
2014    8        7     8  14    4.02   438.9    4.5      34.984
2014    8        7     8  20    4.02   438.8    4.5      34.969
2014    8        7     8  25    4.02   438.6    4.5      34.956
2014    8        7     8  31    4.03   438.4    4.5      34.942
2014    8        7     8  36    4.03   438.2    4.5      34.928
2014    8        7     8  42    4.03   438.0    4.5      34.914
2014    8        7     8  47    4.03   437.8    4.5      34.901
2014    8        7     8  53    4.03   437.6    4.6      34.888
2014    8        7     8  58    4.03   437.4    4.6      34.874
2014    8        7     9   4    4.03   437.3    4.6      34.861
2014    8        7     9  10    4.03   437.1    4.6      34.848
2014    8        7     9  15    4.03   436.9    4.6      34.835
2014    8        7     9  21    4.03   436.7    4.6      34.822
2014    8        7     9  26    4.03   436.5    4.6      34.809
2014    8        7     9  32    4.03   436.3    4.6      34.797
2014    8        7     9  37    4.04   436.1    4.6      34.784
2014    8        7     9  43    4.04   436.0    4.6      34.771
2014    8        7     9  48    4.04   435.8    4.6      34.759
2014    8        7     9  54    4.04   435.6    4.6      34.746
2014    8        7     9  59    4.04   435.4    4.6      34.733
2014    8        7    10   5    4.04   435.2    4.6      34.721
2014    8        7    10  10    4.04   435.0    4.6      34.708
2014    8        7    10  16    4.04   434.9    4.6      34.696
2014    8        7    10  21    4.04   434.7    4.6      34.683
2014    8        7    10  27    4.04   434.5    4.6      34.671
2014    8        7    10  32    4.05   434.3    4.6      34.658
2014    8        7    10  38    4.05   434.1    4.6      34.645
2014    8        7    10  43    4.05   433.9    4.6      34.633
2014    8        7    10  49    4.05   433.8    4.6      34.620
2014    8        7    10  54    4.05   433.6    4.6      34.607
2014    8        7    11   0    4.05   433.4    4.7      34.595
2014    8        7    11   5    4.05   433.2    4.7      34.582
2014    8        7    11  11    4.05   433.0    4.7      34.569
2014    8        7    11  16    4.05   432.9    4.7      34.556
2014    8        7    11  22    4.05   432.7    4.7      34.543
2014    8        7    11  28    4.06   432.5    4.7      34.530
2014    8        7    11  33    4.06   432.3    4.7      34.517
2014    8        7    11  39    4.06   432.1    4.7      34.504
2014    8        7    11  44    4.06   432.0    4.7      34.491
2014    8        7    11  50    4.06   431.8    4.7      34.477
2014    8        7    11  55    4.06   431.6    4.7      34.464
2014    8        7    12   1    4.06   431.4    4.7      34.450
2014    8        7    12   6    4.06   431.3    4.7      34.437
2014    8        7    12  12    4.06   431.1    4.7      34.423
2014    8        7    12  17    4.06   430.9    4.7      34.410
2014    8        7    12  23    4.07   430.7    4.7      34.396
2014    8        7    12  28    4.07   430.5    4.7      34.382
2014    8        7    12  34    4.07   430.4    4.7      34.368
2014    8        7    12  39    4.07   430.2    4.7      34.354
2014    8        7    12  45    4.07   430.0    4.7      34.339
2014    8        7    12  50    4.07   429.8    4.7      34.325
2014    8        7    12  56    4.07   429.7    4.8      34.311
2014    8        7    13   1    4.07   429.5    4.8      34.296
2014    8        7    13   7    4.07   429.3    4.8      34.282
2014    8        7    13  12    4.08   429.1    4.8      34.267
2014    8        7    13  18    4.08   429.0    4.8      34.252
2014    8        7    13  23    4.08   428.8    4.8      34.238
2014    8        7    13  29    4.08   428.6    4.8      34.223
2014    8        7    13  35    4.08   428.4    4.8      34.208
2014    8        7    13  40    4.08   428.3    4.8      34.193
2014    8        7    13  46    4.08   428.1    4.8      34.178
2014    8        7    13  51    4.08   427.9    4.8      34.163
2014    8        7    13  57    4.08   427.7    4.8      34.148
2014    8        7    14   2    4.09   427.6    4.8      34.133
2014    8        7    14   8    4.09   427.4    4.8      34.118
2014    8        7    14  13    4.09   427.2    4.8      34.103
2014    8        7    14  19    4.09   427.0    4.8      34.088
2014    8        7    14  24    4.09   426.9    4.8      34.073
2014    8        7    14  30    4.09   426.7    4.8      34.058
2014    8        7    14  35    4.09   426.5    4.8      34.043
2014    8        7    14  41    4.09   426.3    4.8      34.028
2014    8        7    14  46    4.09   426.2    4.8      34.013
2014    8        7    14  52    4.10   426.0    4.9      33.998
2014    8        7    14  57    4.10   425.8    4.9      33.984
2014    8        7    15   3    4.10   425.6    4.9      33.969
2014    8        7    15   8    4.10   425.5    4.9      33.954
2014    8        7    15  14    4.10   425.3    4.9      33.939
2014    8        7    15  19    4.10   425.1    4.9      33.925
2014    8        7    15  25    4.10   424.9    4.9      33.910
2014    8        7    15  30    4.10   424.8    4.9      33.895
2014    8        7    15  36    4.10   424.6    4.9      33.881
2014    8        7    15  41    4.11   424.4    4.9      33.866
2014    8        7    15  47    4.11   424.2    4.9      33.852
2014    8        7    15  53    4.11   424.1    4.9      33.837
2014    8        7    15  58    4.11   423.9    4.9      33.823
2014    8        7    16   4    4.11   423.7    4.9      33.808
2014    8        7    16   9    4.11   423.5    4.9      33.794
2014    8        7    16  15    4.11   423.4    4.9      33.780
2014    8        7    16  20    4.11   423.2    4.9      33.766
2014    8        7    16  26    4.12   423.0    4.9      33.752
2014    8        7    16  31    4.12   422.9    4.9      33.737
2014    8        7    16  37    4.12   422.7    4.9      33.724
2014    8        7    16  42    4.12   422.5    4.9      33.710
2014    8        7    16  48    4.12   422.3    4.9      33.696
2014    8        7    16  53    4.12   422.2    4.9      33.682
2014    8        7    16  59    4.12   422.0    5.0      33.669
2014    8        7    17   4    4.12   421.8    5.0      33.655
2014    8        7    17  10    4.13   421.7    5.0      33.642
2014    8        7    17  15    4.13   421.5    5.0      33.629
2014    8        7    17  21    4.13   421.3    5.0      33.615
2014    8        7    17  26    4.13   421.1    5.0      33.602
2014    8        7    17  32    4.13   421.0    5.0      33.590
2014    8        7    17  37    4.13   420.8    5.0      33.577
2014    8        7    17  43    4.13   420.6    5.0      33.564
2014    8        7    17  48    4.14   420.5    5.0      33.551
2014    8        7    17  54    4.14   420.3    5.0      33.539
2014    8        7    18   0    4.14   420.1    5.0      33.527
2014    8        7    18   5    4.14   420.0    5.0      33.515
2014    8        7    18  11    4.14   419.8    5.0      33.503
2014    8        7    18  16    4.14   419.6    5.0      33.491
2014    8        7    18  22    4.14   419.4    5.0      33.479
2014    8        7    18  27    4.15   419.3    5.0      33.467
2014    8        7    18  33    4.15   419.1    5.0      33.456
2014    8        7    18  38    4.15   418.9    5.0      33.444
2014    8        7    18  44    4.15   418.8    5.0      33.433
2014    8        7    18  49    4.15   418.6    5.1      33.422
2014    8        7    18  55    4.15   418.4    5.1      33.410
2014    8        7    19   0    4.16   418.3    5.1      33.399
2014    8        7    19   6    4.16   418.1    5.1      33.388
2014    8        7    19  11    4.16   417.9    5.1      33.377
2014    8        7    19  17    4.16   417.8    5.1      33.367
2014    8        7    19  22    4.16   417.6    5.1      33.356
2014    8        7    19  28    4.16   417.4    5.1      33.345
2014    8        7    19  33    4.17   417.3    5.1      33.335
2014    8        7    19  39    4.17   417.1    5.1      33.324
2014    8        7    19  44    4.17   417.0    5.1      33.314
2014    8        7    19  50    4.17   416.8    5.1      33.303
2014    8        7    19  55    4.17   416.6    5.1      33.293
2014    8        7    20   1    4.17   416.5    5.1      33.282
2014    8        7    20   6    4.18   416.3    5.1      33.272
2014    8        7    20  12    4.18   416.1    5.1      33.261
2014    8        7    20  18    4.18   416.0    5.1      33.251
2014    8        7    20  23    4.18   415.8    5.1      33.240
2014    8        7    20  29    4.18   415.6    5.2      33.230
2014    8        7    20  34    4.18   415.5    5.2      33.219
2014    8        7    20  40    4.19   415.3    5.2      33.209
2014    8        7    20  45    4.19   415.2    5.2      33.198
2014    8        7    20  51    4.19   415.0    5.2      33.187
2014    8        7    20  56    4.19   414.8    5.2      33.176
2014    8        7    21   2    4.19   414.7    5.2      33.166
2014    8        7    21   7    4.19   414.5    5.2      33.155
2014    8        7    21  13    4.19   414.3    5.2      33.144
2014    8        7    21  18    4.20   414.2    5.2      33.133
2014    8        7    21  24    4.20   414.0    5.2      33.122
2014    8        7    21  29    4.20   413.9    5.2      33.111
2014    8        7    21  35    4.20   413.7    5.2      33.099
2014    8        7    21  40    4.20   413.5    5.2      33.088
2014    8        7    21  46    4.20   413.4    5.2      33.077
2014    8        7    21  51    4.21   413.2    5.2      33.065
2014    8        7    21  57    4.21   413.0    5.2      33.053
2014    8        7    22   2    4.21   412.9    5.3      33.042
2014    8        7    22   8    4.21   412.7    5.3      33.030
2014    8        7    22  13    4.21   412.6    5.3      33.018
2014    8        7    22  19    4.21   412.4    5.3      33.006
2014    8        7    22  25    4.22   412.2    5.3      32.994
2014    8        7    22  30    4.22   412.1    5.3      32.982
2014    8        7    22  36    4.22   411.9    5.3      32.970
2014    8        7    22  41    4.22   411.7    5.3      32.958
2014    8        7    22  47    4.22   411.6    5.3      32.946
2014    8        7    22  52    4.22   411.4    5.3      32.933
2014    8        7    22  58    4.23   411.2    5.3      32.921
2014    8        7    23   3    4.23   411.1    5.3      32.909
2014    8        7    23   9    4.23   410.9    5.3      32.897
2014    8        7    23  14    4.23   410.7    5.3      32.884
2014    8        7    23  20    4.23   410.6    5.3      32.872
2014    8        7    23  25    4.23   410.4    5.3      32.860
2014    8        7    23  31    4.24   410.2    5.3      32.847
2014    8        7    23  36    4.24   410.1    5.3      32.835
2014    8        7    23  42    4.24   409.9    5.4      32.823
2014    8        7    23  47    4.24   409.8    5.4      32.811
2014    8        7    23  53    4.24   409.6    5.4      32.800
2014    8        7    23  58    4.25   409.4    5.4      32.788
2014    8        8     0   4    4.25   409.3    5.4      32.776
2014    8        8     0   9    4.25   409.1    5.4      32.764
2014    8        8     0  15    4.25   408.9    5.4      32.753
2014    8        8     0  20    4.25   408.8    5.4      32.742
2014    8        8     0  26    4.25   408.6    5.4      32.730
2014    8        8     0  31    4.26   408.4    5.4      32.719
2014    8        8     0  37    4.26   408.3    5.4      32.709
2014    8        8     0  43    4.26   408.1    5.4      32.698
2014    8        8     0  48    4.26   407.9    5.4      32.687
2014    8        8     0  54    4.27   407.8    5.4      32.677
2014    8        8     0  59    4.27   407.6    5.4      32.666
2014    8        8     1   5    4.27   407.5    5.4      32.656
2014    8        8     1  10    4.27   407.3    5.4      32.646
2014    8        8     1  16    4.27   407.1    5.5      32.637
2014    8        8     1  21    4.28   407.0    5.5      32.627
2014    8        8     1  27    4.28   406.8    5.5      32.617
2014    8        8     1  32    4.28   406.7    5.5      32.608
2014    8        8     1  38    4.28   406.5    5.5      32.599
2014    8        8     1  43    4.29   406.3    5.5      32.590
2014    8        8     1  49    4.29   406.2    5.5      32.581
2014    8        8     1  54    4.29   406.0    5.5      32.572
2014    8        8     2   0    4.29   405.9    5.5      32.563
2014    8        8     2   5    4.29   405.7    5.5      32.555
2014    8        8     2  11    4.30   405.5    5.5      32.546
2014    8        8     2  16    4.30   405.4    5.5      32.538
2014    8        8     2  22    4.30   405.2    5.5      32.529
2014    8        8     2  27    4.30   405.1    5.5      32.521
2014    8        8     2  33    4.31   404.9    5.5      32.513
2014    8        8     2  38    4.31   404.8    5.6      32.505
2014    8        8     2  44    4.31   404.6    5.6      32.497
2014    8        8     2  50    4.31   404.4    5.6      32.489
2014    8        8     2  55    4.32   404.3    5.6      32.481
2014    8        8     3   1    4.32   404.1    5.6      32.473
2014    8        8     3   6    4.32   404.0    5.6      32.465
2014    8        8     3  12    4.32   403.8    5.6      32.457
2014    8        8     3  17    4.33   403.7    5.6      32.449
2014    8        8     3  23    4.33   403.5    5.6      32.441
2014    8        8     3  28    4.33   403.4    5.6      32.434
2014    8        8     3  34    4.33   403.2    5.6      32.426
2014    8        8     3  39    4.33   403.1    5.6      32.418
2014    8        8     3  45    4.34   402.9    5.6      32.410
2014    8        8     3  50    4.34   402.8    5.6      32.402
2014    8        8     3  56    4.34   402.6    5.7      32.395
2014    8        8     4   1    4.34   402.4    5.7      32.387
2014    8        8     4   7    4.35   402.3    5.7      32.379
2014    8        8     4  12    4.35   402.1    5.7      32.372
2014    8        8     4  18    4.35   402.0    5.7      32.364
2014    8        8     4  23    4.35   401.8    5.7      32.357
2014    8        8     4  29    4.36   401.7    5.7      32.349
2014    8        8     4  34    4.36   401.5    5.7      32.342
2014    8        8     4  40    4.36   401.4    5.7      32.335
2014    8        8     4  45    4.36   401.2    5.7      32.328
2014    8        8     4  51    4.37   401.1    5.7      32.320
2014    8        8     4  56    4.37   400.9    5.7      32.313
2014    8        8     5   2    4.37   400.8    5.7      32.306
2014    8        8     5   8    4.38   400.6    5.7      32.300
2014    8        8     5  13    4.38   400.5    5.8      32.293
2014    8        8     5  19    4.38   400.3    5.8      32.286
2014    8        8     5  24    4.38   400.2    5.8      32.280
2014    8        8     5  30    4.39   400.0    5.8      32.274
2014    8        8     5  35    4.39   399.9    5.8      32.267
2014    8        8     5  41    4.39   399.7    5.8      32.261
2014    8        8     5  46    4.39   399.6    5.8      32.255
2014    8        8     5  52    4.40   399.4    5.8      32.250
2014    8        8     5  57    4.40   399.3    5.8      32.244
2014    8        8     6   3    4.40   399.1    5.8      32.239
2014    8        8     6   8    4.41   399.0    5.8      32.233
2014    8        8     6  14    4.41   398.9    5.8      32.228
2014    8        8     6  19    4.41   398.7    5.9      32.223
2014    8        8     6  25    4.41   398.6    5.9      32.218
2014    8        8     6  30    4.42   398.4    5.9      32.213
2014    8        8     6  36    4.42   398.3    5.9      32.209
2014    8        8     6  41    4.42   398.1    5.9      32.205
2014    8        8     6  47    4.43   398.0    5.9      32.200
2014    8        8     6  52    4.43   397.9    5.9      32.196
2014    8        8     6  58    4.43   397.7    5.9      32.192
2014    8        8     7   3    4.43   397.6    5.9      32.188
2014    8        8     7   9    4.44   397.4    5.9      32.185
2014    8        8     7  15    4.44   397.3    5.9      32.181
2014    8        8     7  20    4.44   397.2    6.0      32.178
2014    8        8     7  26    4.45   397.0    6.0      32.174
2014    8        8     7  31    4.45   396.9    6.0      32.171
2014    8        8     7  37    4.45   396.7    6.0      32.168
2014    8        8     7  42    4.46   396.6    6.0      32.165
2014    8        8     7  48    4.46   396.5    6.0      32.163
2014    8        8     7  53    4.46   396.3    6.0      32.160
2014    8        8     7  59    4.47   396.2    6.0      32.157
2014    8        8     8   4    4.47   396.1    6.0      32.155
2014    8        8     8  10    4.47   395.9    6.0      32.153
2014    8        8     8  15    4.47   395.8    6.0      32.150
2014    8        8     8  21    4.48   395.7    6.1      32.148
2014    8        8     8  26    4.48   395.5    6.1      32.146
2014    8        8     8  32    4.48   395.4    6.1      32.144
2014    8        8     8  37    4.49   395.3    6.1      32.142
2014    8        8     8  43    4.49   395.1    6.1      32.141
2014    8        8     8  48    4.49   395.0    6.1      32.139
2014    8        8     8  54    4.50   394.9    6.1      32.137
2014    8        8     8  59    4.50   394.7    6.1      32.136
2014    8        8     9   5    4.50   394.6    6.1      32.134
2014    8        8     9  10    4.51   394.5    6.1      32.133
2014    8        8     9  16    4.51   394.4    6.1      32.132
2014    8        8     9  21    4.51   394.2    6.2      32.130
2014    8        8     9  27    4.52   394.1    6.2      32.129
2014    8        8     9  33    4.52   394.0    6.2      32.128
2014    8        8     9  38    4.52   393.9    6.2      32.127
2014    8        8     9  44    4.53   393.7    6.2      32.126
2014    8        8     9  49    4.53   393.6    6.2      32.125
2014    8        8     9  55    4.53   393.5    6.2      32.124
2014    8        8    10   0    4.54   393.4    6.2      32.123
2014    8        8    10   6    4.54   393.2    6.2      32.123
2014    8        8    10  11    4.54   393.1    6.2      32.122
2014    8        8    10  17    4.55   393.0    6.2      32.121
2014    8        8    10  22    4.55   392.9    6.3      32.120
2014    8        8    10  28    4.55   392.7    6.3      32.120
2014    8        8    10  33    4.56   392.6    6.3      32.119
2014    8        8    10  39    4.56   392.5    6.3      32.119
2014    8        8    10  44    4.57   392.4    6.3      32.118
2014    8        8    10  50    4.57   392.3    6.3      32.118
2014    8        8    10  55    4.57   392.1    6.3      32.118
2014    8        8    11   1    4.58   392.0    6.3      32.118
2014    8        8    11   6    4.58   391.9    6.3      32.118
2014    8        8    11  12    4.58   391.8    6.3      32.118
2014    8        8    11  17    4.59   391.7    6.3      32.118
2014    8        8    11  23    4.59   391.6    6.4      32.118
2014    8        8    11  28    4.59   391.4    6.4      32.118
2014    8        8    11  34    4.60   391.3    6.4      32.118
2014    8        8    11  39    4.60   391.2    6.4      32.119
2014    8        8    11  45    4.61   391.1    6.4      32.120
2014    8        8    11  51    4.61   391.0    6.4      32.120
2014    8        8    11  56    4.61   390.9    6.4      32.121
2014    8        8    12   2    4.62   390.8    6.4      32.123
2014    8        8    12   7    4.62   390.7    6.4      32.124
2014    8        8    12  13    4.62   390.6    6.4      32.125
2014    8        8    12  18    4.63   390.4    6.5      32.127
2014    8        8    12  24    4.63   390.3    6.5      32.128
2014    8        8    12  29    4.64   390.2    6.5      32.130
2014    8        8    12  35    4.64   390.1    6.5      32.132
2014    8        8    12  40    4.64   390.0    6.5      32.134
2014    8        8    12  46    4.65   389.9    6.5      32.136
2014    8        8    12  51    4.65   389.8    6.5      32.139
2014    8        8    12  57    4.65   389.7    6.5      32.142
2014    8        8    13   2    4.66   389.6    6.5      32.144
2014    8        8    13   8    4.66   389.5    6.5      32.147
2014    8        8    13  13    4.67   389.4    6.6      32.151
2014    8        8    13  19    4.67   389.3    6.6      32.154
2014    8        8    13  24    4.67   389.2    6.6      32.157
2014    8        8    13  30    4.68   389.1    6.6      32.161
2014    8        8    13  35    4.68   389.0    6.6      32.164
2014    8        8    13  41    4.69   388.9    6.6      32.168
2014    8        8    13  46    4.69   388.8    6.6      32.172
2014    8        8    13  52    4.69   388.7    6.6      32.176
2014    8        8    13  58    4.70   388.6    6.6      32.181
2014    8        8    14   3    4.70   388.6    6.7      32.185
2014    8        8    14   9    4.71   388.5    6.7      32.189
2014    8        8    14  14    4.71   388.4    6.7      32.194
2014    8        8    14  20    4.71   388.3    6.7      32.198
2014    8        8    14  25    4.72   388.2    6.7      32.203
2014    8        8    14  31    4.72   388.1    6.7      32.208
2014    8        8    14  36    4.73   388.0    6.7      32.213
2014    8        8    14  42    4.73   387.9    6.7      32.218
2014    8        8    14  47    4.74   387.8    6.7      32.223
2014    8        8    14  53    4.74   387.7    6.8      32.228
2014    8        8    14  58    4.74   387.7    6.8      32.233
2014    8        8    15   4    4.75   387.6    6.8      32.239
2014    8        8    15   9    4.75   387.5    6.8      32.245
2014    8        8    15  15    4.76   387.4    6.8      32.251
2014    8        8    15  20    4.76   387.3    6.8      32.257
2014    8        8    15  26    4.76   387.2    6.8      32.263
2014    8        8    15  31    4.77   387.2    6.8      32.270
2014    8        8    15  37    4.77   387.1    6.8      32.277
2014    8        8    15  42    4.78   387.0    6.9      32.284
2014    8        8    15  48    4.78   386.9    6.9      32.292
2014    8        8    15  53    4.79   386.8    6.9      32.299
2014    8        8    15  59    4.79   386.8    6.9      32.307
2014    8        8    16   5    4.79   386.7    6.9      32.315
2014    8        8    16  10    4.80   386.6    6.9      32.323
2014    8        8    16  16    4.80   386.5    6.9      32.331
2014    8        8    16  21    4.81   386.5    6.9      32.339
2014    8        8    16  27    4.81   386.4    6.9      32.347
2014    8        8    16  32    4.81   386.3    7.0      32.355
2014    8        8    16  38    4.82   386.2    7.0      32.363
2014    8        8    16  43    4.82   386.2    7.0      32.372
2014    8        8    16  49    4.83   386.1    7.0      32.380
2014    8        8    16  54    4.83   386.0    7.0      32.388
2014    8        8    17   0    4.84   385.9    7.0      32.396
2014    8        8    17   5    4.84   385.9    7.0      32.404
2014    8        8    17  11    4.84   385.8    7.0      32.413
2014    8        8    17  16    4.85   385.7    7.0      32.421
2014    8        8    17  22    4.85   385.6    7.0      32.429
2014    8        8    17  27    4.86   385.6    7.1      32.437
2014    8        8    17  33    4.86   385.5    7.1      32.445
2014    8        8    17  38    4.86   385.4    7.1      32.453
2014    8        8    17  44    4.87   385.4    7.1      32.461
2014    8        8    17  49    4.87   385.3    7.1      32.469
2014    8        8    17  55    4.88   385.2    7.1      32.477
2014    8        8    18   0    4.88   385.2    7.1      32.484
2014    8        8    18   6    4.89   385.1    7.1      32.492
2014    8        8    18  11    4.89   385.0    7.1      32.500
2014    8        8    18  17    4.89   385.0    7.1      32.507
2014    8        8    18  23    4.90   384.9    7.1      32.515
2014    8        8    18  28    4.90   384.8    7.2      32.522
2014    8        8    18  34    4.91   384.8    7.2      32.530
2014    8        8    18  39    4.91   384.7    7.2      32.537
2014    8        8    18  45    4.92   384.7    7.2      32.544
2014    8        8    18  50    4.92   384.6    7.2      32.552
2014    8        8    18  56    4.92   384.5    7.2      32.559
2014    8        8    19   1    4.93   384.5    7.2      32.566
2014    8        8    19   7    4.93   384.4    7.2      32.574
2014    8        8    19  12    4.94   384.3    7.2      32.581
2014    8        8    19  18    4.94   384.3    7.2      32.588
2014    8        8    19  23    4.95   384.2    7.2      32.595
2014    8        8    19  29    4.95   384.2    7.3      32.602
2014    8        8    19  34    4.95   384.1    7.3      32.609
2014    8        8    19  40    4.96   384.1    7.3      32.617
2014    8        8    19  45    4.96   384.0    7.3      32.624
2014    8        8    19  51    4.97   383.9    7.3      32.631
2014    8        8    19  56    4.97   383.9    7.3      32.639
2014    8        8    20   2    4.98   383.8    7.3      32.646
2014    8        8    20   7    4.98   383.8    7.3      32.653
2014    8        8    20  13    4.98   383.7    7.3      32.661
2014    8        8    20  18    4.99   383.7    7.3      32.668
2014    8        8    20  24    4.99   383.6    7.4      32.676
2014    8        8    20  30    5.00   383.5    7.4      32.683
2014    8        8    20  35    5.00   383.5    7.4      32.691
2014    8        8    20  41    5.01   383.4    7.4      32.699
2014    8        8    20  46    5.01   383.4    7.4      32.706
2014    8        8    20  52    5.01   383.3    7.4      32.714
2014    8        8    20  57    5.02   383.3    7.4      32.722
2014    8        8    21   3    5.02   383.2    7.4      32.730
2014    8        8    21   8    5.03   383.2    7.4      32.738
2014    8        8    21  14    5.03   383.1    7.4      32.747
2014    8        8    21  19    5.04   383.1    7.4      32.755
2014    8        8    21  25    5.04   383.0    7.5      32.763
2014    8        8    21  30    5.05   383.0    7.5      32.772
2014    8        8    21  36    5.05   382.9    7.5      32.780
2014    8        8    21  41    5.05   382.9    7.5      32.789
2014    8        8    21  47    5.06   382.8    7.5      32.798
2014    8        8    21  52    5.06   382.8    7.5      32.807
2014    8        8    21  58    5.07   382.8    7.5      32.816
2014    8        8    22   3    5.07   382.7    7.5      32.825
2014    8        8    22   9    5.08   382.7    7.5      32.834
2014    8        8    22  14    5.08   382.6    7.5      32.843
2014    8        8    22  20    5.09   382.6    7.6      32.853
2014    8        8    22  25    5.09   382.5    7.6      32.862
2014    8        8    22  31    5.09   382.5    7.6      32.872
2014    8        8    22  36    5.10   382.4    7.6      32.882
2014    8        8    22  42    5.10   382.4    7.6      32.892
2014    8        8    22  48    5.11   382.4    7.6      32.903
2014    8        8    22  53    5.11   382.3    7.6      32.914
2014    8        8    22  59    5.12   382.3    7.6      32.925
2014    8        8    23   4    5.12   382.2    7.6      32.936
2014    8        8    23  10    5.13   382.2    7.6      32.948
2014    8        8    23  15    5.13   382.2    7.6      32.959
2014    8        8    23  21    5.14   382.1    7.7      32.971
2014    8        8    23  26    5.14   382.1    7.7      32.983
2014    8        8    23  32    5.14   382.1    7.7      32.995
2014    8        8    23  37    5.15   382.0    7.7      33.008
2014    8        8    23  43    5.15   382.0    7.7      33.021
2014    8        8    23  48    5.16   382.0    7.7      33.034
2014    8        8    23  54    5.16   381.9    7.7      33.047
2014    8        8    23  59    5.17   381.9    7.7      33.060
2014    8        9     0   5    5.17   381.9    7.7      33.073
2014    8        9     0  10    5.18   381.8    7.7      33.087
2014    8        9     0  16    5.18   381.8    7.7      33.100
2014    8        9     0  21    5.18   381.8    7.8      33.113
2014    8        9     0  27    5.19   381.7    7.8      33.127
2014    8        9     0  32    5.19   381.7    7.8      33.140
2014    8        9     0  38    5.20   381.7    7.8      33.154
2014    8        9     0  43    5.20   381.6    7.8      33.167
2014    8        9     0  49    5.21   381.6    7.8      33.181
2014    8        9     0  55    5.21   381.6    7.8      33.194
2014    8        9     1   0    5.21   381.5    7.8      33.207
2014    8        9     1   6    5.22   381.5    7.8      33.220
2014    8        9     1  11    5.22   381.5    7.8      33.233
2014    8        9     1  17    5.23   381.4    7.8      33.246
2014    8        9     1  22    5.23   381.4    7.8      33.259
2014    8        9     1  28    5.24   381.4    7.9      33.272
2014    8        9     1  33    5.24   381.4    7.9      33.284
2014    8        9     1  39    5.24   381.3    7.9      33.296
2014    8        9     1  44    5.25   381.3    7.9      33.309
2014    8        9     1  50    5.25   381.3    7.9      33.321
2014    8        9     1  55    5.26   381.2    7.9      33.333
2014    8        9     2   1    5.26   381.2    7.9      33.344
2014    8        9     2   6    5.27   381.2    7.9      33.356
2014    8        9     2  12    5.27   381.2    7.9      33.367
2014    8        9     2  17    5.27   381.1    7.9      33.379
2014    8        9     2  23    5.28   381.1    7.9      33.390
2014    8        9     2  28    5.28   381.1    7.9      33.402
2014    8        9     2  34    5.29   381.1    7.9      33.413
2014    8        9     2  39    5.29   381.0    7.9      33.424
2014    8        9     2  45    5.30   381.0    8.0      33.435
2014    8        9     2  50    5.30   381.0    8.0      33.446
2014    8        9     2  56    5.30   381.0    8.0      33.457
2014    8        9     3   1    5.31   380.9    8.0      33.468
2014    8        9     3   7    5.31   380.9    8.0      33.479
2014    8        9     3  13    5.32   380.9    8.0      33.490
2014    8        9     3  18    5.32   380.9    8.0      33.502
2014    8        9     3  24    5.33   380.8    8.0      33.513
2014    8        9     3  29    5.33   380.8    8.0      33.524
2014    8        9     3  35    5.34   380.8    8.0      33.535
2014    8        9     3  40    5.34   380.8    8.0      33.546
2014    8        9     3  46    5.34   380.7    8.0      33.558
2014    8        9     3  51    5.35   380.7    8.0      33.569
2014    8        9     3  57    5.35   380.7    8.0      33.581
2014    8        9     4   2    5.36   380.7    8.1      33.592
2014    8        9     4   8    5.36   380.7    8.1      33.604
2014    8        9     4  13    5.37   380.6    8.1      33.616
2014    8        9     4  19    5.37   380.6    8.1      33.628
2014    8        9     4  24    5.37   380.6    8.1      33.640
2014    8        9     4  30    5.38   380.6    8.1      33.653
2014    8        9     4  35    5.38   380.6    8.1      33.665
2014    8        9     4  41    5.39   380.5    8.1      33.678
2014    8        9     4  46    5.39   380.5    8.1      33.690
2014    8        9     4  52    5.40   380.5    8.1      33.703
2014    8        9     4  57    5.40   380.5    8.1      33.716
2014    8        9     5   3    5.41   380.5    8.1      33.730
2014    8        9     5   8    5.41   380.5    8.1      33.743
2014    8        9     5  14    5.41   380.4    8.1      33.757
2014    8        9     5  20    5.42   380.4    8.2      33.770
2014    8        9     5  25    5.42   380.4    8.2      33.784
2014    8        9     5  31    5.43   380.4    8.2      33.798
2014    8        9     5  36    5.43   380.4    8.2      33.812
2014    8        9     5  42    5.44   380.4    8.2      33.826
2014    8        9     5  47    5.44   380.4    8.2      33.840
2014    8        9     5  53    5.45   380.3    8.2      33.854
2014    8        9     5  58    5.45   380.3    8.2      33.869
2014    8        9     6   4    5.46   380.3    8.2      33.883
2014    8        9     6   9    5.46   380.3    8.2      33.898
2014    8        9     6  15    5.46   380.3    8.2      33.913
2014    8        9     6  20    5.47   380.3    8.2      33.928
2014    8        9     6  26    5.47   380.3    8.2      33.943
2014    8        9     6  31    5.48   380.3    8.2      33.958
2014    8        9     6  37    5.48   380.3    8.3      33.974
2014    8        9     6  42    5.49   380.3    8.3      33.990
2014    8        9     6  48    5.49   380.2    8.3      34.006
2014    8        9     6  53    5.49   380.2    8.3      34.023
2014    8        9     6  59    5.50   380.2    8.3      34.040
2014    8        9     7   4    5.50   380.2    8.3      34.057
2014    8        9     7  10    5.51   380.2    8.3      34.075
2014    8        9     7  15    5.51   380.2    8.3      34.093
2014    8        9     7  21    5.52   380.2    8.3      34.112
2014    8        9     7  26    5.52   380.2    8.3      34.130
2014    8        9     7  32    5.53   380.2    8.3      34.149
2014    8        9     7  38    5.53   380.2    8.3      34.169
2014    8        9     7  43    5.53   380.2    8.3      34.188
2014    8        9     7  49    5.54   380.2    8.4      34.207
2014    8        9     7  54    5.54   380.2    8.4      34.227
2014    8        9     8   0    5.55   380.2    8.4      34.246
2014    8        9     8   5    5.55   380.2    8.4      34.266
2014    8        9     8  11    5.55   380.2    8.4      34.285
2014    8        9     8  16    5.56   380.2    8.4      34.305
2014    8        9     8  22    5.56   380.2    8.4      34.324
2014    8        9     8  27    5.57   380.2    8.4      34.344
2014    8        9     8  33    5.57   380.2    8.4      34.363
2014    8        9     8  38    5.58   380.2    8.4      34.382
2014    8        9     8  44    5.58   380.2    8.4      34.401
2014    8        9     8  49    5.58   380.2    8.4      34.420
2014    8        9     8  55    5.59   380.2    8.4      34.439
2014    8        9     9   0    5.59   380.2    8.4      34.458
2014    8        9     9   6    5.60   380.2    8.4      34.476
2014    8        9     9  11    5.60   380.2    8.4      34.495
2014    8        9     9  17    5.60   380.2    8.4      34.513
2014    8        9     9  22    5.61   380.2    8.5      34.531
2014    8        9     9  28    5.61   380.2    8.5      34.549
2014    8        9     9  33    5.62   380.2    8.5      34.567
2014    8        9     9  39    5.62   380.2    8.5      34.584
2014    8        9     9  45    5.63   380.2    8.5      34.602
2014    8        9     9  50    5.63   380.2    8.5      34.620
2014    8        9     9  56    5.63   380.2    8.5      34.637
2014    8        9    10   1    5.64   380.2    8.5      34.654
2014    8        9    10   7    5.64   380.2    8.5      34.672
2014    8        9    10  12    5.65   380.2    8.5      34.689
2014    8        9    10  18    5.65   380.2    8.5      34.706
2014    8        9    10  23    5.66   380.2    8.5      34.723
2014    8        9    10  29    5.66   380.2    8.5      34.741
2014    8        9    10  34    5.66   380.2    8.5      34.758
2014    8        9    10  40    5.67   380.2    8.5      34.775
2014    8        9    10  45    5.67   380.2    8.5      34.792
2014    8        9    10  51    5.68   380.2    8.5      34.810
2014    8        9    10  56    5.68   380.2    8.5      34.827
2014    8        9    11   2    5.69   380.2    8.5      34.845
2014    8        9    11   7    5.69   380.2    8.6      34.862
2014    8        9    11  13    5.69   380.2    8.6      34.880
2014    8        9    11  18    5.70   380.2    8.6      34.898
2014    8        9    11  24    5.70   380.2    8.6      34.916
2014    8        9    11  29    5.71   380.2    8.6      34.934
2014    8        9    11  35    5.71   380.2    8.6      34.952
2014    8        9    11  40    5.72   380.2    8.6      34.970
2014    8        9    11  46    5.72   380.2    8.6      34.989
2014    8        9    11  51    5.72   380.3    8.6      35.007
2014    8        9    11  57    5.73   380.3    8.6      35.026
2014    8        9    12   3    5.73   380.3    8.6      35.045
2014    8        9    12   8    5.74   380.3    8.6      35.064
2014    8        9    12  14    5.74   380.3    8.6      35.083
2014    8        9    12  19    5.75   380.3    8.6      35.102
2014    8        9    12  25    5.75   380.3    8.6      35.121
2014    8        9    12  30    5.76   380.3    8.6      35.141
2014    8        9    12  36    5.76   380.3    8.6      35.160
2014    8        9    12  41    5.76   380.4    8.6      35.180
2014    8        9    12  47    5.77   380.4    8.7      35.200
2014    8        9    12  52    5.77   380.4    8.7      35.220
2014    8        9    12  58    5.78   380.4    8.7      35.240
2014    8        9    13   3    5.78   380.4    8.7      35.260
2014    8        9    13   9    5.79   380.4    8.7      35.280
2014    8        9    13  14    5.79   380.4    8.7      35.300
2014    8        9    13  20    5.80   380.5    8.7      35.321
2014    8        9    13  25    5.80   380.5    8.7      35.342
2014    8        9    13  31    5.80   380.5    8.7      35.362
2014    8        9    13  36    5.81   380.5    8.7      35.384
2014    8        9    13  42    5.81   380.5    8.7      35.405
2014    8        9    13  47    5.82   380.5    8.7      35.427
2014    8        9    13  53    5.82   380.6    8.7      35.449
2014    8        9    13  58    5.83   380.6    8.7      35.471
2014    8        9    14   4    5.83   380.6    8.7      35.493
2014    8        9    14  10    5.84   380.6    8.7      35.516
2014    8        9    14  15    5.84   380.6    8.7      35.539
2014    8        9    14  21    5.84   380.7    8.8      35.563
2014    8        9    14  26    5.85   380.7    8.8      35.587
2014    8        9    14  32    5.85   380.7    8.8      35.611
2014    8        9    14  37    5.86   380.7    8.8      35.636
2014    8        9    14  43    5.86   380.7    8.8      35.661
2014    8        9    14  48    5.87   380.8    8.8      35.687
2014    8        9    14  54    5.87   380.8    8.8      35.712
2014    8        9    14  59    5.87   380.8    8.8      35.739
2014    8        9    15   5    5.88   380.8    8.8      35.765
2014    8        9    15  10    5.88   380.9    8.8      35.792
2014    8        9    15  16    5.89   380.9    8.8      35.819
2014    8        9    15  21    5.89   380.9    8.8      35.846
2014    8        9    15  27    5.89   380.9    8.8      35.873
2014    8        9    15  32    5.90   381.0    8.8      35.901
2014    8        9    15  38    5.90   381.0    8.8      35.928
2014    8        9    15  43    5.91   381.0    8.8      35.955
2014    8        9    15  49    5.91   381.0    8.8      35.982
2014    8        9    15  54    5.92   381.1    8.8      36.009
2014    8        9    16   0    5.92   381.1    8.8      36.036
2014    8        9    16   5    5.92   381.1    8.9      36.062
2014    8        9    16  11    5.93   381.1    8.9      36.089
2014    8        9    16  16    5.93   381.2    8.9      36.115
2014    8        9    16  22    5.94   381.2    8.9      36.141
2014    8        9    16  28    5.94   381.2    8.9      36.167
2014    8        9    16  33    5.95   381.2    8.9      36.193
2014    8        9    16  39    5.95   381.3    8.9      36.218
2014    8        9    16  44    5.95   381.3    8.9      36.243
2014    8        9    16  50    5.96   381.3    8.9      36.268
2014    8        9    16  55    5.96   381.3    8.9      36.293
2014    8        9    17   1    5.97   381.4    8.9      36.318
2014    8        9    17   6    5.97   381.4    8.9      36.343
2014    8        9    17  12    5.98   381.4    8.9      36.367
2014    8        9    17  17    5.98   381.4    8.9      36.392
2014    8        9    17  23    5.98   381.5    8.9      36.416
2014    8        9    17  28    5.99   381.5    8.9      36.440
2014    8        9    17  34    5.99   381.5    8.9      36.464
2014    8        9    17  39    6.00   381.6    8.9      36.487
2014    8        9    17  45    6.00   381.6    8.9      36.511
2014    8        9    17  50    6.01   381.6    8.9      36.535
2014    8        9    17  56    6.01   381.6    8.9      36.558
2014    8        9    18   1    6.01   381.7    8.9      36.581
2014    8        9    18   7    6.02   381.7    8.9      36.605
2014    8        9    18  12    6.02   381.7    8.9      36.628
2014    8        9    18  18    6.03   381.8    8.9      36.651
2014    8        9    18  23    6.03   381.8    8.9      36.675
2014    8        9    18  29    6.04   381.8    8.9      36.698
2014    8        9    18  34    6.04   381.9    8.9      36.722
2014    8        9    18  40    6.04   381.9    9.0      36.745
2014    8        9    18  46    6.05   381.9    9.0      36.769
2014    8        9    18  51    6.05   381.9    9.0      36.792
2014    8        9    18  57    6.06   382.0    9.0      36.816
2014    8        9    19   2    6.06   382.0    9.0      36.840
2014    8        9    19   8    6.07   382.0    9.0      36.864
2014    8        9    19  13    6.07   382.1    9.0      36.889
2014    8        9    19  19    6.08   382.1    9.0      36.913
2014    8        9    19  24    6.08   382.2    9.0      36.938
2014    8        9    19  30    6.09   382.2    9.0      36.962
2014    8        9    19  35    6.09   382.2    9.0      36.987
2014    8        9    19  41    6.09   382.3    9.0      37.013
2014    8        9    19  46    6.10   382.3    9.0      37.038
2014    8        9    19  52    6.10   382.3    9.0      37.064
2014    8        9    19  57    6.11   382.4    9.0      37.090
2014    8        9    20   3    6.11   382.4    9.0      37.116
2014    8        9    20   8    6.12   382.5    9.0      37.142
2014    8        9    20  14    6.12   382.5    9.0      37.169
2014    8        9    20  19    6.13   382.5    9.0      37.196
2014    8        9    20  25    6.13   382.6    9.0      37.223
2014    8        9    20  30    6.14   382.6    9.0      37.250
2014    8        9    20  36    6.14   382.7    9.0      37.278
2014    8        9    20  41    6.15   382.7    9.0      37.306
2014    8        9    20  47    6.15   382.8    9.0      37.334
2014    8        9    20  53    6.16   382.8    9.0      37.362
2014    8        9    20  58    6.16   382.9    9.1      37.391
2014    8        9    21   4    6.17   382.9    9.1      37.419
2014    8        9    21   9    6.17   382.9    9.1      37.449
2014    8        9    21  15    6.18   383.0    9.1      37.478
2014    8        9    21  20    6.18   383.0    9.1      37.507
2014    8        9    21  26    6.19   383.1    9.1      37.537
2014    8        9    21  31    6.19   383.1    9.1      37.566
2014    8        9    21  37    6.20   383.2    9.1      37.597
2014    8        9    21  42    6.20   383.2    9.1      37.627
2014    8        9    21  48    6.21   383.3    9.1      37.658
2014    8        9    21  53    6.21   383.3    9.1      37.690
2014    8        9    21  59    6.22   383.4    9.1      37.721
2014    8        9    22   4    6.22   383.5    9.1      37.754
2014    8        9    22  10    6.23   383.5    9.1      37.787
2014    8        9    22  15    6.23   383.6    9.1      37.820
2014    8        9    22  21    6.24   383.6    9.1      37.854
2014    8        9    22  26    6.24   383.7    9.1      37.889
2014    8        9    22  32    6.25   383.7    9.1      37.924
2014    8        9    22  37    6.25   383.8    9.1      37.959
2014    8        9    22  43    6.25   383.9    9.1      37.994
2014    8        9    22  48    6.26   383.9    9.1      38.030
2014    8        9    22  54    6.26   384.0    9.2      38.066
2014    8        9    23   0    6.27   384.0    9.2      38.102
2014    8        9    23   5    6.27   384.1    9.2      38.137
2014    8        9    23  11    6.28   384.2    9.2      38.173
2014    8        9    23  16    6.28   384.2    9.2      38.208
2014    8        9    23  22    6.29   384.3    9.2      38.244
2014    8        9    23  27    6.29   384.3    9.2      38.279
2014    8        9    23  33    6.30   384.4    9.2      38.314
2014    8        9    23  38    6.30   384.5    9.2      38.349
2014    8        9    23  44    6.31   384.5    9.2      38.384
2014    8        9    23  49    6.31   384.6    9.2      38.419
2014    8        9    23  55    6.32   384.6    9.2      38.453
2014    8       10     0   0    6.32   384.7    9.2      38.487
2014    8       10     0   6    6.33   384.8    9.2      38.522
2014    8       10     0  11    6.33   384.8    9.2      38.556
2014    8       10     0  17    6.34   384.9    9.2      38.590
2014    8       10     0  22    6.34   384.9    9.2      38.625
2014    8       10     0  28    6.35   385.0    9.2      38.660
2014    8       10     0  33    6.35   385.1    9.2      38.695
2014    8       10     0  39    6.36   385.1    9.2      38.731
2014    8       10     0  44    6.36   385.2    9.2      38.767
2014    8       10     0  50    6.37   385.3    9.2      38.804
2014    8       10     0  55    6.37   385.3    9.2      38.841
2014    8       10     1   1    6.38   385.4    9.2      38.878
2014    8       10     1   6    6.38   385.5    9.3      38.916
2014    8       10     1  12    6.39   385.5    9.3      38.953
2014    8       10     1  18    6.39   385.6    9.3      38.990
2014    8       10     1  23    6.40   385.7    9.3      39.028
2014    8       10     1  29    6.40   385.7    9.3      39.064
2014    8       10     1  34    6.41   385.8    9.3      39.101
2014    8       10     1  40    6.41   385.9    9.3      39.137
2014    8       10     1  45    6.42   385.9    9.3      39.174
2014    8       10     1  51    6.42   386.0    9.3      39.210
2014    8       10     1  56    6.43   386.1    9.3      39.246
2014    8       10     2   2    6.43   386.1    9.3      39.282
2014    8       10     2   7    6.44   386.2    9.3      39.318
2014    8       10     2  13    6.44   386.3    9.3      39.353
2014    8       10     2  18    6.45   386.3    9.3      39.389
2014    8       10     2  24    6.45   386.4    9.3      39.424
2014    8       10     2  29    6.45   386.5    9.3      39.459
2014    8       10     2  35    6.46   386.6    9.3      39.494
2014    8       10     2  40    6.46   386.6    9.3      39.529
2014    8       10     2  46    6.47   386.7    9.3      39.564
2014    8       10     2  51    6.47   386.8    9.3      39.599
2014    8       10     2  57    6.48   386.9    9.3      39.635
2014    8       10     3   2    6.48   386.9    9.3      39.670
2014    8       10     3   8    6.49   387.0    9.3      39.705
2014    8       10     3  13    6.49   387.1    9.3      39.740
2014    8       10     3  19    6.50   387.2    9.3      39.776
2014    8       10     3  24    6.50   387.2    9.3      39.811
2014    8       10     3  30    6.51   387.3    9.3      39.846
2014    8       10     3  36    6.51   387.4    9.3      39.882
2014    8       10     3  41    6.52   387.5    9.3      39.917
2014    8       10     3  47    6.52   387.5    9.3      39.953
2014    8       10     3  52    6.53   387.6    9.3      39.989
2014    8       10     3  58    6.54   387.7    9.3      40.025
2014    8       10     4   3    6.54   387.8    9.3      40.062
2014    8       10     4   9    6.55   387.9    9.3      40.098
2014    8       10     4  14    6.55   388.0    9.3      40.135
2014    8       10     4  20    6.56   388.0    9.3      40.172
2014    8       10     4  25    6.56   388.1    9.3      40.209
2014    8       10     4  31    6.57   388.2    9.3      40.246
2014    8       10     4  36    6.57   388.3    9.3      40.284
2014    8       10     4  42    6.58   388.4    9.4      40.322
2014    8       10     4  47    6.58   388.5    9.4      40.360
2014    8       10     4  53    6.59   388.5    9.4      40.398
2014    8       10     4  58    6.59   388.6    9.4      40.437
2014    8       10     5   4    6.60   388.7    9.4      40.476
2014    8       10     5   9    6.60   388.8    9.4      40.515
2014    8       10     5  15    6.61   388.9    9.4      40.554
2014    8       10     5  20    6.61   389.0    9.4      40.594
2014    8       10     5  26    6.62   389.1    9.4      40.634
2014    8       10     5  31    6.63   389.2    9.4      40.674
2014    8       10     5  37    6.63   389.3    9.4      40.715
2014    8       10     5  43    6.64   389.4    9.4      40.755
2014    8       10     5  48    6.64   389.4    9.4      40.797
2014    8       10     5  54    6.65   389.5    9.4      40.838
2014    8       10     5  59    6.65   389.6    9.4      40.880
2014    8       10     6   5    6.66   389.7    9.4      40.923
2014    8       10     6  10    6.66   389.8    9.4      40.966
2014    8       10     6  16    6.67   389.9    9.4      41.011
2014    8       10     6  21    6.68   390.0    9.4      41.057
2014    8       10     6  27    6.68   390.1    9.4      41.103
2014    8       10     6  32    6.69   390.2    9.4      41.150
2014    8       10     6  38    6.69   390.3    9.4      41.198
2014    8       10     6  43    6.70   390.4    9.4      41.246
2014    8       10     6  49    6.70   390.5    9.4      41.297
2014    8       10     6  54    6.71   390.6    9.5      41.348
2014    8       10     7   0    6.71   390.8    9.5      41.401
2014    8       10     7   5    6.72   390.9    9.5      41.455
2014    8       10     7  11    6.73   391.0    9.5      41.510
2014    8       10     7  16    6.73   391.1    9.5      41.565
2014    8       10     7  22    6.74   391.2    9.5      41.622
2014    8       10     7  27    6.74   391.4    9.5      41.679
2014    8       10     7  33    6.75   391.5    9.5      41.736
2014    8       10     7  38    6.75   391.6    9.5      41.792
2014    8       10     7  44    6.76   391.7    9.5      41.848
2014    8       10     7  49    6.76   391.8    9.5      41.903
2014    8       10     7  55    6.77   391.9    9.5      41.958
2014    8       10     8   1    6.77   392.1    9.5      42.011
2014    8       10     8   6    6.78   392.2    9.5      42.065
2014    8       10     8  12    6.78   392.3    9.5      42.117
2014    8       10     8  17    6.79   392.4    9.5      42.169
2014    8       10     8  23    6.79   392.5    9.5      42.221
2014    8       10     8  28    6.79   392.7    9.5      42.271
2014    8       10     8  34    6.80   392.8    9.5      42.321
2014    8       10     8  39    6.80   392.9    9.5      42.371
2014    8       10     8  45    6.81   393.0    9.5      42.420
2014    8       10     8  50    6.81   393.1    9.5      42.469
2014    8       10     8  56    6.82   393.2    9.5      42.517
2014    8       10     9   1    6.82   393.4    9.5      42.565
2014    8       10     9   7    6.83   393.5    9.5      42.612
2014    8       10     9  12    6.83   393.6    9.5      42.659
2014    8       10     9  18    6.84   393.7    9.5      42.706
2014    8       10     9  23    6.84   393.8    9.5      42.752
2014    8       10     9  29    6.84   393.9    9.5      42.798
2014    8       10     9  34    6.85   394.1    9.5      42.844
2014    8       10     9  40    6.85   394.2    9.5      42.890
2014    8       10     9  45    6.86   394.3    9.5      42.935
2014    8       10     9  51    6.86   394.4    9.5      42.980
2014    8       10     9  56    6.87   394.5    9.5      43.026
2014    8       10    10   2    6.87   394.6    9.5      43.071
2014    8       10    10   8    6.88   394.8    9.5      43.115
2014    8       10    10  13    6.88   394.9    9.5      43.160
2014    8       10    10  19    6.89   395.0    9.5      43.205
2014    8       10    10  24    6.89   395.1    9.5      43.250
2014    8       10    10  30    6.90   395.2    9.5      43.295
2014    8       10    10  35    6.90   395.4    9.5      43.340
2014    8       10    10  41    6.90   395.5    9.5      43.385
2014    8       10    10  46    6.91   395.6    9.5      43.430
2014    8       10    10  52    6.91   395.7    9.6      43.476
2014    8       10    10  57    6.92   395.8    9.6      43.522
2014    8       10    11   3    6.92   396.0    9.6      43.569
2014    8       10    11   8    6.93   396.1    9.6      43.616
2014    8       10    11  14    6.93   396.2    9.6      43.664
2014    8       10    11  19    6.94   396.4    9.6      43.713
2014    8       10    11  25    6.95   396.5    9.6      43.763
2014    8       10    11  30    6.95   396.6    9.6      43.813
2014    8       10    11  36    6.96   396.8    9.6      43.865
2014    8       10    11  41    6.96   396.9    9.6      43.917
2014    8       10    11  47    6.97   397.0    9.6      43.970
2014    8       10    11  52    6.97   397.2    9.6      44.024
2014    8       10    11  58    6.98   397.3    9.6      44.078
2014    8       10    12   3    6.98   397.4    9.6      44.134
2014    8       10    12   9    6.99   397.6    9.6      44.190
2014    8       10    12  14    7.00   397.7    9.6      44.247
2014    8       10    12  20    7.00   397.9    9.6      44.305
2014    8       10    12  26    7.01   398.0    9.6      44.364
2014    8       10    12  31    7.02   398.1    9.6      44.426
2014    8       10    12  37    7.02   398.3    9.6      44.490
2014    8       10    12  42    7.03   398.5    9.6      44.555
2014    8       10    12  48    7.03   398.6    9.6      44.622
2014    8       10    12  53    7.04   398.8    9.6      44.691
2014    8       10    12  59    7.05   398.9    9.6      44.761
2014    8       10    13   4    7.05   399.1    9.6      44.832
2014    8       10    13  10    7.06   399.2    9.6      44.903
2014    8       10    13  15    7.07   399.4    9.6      44.974
2014    8       10    13  21    7.07   399.6    9.6      45.045
2014    8       10    13  26    7.08   399.7    9.6      45.117
2014    8       10    13  32    7.08   399.9    9.7      45.189
2014    8       10    13  37    7.09   400.1    9.7      45.262
2014    8       10    13  43    7.10   400.2    9.7      45.336
2014    8       10    13  48    7.10   400.4    9.7      45.410
2014    8       10    13  54    7.11   400.6    9.7      45.484
2014    8       10    13  59    7.11   400.8    9.7      45.558
2014    8       10    14   5    7.12   400.9    9.7      45.631
2014    8       10    14  10    7.12   401.1    9.7      45.704
2014    8       10    14  16    7.13   401.3    9.7      45.776
2014    8       10    14  21    7.13   401.5    9.7      45.847
2014    8       10    14  27    7.14   401.6    9.7      45.917
2014    8       10    14  33    7.15   401.8    9.7      45.986
2014    8       10    14  38    7.15   402.0    9.7      46.055
2014    8       10    14  44    7.16   402.2    9.7      46.122
2014    8       10    14  49    7.16   402.3    9.7      46.189
2014    8       10    14  55    7.16   402.5    9.7      46.255
2014    8       10    15   0    7.17   402.7    9.7      46.320
2014    8       10    15   6    7.17   402.9    9.7      46.385
2014    8       10    15  11    7.18   403.0    9.7      46.448
2014    8       10    15  17    7.18   403.2    9.7      46.511
2014    8       10    15  22    7.19   403.4    9.7      46.573
2014    8       10    15  28    7.19   403.6    9.7      46.634
2014    8       10    15  33    7.20   403.7    9.7      46.694
2014    8       10    15  39    7.20   403.9    9.7      46.754
2014    8       10    15  44    7.21   404.1    9.7      46.814
2014    8       10    15  50    7.21   404.3    9.7      46.873
2014    8       10    15  55    7.21   404.4    9.7      46.931
2014    8       10    16   1    7.22   404.6    9.7      46.989
2014    8       10    16   6    7.22   404.8    9.7      47.047
2014    8       10    16  12    7.23   404.9    9.7      47.104
2014    8       10    16  17    7.23   405.1    9.7      47.160
2014    8       10    16  23    7.24   405.3    9.7      47.217
2014    8       10    16  28    7.24   405.5    9.7      47.273
2014    8       10    16  34    7.24   405.6    9.7      47.328
2014    8       10    16  39    7.25   405.8    9.7      47.383
2014    8       10    16  45    7.25   406.0    9.7      47.438
2014    8       10    16  51    7.26   406.1    9.6      47.493
2014    8       10    16  56    7.26   406.3    9.6      47.547
2014    8       10    17   2    7.27   406.5    9.6      47.601
2014    8       10    17   7    7.27   406.6    9.6      47.655
2014    8       10    17  13    7.27   406.8    9.6      47.709
2014    8       10    17  18    7.28   407.0    9.6      47.763
2014    8       10    17  24    7.28   407.1    9.6      47.817
2014    8       10    17  29    7.29   407.3    9.6      47.871
2014    8       10    17  35    7.29   407.5    9.6      47.925
2014    8       10    17  40    7.30   407.6    9.6      47.980
2014    8       10    17  46    7.30   407.8    9.6      48.035
2014    8       10    17  51    7.31   408.0    9.6      48.091
2014    8       10    17  57    7.31   408.1    9.6      48.149
2014    8       10    18   2    7.32   408.3    9.6      48.208
2014    8       10    18   8    7.32   408.5    9.6      48.270
2014    8       10    18  13    7.33   408.7    9.6      48.334
2014    8       10    18  19    7.33   408.9    9.7      48.401
2014    8       10    18  24    7.34   409.0    9.7      48.469
2014    8       10    18  30    7.34   409.2    9.7      48.541
2014    8       10    18  35    7.35   409.4    9.7      48.615
2014    8       10    18  41    7.35   409.6    9.7      48.692
2014    8       10    18  46    7.36   409.8    9.7      48.769
2014    8       10    18  52    7.36   410.0    9.7      48.847
2014    8       10    18  58    7.37   410.2    9.7      48.926
2014    8       10    19   3    7.37   410.4    9.7      49.010
2014    8       10    19   9    7.38   410.6    9.7      49.097
2014    8       10    19  14    7.39   410.9    9.7      49.189
2014    8       10    19  20    7.39   411.1    9.7      49.283
2014    8       10    19  25    7.40   411.3    9.7      49.381
2014    8       10    19  31    7.40   411.6    9.7      49.482
2014    8       10    19  36    7.41   411.8    9.7      49.587
2014    8       10    19  42    7.42   412.1    9.7      49.693
2014    8       10    19  47    7.42   412.3    9.7      49.799
2014    8       10    19  53    7.43   412.6    9.7      49.904
2014    8       10    19  58    7.43   412.8    9.7      50.008
2014    8       10    20   4    7.44   413.1    9.7      50.111
2014    8       10    20   9    7.44   413.4    9.7      50.213
2014    8       10    20  15    7.45   413.6    9.7      50.313
2014    8       10    20  20    7.45   413.9    9.7      50.412
2014    8       10    20  26    7.46   414.1    9.7      50.510
2014    8       10    20  31    7.46   414.4    9.7      50.606
2014    8       10    20  37    7.47   414.6    9.7      50.700
2014    8       10    20  42    7.47   414.9    9.7      50.793
2014    8       10    20  48    7.48   415.1    9.7      50.884
2014    8       10    20  53    7.48   415.4    9.7      50.974
2014    8       10    20  59    7.48   415.6    9.7      51.062
2014    8       10    21   4    7.49   415.9    9.7      51.149
2014    8       10    21  10    7.49   416.1    9.7      51.235
2014    8       10    21  16    7.50   416.4    9.7      51.320
2014    8       10    21  21    7.50   416.6    9.7      51.403
2014    8       10    21  27    7.50   416.9    9.7      51.486
2014    8       10    21  32    7.51   417.1    9.7      51.567
2014    8       10    21  38    7.51   417.4    9.7      51.647
2014    8       10    21  43    7.51   417.6    9.7      51.726
2014    8       10    21  49    7.52   417.9    9.7      51.804
2014    8       10    21  54    7.52   418.1    9.7      51.882
2014    8       10    22   0    7.52   418.4    9.7      51.958
2014    8       10    22   5    7.53   418.6    9.7      52.032
2014    8       10    22  11    7.53   418.9    9.7      52.107
2014    8       10    22  16    7.53   419.1    9.6      52.180
2014    8       10    22  22    7.54   419.4    9.6      52.252
2014    8       10    22  27    7.54   419.6    9.6      52.323
2014    8       10    22  33    7.54   419.9    9.6      52.393
2014    8       10    22  38    7.55   420.1    9.6      52.462
2014    8       10    22  44    7.55   420.4    9.6      52.531
2014    8       10    22  49    7.55   420.6    9.6      52.598
2014    8       10    22  55    7.56   420.9    9.6      52.665
2014    8       10    23   0    7.56   421.1    9.6      52.731
2014    8       10    23   6    7.56   421.4    9.6      52.796
2014    8       10    23  11    7.57   421.6    9.6      52.861
2014    8       10    23  17    7.57   421.9    9.6      52.925
2014    8       10    23  22    7.57   422.1    9.6      52.989
2014    8       10    23  28    7.57   422.4    9.6      53.052
2014    8       10    23  34    7.58   422.6    9.5      53.114
2014    8       10    23  39    7.58   422.9    9.5      53.176
2014    8       10    23  45    7.58   423.1    9.5      53.238
2014    8       10    23  50    7.59   423.4    9.5      53.300
2014    8       10    23  56    7.59   423.6    9.5      53.361
2014    8       11     0   1    7.59   423.9    9.5      53.422
2014    8       11     0   7    7.59   424.2    9.5      53.483
2014    8       11     0  12    7.60   424.4    9.5      53.544
2014    8       11     0  18    7.60   424.7    9.5      53.605
2014    8       11     0  23    7.60   424.9    9.5      53.666
2014    8       11     0  29    7.60   425.2    9.5      53.727
2014    8       11     0  34    7.61   425.5    9.5      53.788
2014    8       11     0  40    7.61   425.7    9.5      53.849
2014    8       11     0  45    7.61   426.0    9.4      53.910
2014    8       11     0  51    7.61   426.3    9.4      53.971
2014    8       11     0  56    7.62   426.5    9.4      54.032
2014    8       11     1   2    7.62   426.8    9.4      54.094
2014    8       11     1   7    7.62   427.1    9.4      54.155
2014    8       11     1  13    7.63   427.3    9.4      54.217
2014    8       11     1  18    7.63   427.6    9.4      54.279
2014    8       11     1  24    7.63   427.9    9.4      54.341
2014    8       11     1  29    7.63   428.1    9.4      54.403
2014    8       11     1  35    7.64   428.4    9.4      54.467
2014    8       11     1  41    7.64   428.7    9.4      54.532
2014    8       11     1  46    7.64   428.9    9.4      54.597
2014    8       11     1  52    7.64   429.2    9.4      54.662
2014    8       11     1  57    7.65   429.5    9.4      54.728
2014    8       11     2   3    7.65   429.7    9.4      54.795
2014    8       11     2   8    7.65   430.0    9.4      54.865
2014    8       11     2  14    7.66   430.3    9.4      54.940
2014    8       11     2  19    7.66   430.6    9.4      55.019
2014    8       11     2  25    7.66   430.9    9.4      55.102
2014    8       11     2  30    7.67   431.2    9.4      55.188
2014    8       11     2  36    7.67   431.5    9.4      55.280
2014    8       11     2  41    7.67   431.8    9.4      55.375
2014    8       11     2  47    7.67   432.2    9.4      55.474
2014    8       11     2  52    7.68   432.5    9.3      55.575
2014    8       11     2  58    7.68   432.8    9.3      55.676
2014    8       11     3   3    7.68   433.1    9.3      55.778
2014    8       11     3   9    7.69   433.5    9.3      55.880
2014    8       11     3  14    7.69   433.8    9.3      55.983
2014    8       11     3  20    7.69   434.1    9.3      56.086
2014    8       11     3  25    7.69   434.5    9.3      56.188
2014    8       11     3  31    7.69   434.8    9.3      56.290
2014    8       11     3  36    7.70   435.1    9.3      56.392
2014    8       11     3  42    7.70   435.5    9.3      56.492
2014    8       11     3  47    7.70   435.8    9.3      56.591
2014    8       11     3  53    7.70   436.1    9.3      56.690
2014    8       11     3  59    7.70   436.5    9.3      56.787
2014    8       11     4   4    7.70   436.8    9.3      56.883
2014    8       11     4  10    7.70   437.1    9.3      56.978
2014    8       11     4  15    7.70   437.5    9.2      57.072
2014    8       11     4  21    7.70   437.8    9.2      57.165
2014    8       11     4  26    7.70   438.2    9.2      57.257
2014    8       11     4  32    7.70   438.5    9.2      57.347
2014    8       11     4  37    7.70   438.8    9.2      57.436
2014    8       11     4  43    7.71   439.2    9.2      57.524
2014    8       11     4  48    7.71   439.5    9.2      57.611
2014    8       11     4  54    7.71   439.8    9.2      57.696
2014    8       11     4  59    7.71   440.2    9.2      57.780
2014    8       11     5   5    7.71   440.5    9.1      57.862
2014    8       11     5  10    7.71   440.9    9.1      57.943
2014    8       11     5  16    7.70   441.2    9.1      58.023
2014    8       11     5  21    7.70   441.6    9.1      58.101
2014    8       11     5  27    7.70   441.9    9.1      58.178
2014    8       11     5  32    7.70   442.3    9.1      58.254
2014    8       11     5  38    7.70   442.6    9.1      58.328
2014    8       11     5  43    7.70   442.9    9.1      58.400
2014    8       11     5  49    7.70   443.3    9.0      58.471
2014    8       11     5  54    7.70   443.6    9.0      58.541
2014    8       11     6   0    7.70   444.0    9.0      58.610
2014    8       11     6   6    7.70   444.4    9.0      58.678
2014    8       11     6  11    7.70   444.7    9.0      58.744
2014    8       11     6  17    7.70   445.1    9.0      58.809
2014    8       11     6  22    7.70   445.4    9.0      58.873
2014    8       11     6  28    7.70   445.8    8.9      58.936
2014    8       11     6  33    7.70   446.1    8.9      58.998
2014    8       11     6  39    7.69   446.5    8.9      59.059
2014    8       11     6  44    7.69   446.8    8.9      59.119
2014    8       11     6  50    7.69   447.2    8.9      59.178
2014    8       11     6  55    7.69   447.6    8.9      59.236
2014    8       11     7   1    7.69   447.9    8.9      59.293
2014    8       11     7   6    7.69   448.3    8.8      59.350
2014    8       11     7  12    7.69   448.7    8.8      59.407
2014    8       11     7  17    7.69   449.1    8.8      59.462
2014    8       11     7  23    7.68   449.5    8.8      59.518
2014    8       11     7  28    7.68   449.9    8.8      59.574
2014    8       11     7  34    7.68   450.3    8.8      59.630
2014    8       11     7  39    7.68   450.7    8.7      59.687
2014    8       11     7  45    7.68   451.1    8.7      59.744
2014    8       11     7  50    7.68   451.5    8.7      59.801
2014    8       11     7  56    7.67   451.9    8.7      59.859
2014    8       11     8   1    7.67   452.3    8.7      59.917
2014    8       11     8   7    7.67   452.7    8.7      59.974
2014    8       11     8  12    7.67   453.1    8.6      60.030
2014    8       11     8  18    7.66   453.5    8.6      60.083
2014    8       11     8  24    7.66   454.0    8.6      60.135
2014    8       11     8  29    7.66   454.4    8.6      60.186
2014    8       11     8  35    7.65   454.8    8.6      60.233
2014    8       11     8  40    7.65   455.2    8.5      60.273
2014    8       11     8  46    7.64   455.6    8.5      60.308
2014    8       11     8  51    7.64   456.0    8.5      60.337
2014    8       11     8  57    7.63   456.4    8.5      60.363
2014    8       11     9   2    7.63   456.8    8.4      60.385
2014    8       11     9   8    7.62   457.1    8.4      60.403
2014    8       11     9  13    7.61   457.4    8.4      60.417
2014    8       11     9  19    7.61   457.8    8.4      60.433
2014    8       11     9  24    7.60   458.1    8.3      60.451
2014    8       11     9  30    7.60   458.5    8.3      60.471
2014    8       11     9  35    7.59   458.8    8.3      60.492
2014    8       11     9  41    7.58   459.2    8.3      60.515
2014    8       11     9  46    7.58   459.5    8.3      60.540
2014    8       11     9  52    7.57   459.9    8.2      60.566
2014    8       11     9  57    7.57   460.2    8.2      60.594
2014    8       11    10   3    7.56   460.6    8.2      60.625
2014    8       11    10   8    7.56   460.9    8.2      60.659
2014    8       11    10  14    7.55   461.3    8.1      60.694
2014    8       11    10  19    7.55   461.6    8.1      60.731
2014    8       11    10  25    7.54   462.0    8.1      60.770
2014    8       11    10  31    7.53   462.3    8.1      60.809
2014    8       11    10  36    7.53   462.7    8.1      60.850
2014    8       11    10  42    7.52   463.0    8.0      60.892
2014    8       11    10  47    7.52   463.4    8.0      60.935
2014    8       11    10  53    7.51   463.7    8.0      60.978
2014    8       11    10  58    7.51   464.1    8.0      61.022
2014    8       11    11   4    7.50   464.4    8.0      61.066
2014    8       11    11   9    7.50   464.8    8.0      61.111
2014    8       11    11  15    7.49   465.1    7.9      61.156
2014    8       11    11  20    7.48   465.5    7.9      61.201
2014    8       11    11  26    7.48   465.8    7.9      61.246
2014    8       11    11  31    7.47   466.2    7.9      61.291
2014    8       11    11  37    7.47   466.5    7.9      61.336
2014    8       11    11  42    7.46   466.9    7.8      61.380
2014    8       11    11  48    7.45   467.3    7.8      61.423
2014    8       11    11  53    7.45   467.6    7.8      61.464
2014    8       11    11  59    7.44   468.0    7.8      61.503
2014    8       11    12   4    7.43   468.3    7.8      61.538
2014    8       11    12  10    7.43   468.7    7.7      61.569
2014    8       11    12  15    7.42   469.0    7.7      61.596
2014    8       11    12  21    7.41   469.3    7.7      61.620
2014    8       11    12  26    7.41   469.7    7.7      61.642
2014    8       11    12  32    7.40   470.0    7.7      61.660
2014    8       11    12  37    7.39   470.3    7.6      61.677
2014    8       11    12  43    7.38   470.6    7.6      61.692
2014    8       11    12  49    7.38   471.0    7.6      61.706
2014    8       11    12  54    7.37   471.3    7.6      61.720
2014    8       11    13   0    7.36   471.6    7.6      61.732
2014    8       11    13   5    7.35   471.9    7.5      61.743
2014    8       11    13  11    7.35   472.3    7.5      61.754
2014    8       11    13  16    7.34   472.6    7.5      61.764
2014    8       11    13  22    7.33   472.9    7.5      61.774
2014    8       11    13  27    7.33   473.2    7.5      61.784
2014    8       11    13  33    7.32   473.5    7.5      61.793
2014    8       11    13  38    7.31   473.8    7.4      61.802
2014    8       11    13  44    7.30   474.1    7.4      61.810
2014    8       11    13  49    7.30   474.5    7.4      61.818
2014    8       11    13  55    7.29   474.8    7.4      61.825
2014    8       11    14   0    7.28   475.1    7.4      61.833
2014    8       11    14   6    7.28   475.4    7.4      61.840
2014    8       11    14  11    7.27   475.7    7.3      61.846
2014    8       11    14  17    7.26   476.0    7.3      61.851
2014    8       11    14  22    7.25   476.3    7.3      61.857
2014    8       11    14  28    7.25   476.6    7.3      61.862
2014    8       11    14  33    7.24   476.9    7.3      61.868
2014    8       11    14  39    7.23   477.2    7.3      61.874
2014    8       11    14  44    7.23   477.5    7.2      61.879
2014    8       11    14  50    7.22   477.9    7.2      61.886
2014    8       11    14  55    7.21   478.2    7.2      61.893
2014    8       11    15   1    7.21   478.5    7.2      61.901
2014    8       11    15   7    7.20   478.9    7.2      61.910
2014    8       11    15  12    7.19   479.2    7.2      61.919
2014    8       11    15  18    7.18   479.6    7.1      61.929
2014    8       11    15  23    7.18   480.0    7.1      61.938
2014    8       11    15  29    7.17   480.3    7.1      61.946
2014    8       11    15  34    7.16   480.7    7.1      61.950
2014    8       11    15  40    7.15   481.1    7.1      61.950
2014    8       11    15  45    7.14   481.5    7.0      61.948
2014    8       11    15  51    7.13   481.9    7.0      61.939
2014    8       11    15  56    7.12   482.2    7.0      61.920
2014    8       11    16   2    7.11   482.6    7.0      61.893
2014    8       11    16   7    7.10   482.9    7.0      61.859
2014    8       11    16  13    7.09   483.2    6.9      61.820
2014    8       11    16  18    7.08   483.5    6.9      61.777
2014    8       11    16  24    7.07   483.8    6.9      61.728
2014    8       11    16  29    7.05   484.0    6.9      61.675
2014    8       11    16  35    7.04   484.2    6.8      61.624
2014    8       11    16  40    7.03   484.5    6.8      61.575
2014    8       11    16  46    7.02   484.7    6.8      61.529
2014    8       11    16  51    7.01   484.9    6.8      61.485
2014    8       11    16  57    7.00   485.2    6.7      61.442
2014    8       11    17   2    6.99   485.4    6.7      61.400
2014    8       11    17   8    6.98   485.6    6.7      61.360
2014    8       11    17  14    6.97   485.9    6.7      61.322
2014    8       11    17  19    6.96   486.1    6.7      61.287
2014    8       11    17  25    6.95   486.4    6.7      61.254
2014    8       11    17  30    6.94   486.6    6.6      61.222
2014    8       11    17  36    6.93   486.9    6.6      61.193
2014    8       11    17  41    6.92   487.1    6.6      61.164
2014    8       11    17  47    6.91   487.4    6.6      61.136
2014    8       11    17  52    6.91   487.7    6.6      61.108
2014    8       11    17  58    6.90   487.9    6.6      61.081
2014    8       11    18   3    6.89   488.2    6.5      61.054
2014    8       11    18   9    6.88   488.5    6.5      61.027
2014    8       11    18  14    6.87   488.7    6.5      61.000
2014    8       11    18  20    6.86   489.0    6.5      60.973
2014    8       11    18  25    6.85   489.2    6.5      60.946
2014    8       11    18  31    6.84   489.5    6.5      60.918
2014    8       11    18  36    6.83   489.7    6.4      60.891
2014    8       11    18  42    6.82   490.0    6.4      60.863
2014    8       11    18  47    6.81   490.3    6.4      60.834
2014    8       11    18  53    6.80   490.5    6.4      60.804
2014    8       11    18  58    6.79   490.8    6.4      60.771
2014    8       11    19   4    6.78   491.0    6.3      60.736
2014    8       11    19   9    6.77   491.3    6.3      60.697
2014    8       11    19  15    6.76   491.5    6.3      60.655
2014    8       11    19  21    6.75   491.7    6.3      60.609
2014    8       11    19  26    6.74   492.0    6.3      60.561
2014    8       11    19  32    6.73   492.2    6.3      60.509
2014    8       11    19  37    6.72   492.4    6.2      60.456
2014    8       11    19  43    6.71   492.6    6.2      60.402
2014    8       11    19  48    6.70   492.8    6.2      60.347
2014    8       11    19  54    6.69   493.0    6.2      60.292
2014    8       11    19  59    6.68   493.2    6.2      60.238
2014    8       11    20   5    6.67   493.4    6.2      60.183
2014    8       11    20  10    6.66   493.5    6.1      60.128
2014    8       11    20  16    6.65   493.7    6.1      60.074
2014    8       11    20  21    6.64   493.9    6.1      60.020
2014    8       11    20  27    6.63   494.1    6.1      59.966
2014    8       11    20  32    6.62   494.3    6.1      59.914
2014    8       11    20  38    6.61   494.4    6.1      59.862
2014    8       11    20  43    6.60   494.6    6.1      59.811
2014    8       11    20  49    6.59   494.8    6.0      59.760
2014    8       11    20  54    6.58   495.0    6.0      59.710
2014    8       11    21   0    6.57   495.1    6.0      59.660
2014    8       11    21   5    6.56   495.3    6.0      59.610
2014    8       11    21  11    6.55   495.4    6.0      59.561
2014    8       11    21  16    6.54   495.6    6.0      59.512
2014    8       11    21  22    6.54   495.7    6.0      59.464
2014    8       11    21  27    6.53   495.9    6.0      59.415
2014    8       11    21  33    6.52   496.0    5.9      59.368
2014    8       11    21  39    6.51   496.2    5.9      59.320
2014    8       11    21  44    6.50   496.3    5.9      59.274
2014    8       11    21  50    6.49   496.4    5.9      59.227
2014    8       11    21  55    6.48   496.6    5.9      59.181
2014    8       11    22   1    6.47   496.7    5.9      59.136
2014    8       11    22   6    6.47   496.8    5.9      59.090
2014    8       11    22  12    6.46   497.0    5.9      59.045
2014    8       11    22  17    6.45   497.1    5.9      59.001
2014    8       11    22  23    6.44   497.2    5.9      58.956
2014    8       11    22  28    6.43   497.4    5.8      58.911
2014    8       11    22  34    6.42   497.5    5.8      58.868
2014    8       11    22  39    6.41   497.7    5.8      58.824
2014    8       11    22  45    6.40   497.8    5.8      58.779
2014    8       11    22  50    6.40   497.9    5.8      58.731
2014    8       11    22  56    6.39   498.1    5.8      58.682
2014    8       11    23   1    6.38   498.2    5.8      58.630
2014    8       11    23   7    6.37   498.3    5.8      58.578
2014    8       11    23  12    6.36   498.4    5.8      58.525
2014    8       11    23  18    6.35   498.5    5.8      58.473
2014    8       11    23  23    6.34   498.6    5.7      58.422
2014    8       11    23  29    6.33   498.7    5.7      58.372
2014    8       11    23  34    6.32   498.8    5.7      58.322
2014    8       11    23  40    6.32   498.9    5.7      58.273
2014    8       11    23  45    6.31   498.9    5.7      58.225
2014    8       11    23  51    6.30   499.0    5.7      58.178
2014    8       11    23  57    6.29   499.0    5.7      58.133
2014    8       12     0   2    6.28   499.1    5.7      58.087
2014    8       12     0   8    6.27   499.2    5.7      58.042
2014    8       12     0  13    6.27   499.2    5.7      57.997
2014    8       12     0  19    6.26   499.3    5.7      57.952
2014    8       12     0  24    6.25   499.4    5.7      57.907
2014    8       12     0  30    6.24   499.4    5.6      57.864
2014    8       12     0  35    6.23   499.5    5.6      57.820
2014    8       12     0  41    6.23   499.6    5.6      57.777
2014    8       12     0  46    6.22   499.7    5.6      57.734
2014    8       12     0  52    6.21   499.8    5.6      57.692
2014    8       12     0  57    6.20   499.9    5.6      57.650
2014    8       12     1   3    6.20   500.1    5.6      57.607
2014    8       12     1   8    6.19   500.2    5.6      57.564
2014    8       12     1  14    6.18   500.3    5.6      57.520
2014    8       12     1  19    6.18   500.4    5.6      57.476
2014    8       12     1  25    6.17   500.5    5.6      57.431
2014    8       12     1  30    6.16   500.6    5.6      57.386
2014    8       12     1  36    6.15   500.7    5.6      57.340
2014    8       12     1  41    6.14   500.8    5.5      57.293
2014    8       12     1  47    6.14   500.9    5.5      57.245
2014    8       12     1  52    6.13   501.0    5.5      57.197
2014    8       12     1  58    6.12   501.1    5.5      57.148
2014    8       12     2   4    6.11   501.2    5.5      57.098
2014    8       12     2   9    6.11   501.3    5.5      57.048
2014    8       12     2  15    6.10   501.4    5.5      56.998
2014    8       12     2  20    6.09   501.5    5.5      56.948
2014    8       12     2  26    6.08   501.6    5.5      56.899
2014    8       12     2  31    6.08   501.7    5.5      56.849
2014    8       12     2  37    6.07   501.8    5.5      56.800
2014    8       12     2  42    6.06   501.9    5.5      56.750
2014    8       12     2  48    6.05   501.9    5.4      56.700
2014    8       12     2  53    6.04   502.0    5.4      56.651
2014    8       12     2  59    6.04   502.1    5.4      56.601
2014    8       12     3   4    6.03   502.2    5.4      56.551
2014    8       12     3  10    6.02   502.3    5.4      56.501
2014    8       12     3  15    6.01   502.4    5.4      56.452
2014    8       12     3  21    6.01   502.4    5.4      56.402
2014    8       12     3  26    6.00   502.5    5.4      56.352
2014    8       12     3  32    5.99   502.6    5.4      56.303
2014    8       12     3  37    5.98   502.6    5.4      56.254
2014    8       12     3  43    5.98   502.7    5.4      56.205
2014    8       12     3  48    5.97   502.8    5.4      56.156
2014    8       12     3  54    5.96   502.9    5.4      56.107
2014    8       12     3  59    5.96   503.0    5.3      56.058
2014    8       12     4   5    5.95   503.0    5.3      56.009
2014    8       12     4  10    5.94   503.1    5.3      55.960
2014    8       12     4  16    5.94   503.2    5.3      55.911
2014    8       12     4  22    5.93   503.3    5.3      55.862
2014    8       12     4  27    5.92   503.3    5.3      55.813
2014    8       12     4  33    5.91   503.4    5.3      55.763
2014    8       12     4  38    5.91   503.5    5.3      55.714
2014    8       12     4  44    5.90   503.6    5.3      55.664
2014    8       12     4  49    5.89   503.6    5.3      55.615
2014    8       12     4  55    5.89   503.7    5.3      55.565
2014    8       12     5   0    5.88   503.8    5.3      55.515
2014    8       12     5   6    5.87   503.8    5.3      55.465
2014    8       12     5  11    5.87   503.9    5.3      55.416
2014    8       12     5  17    5.86   503.9    5.2      55.366
2014    8       12     5  22    5.85   504.0    5.2      55.317
2014    8       12     5  28    5.85   504.0    5.2      55.269
2014    8       12     5  33    5.84   504.1    5.2      55.221
2014    8       12     5  39    5.84   504.1    5.2      55.173
2014    8       12     5  44    5.83   504.2    5.2      55.127
2014    8       12     5  50    5.82   504.2    5.2      55.081
2014    8       12     5  55    5.82   504.3    5.2      55.036
2014    8       12     6   1    5.81   504.3    5.2      54.992
2014    8       12     6   6    5.80   504.3    5.2      54.950
2014    8       12     6  12    5.80   504.4    5.2      54.908
2014    8       12     6  17    5.79   504.4    5.2      54.867
2014    8       12     6  23    5.78   504.4    5.2      54.827
2014    8       12     6  29    5.78   504.4    5.2      54.788
2014    8       12     6  34    5.77   504.5    5.2      54.751
2014    8       12     6  40    5.77   504.5    5.2      54.715
2014    8       12     6  45    5.76   504.5    5.2      54.679
2014    8       12     6  51    5.75   504.5    5.2      54.645
2014    8       12     6  56    5.75   504.6    5.2      54.611
2014    8       12     7   2    5.74   504.6    5.1      54.577
2014    8       12     7   7    5.74   504.6    5.1      54.544
2014    8       12     7  13    5.73   504.6    5.1      54.511
2014    8       12     7  18    5.73   504.7    5.1      54.478
2014    8       12     7  24    5.72   504.7    5.1      54.444
2014    8       12     7  29    5.71   504.7    5.1      54.411
2014    8       12     7  35    5.71   504.7    5.1      54.377
2014    8       12     7  40    5.70   504.8    5.1      54.343
2014    8       12     7  46    5.70   504.8    5.1      54.309
2014    8       12     7  51    5.69   504.8    5.1      54.274
2014    8       12     7  57    5.69   504.8    5.1      54.240
2014    8       12     8   2    5.68   504.8    5.1      54.205
2014    8       12     8   8    5.67   504.9    5.1      54.170
2014    8       12     8  13    5.67   504.9    5.1      54.135
2014    8       12     8  19    5.66   504.9    5.1      54.099
2014    8       12     8  24    5.66   504.9    5.1      54.063
2014    8       12     8  30    5.65   504.9    5.1      54.027
2014    8       12     8  35    5.65   504.9    5.1      53.991
2014    8       12     8  41    5.64   505.0    5.1      53.955
2014    8       12     8  47    5.64   505.0    5.1      53.918
2014    8       12     8  52    5.63   505.0    5.1      53.882
2014    8       12     8  58    5.62   505.0    5.1      53.845
2014    8       12     9   3    5.62   505.0    5.1      53.808
2014    8       12     9   9    5.61   505.0    5.0      53.771
2014    8       12     9  14    5.61   505.0    5.0      53.734
2014    8       12     9  20    5.60   505.0    5.0      53.696
2014    8       12     9  25    5.60   505.1    5.0      53.658
2014    8       12     9  31    5.59   505.1    5.0      53.621
2014    8       12     9  36    5.59   505.1    5.0      53.582
2014    8       12     9  42    5.58   505.1    5.0      53.544
2014    8       12     9  47    5.58   505.1    5.0      53.506
2014    8       12     9  53    5.57   505.1    5.0      53.467
2014    8       12     9  58    5.57   505.1    5.0      53.428
2014    8       12    10   4    5.56   505.1    5.0      53.389
2014    8       12    10   9    5.56   505.1    5.0      53.350
2014    8       12    10  15    5.55   505.1    5.0      53.311
2014    8       12    10  20    5.55   505.2    5.0      53.272
2014    8       12    10  26    5.54   505.2    5.0      53.233
2014    8       12    10  31    5.54   505.2    5.0      53.193
2014    8       12    10  37    5.53   505.2    5.0      53.153
2014    8       12    10  42    5.53   505.2    5.0      53.113
2014    8       12    10  48    5.52   505.2    5.0      53.073
2014    8       12    10  53    5.52   505.2    5.0      53.032
2014    8       12    10  59    5.51   505.2    5.0      52.992
2014    8       12    11   5    5.51   505.2    5.0      52.951
2014    8       12    11  10    5.50   505.2    5.0      52.911
2014    8       12    11  16    5.50   505.2    4.9      52.870
2014    8       12    11  21    5.49   505.2    4.9      52.829
2014    8       12    11  27    5.49   505.2    4.9      52.788
2014    8       12    11  32    5.48   505.2    4.9      52.748
2014    8       12    11  38    5.48   505.2    4.9      52.707
2014    8       12    11  43    5.47   505.2    4.9      52.666
2014    8       12    11  49    5.47   505.2    4.9      52.626
2014    8       12    11  54    5.46   505.2    4.9      52.585
2014    8       12    12   0    5.46   505.2    4.9      52.545
2014    8       12    12   5    5.45   505.2    4.9      52.505
2014    8       12    12  11    5.45   505.1    4.9      52.465
2014    8       12    12  16    5.44   505.1    4.9      52.426
2014    8       12    12  22    5.44   505.1    4.9      52.386
2014    8       12    12  27    5.43   505.1    4.9      52.348
2014    8       12    12  33    5.43   505.1    4.9      52.309
2014    8       12    12  38    5.42   505.1    4.9      52.271
2014    8       12    12  44    5.42   505.1    4.9      52.233
2014    8       12    12  49    5.42   505.1    4.9      52.196
2014    8       12    12  55    5.41   505.1    4.9      52.158
2014    8       12    13   0    5.41   505.1    4.9      52.122
2014    8       12    13   6    5.40   505.0    4.9      52.086
2014    8       12    13  12    5.40   505.0    4.9      52.050
2014    8       12    13  17    5.39   505.0    4.9      52.014
2014    8       12    13  23    5.39   505.0    4.9      51.979
2014    8       12    13  28    5.38   505.0    4.9      51.944
2014    8       12    13  34    5.38   505.0    4.9      51.910
2014    8       12    13  39    5.38   505.0    4.9      51.876
2014    8       12    13  45    5.37   504.9    4.9      51.842
2014    8       12    13  50    5.37   504.9    4.9      51.809
2014    8       12    13  56    5.36   504.9    4.9      51.776
2014    8       12    14   1    5.36   504.9    4.9      51.743
2014    8       12    14   7    5.35   504.9    4.8      51.710
2014    8       12    14  12    5.35   504.9    4.8      51.678
2014    8       12    14  18    5.35   504.8    4.8      51.646
2014    8       12    14  23    5.34   504.8    4.8      51.614
2014    8       12    14  29    5.34   504.8    4.8      51.583
2014    8       12    14  34    5.33   504.8    4.8      51.551
2014    8       12    14  40    5.33   504.8    4.8      51.520
2014    8       12    14  45    5.33   504.7    4.8      51.489
2014    8       12    14  51    5.32   504.7    4.8      51.458
2014    8       12    14  56    5.32   504.7    4.8      51.427
2014    8       12    15   2    5.31   504.7    4.8      51.396
2014    8       12    15   7    5.31   504.6    4.8      51.366
2014    8       12    15  13    5.31   504.6    4.8      51.335
2014    8       12    15  18    5.30   504.6    4.8      51.305
2014    8       12    15  24    5.30   504.6    4.8      51.275
2014    8       12    15  30    5.30   504.5    4.8      51.245
2014    8       12    15  35    5.29   504.5    4.8      51.215
2014    8       12    15  41    5.29   504.5    4.8      51.184
2014    8       12    15  46    5.28   504.5    4.8      51.155
2014    8       12    15  52    5.28   504.4    4.8      51.125
2014    8       12    15  57    5.28   504.4    4.8      51.095
2014    8       12    16   3    5.27   504.4    4.8      51.066
2014    8       12    16   8    5.27   504.3    4.8      51.036
2014    8       12    16  14    5.27   504.3    4.8      51.007
2014    8       12    16  19    5.26   504.3    4.8      50.977
2014    8       12    16  25    5.26   504.3    4.8      50.948
2014    8       12    16  30    5.25   504.2    4.8      50.919
2014    8       12    16  36    5.25   504.2    4.8      50.890
2014    8       12    16  41    5.25   504.2    4.8      50.861
2014    8       12    16  47    5.24   504.1    4.8      50.832
2014    8       12    16  52    5.24   504.1    4.8      50.803
2014    8       12    16  58    5.24   504.1    4.8      50.774
2014    8       12    17   3    5.23   504.0    4.8      50.746
2014    8       12    17   9    5.23   504.0    4.8      50.717
2014    8       12    17  14    5.23   504.0    4.8      50.688
2014    8       12    17  20    5.22   503.9    4.8      50.660
2014    8       12    17  25    5.22   503.9    4.8      50.631
2014    8       12    17  31    5.22   503.9    4.8      50.603
2014    8       12    17  37    5.21   503.8    4.8      50.574
2014    8       12    17  42    5.21   503.8    4.8      50.546
2014    8       12    17  48    5.21   503.8    4.7      50.517
2014    8       12    17  53    5.20   503.7    4.7      50.489
2014    8       12    17  59    5.20   503.7    4.7      50.460
2014    8       12    18   4    5.20   503.7    4.7      50.431
2014    8       12    18  10    5.19   503.6    4.7      50.403
2014    8       12    18  15    5.19   503.6    4.7      50.374
2014    8       12    18  21    5.19   503.6    4.7      50.345
2014    8       12    18  26    5.18   503.5    4.7      50.316
2014    8       12    18  32    5.18   503.5    4.7      50.287
2014    8       12    18  37    5.18   503.4    4.7      50.258
2014    8       12    18  43    5.17   503.4    4.7      50.229
2014    8       12    18  48    5.17   503.4    4.7      50.200
2014    8       12    18  54    5.17   503.3    4.7      50.171
2014    8       12    18  59    5.16   503.3    4.7      50.142
2014    8       12    19   5    5.16   503.2    4.7      50.113
2014    8       12    19  10    5.16   503.2    4.7      50.084
2014    8       12    19  16    5.15   503.2    4.7      50.055
2014    8       12    19  21    5.15   503.1    4.7      50.026
2014    8       12    19  27    5.15   503.1    4.7      49.998
2014    8       12    19  32    5.14   503.0    4.7      49.969
2014    8       12    19  38    5.14   503.0    4.7      49.941
2014    8       12    19  43    5.14   503.0    4.7      49.913
2014    8       12    19  49    5.13   502.9    4.7      49.885
2014    8       12    19  55    5.13   502.9    4.7      49.857
2014    8       12    20   0    5.13   502.8    4.7      49.830
2014    8       12    20   6    5.12   502.8    4.7      49.802
2014    8       12    20  11    5.12   502.7    4.7      49.775
2014    8       12    20  17    5.12   502.7    4.7      49.748
2014    8       12    20  22    5.12   502.6    4.7      49.721
2014    8       12    20  28    5.11   502.6    4.7      49.695
2014    8       12    20  33    5.11   502.6    4.7      49.669
2014    8       12    20  39    5.11   502.5    4.7      49.643
2014    8       12    20  44    5.10   502.5    4.7      49.617
2014    8       12    20  50    5.10   502.4    4.7      49.591
2014    8       12    20  55    5.10   502.4    4.7      49.566
2014    8       12    21   1    5.10   502.3    4.7      49.541
2014    8       12    21   6    5.09   502.3    4.7      49.515
2014    8       12    21  12    5.09   502.3    4.7      49.490
2014    8       12    21  17    5.09   502.2    4.7      49.465
2014    8       12    21  23    5.08   502.2    4.7      49.441
2014    8       12    21  28    5.08   502.1    4.7      49.416
2014    8       12    21  34    5.08   502.1    4.7      49.392
2014    8       12    21  39    5.08   502.0    4.7      49.367
2014    8       12    21  45    5.07   502.0    4.7      49.343
2014    8       12    21  50    5.07   501.9    4.7      49.318
2014    8       12    21  56    5.07   501.9    4.7      49.294
2014    8       12    22   1    5.06   501.8    4.7      49.270
2014    8       12    22   7    5.06   501.8    4.7      49.246
2014    8       12    22  13    5.06   501.7    4.7      49.221
2014    8       12    22  18    5.06   501.7    4.7      49.197
2014    8       12    22  24    5.05   501.6    4.7      49.174
2014    8       12    22  29    5.05   501.6    4.7      49.150
2014    8       12    22  35    5.05   501.5    4.7      49.126
2014    8       12    22  40    5.05   501.5    4.7      49.102
2014    8       12    22  46    5.04   501.4    4.7      49.079
2014    8       12    22  51    5.04   501.4    4.7      49.055
2014    8       12    22  57    5.04   501.3    4.7      49.032
2014    8       12    23   2    5.04   501.3    4.7      49.009
2014    8       12    23   8    5.03   501.2    4.7      48.986
2014    8       12    23  13    5.03   501.2    4.7      48.963
2014    8       12    23  19    5.03   501.1    4.7      48.941
2014    8       12    23  24    5.03   501.1    4.7      48.918
2014    8       12    23  30    5.02   501.0    4.7      48.896
2014    8       12    23  35    5.02   501.0    4.7      48.874
2014    8       12    23  41    5.02   500.9    4.7      48.852
2014    8       12    23  46    5.02   500.9    4.7      48.830
2014    8       12    23  52    5.01   500.8    4.7      48.809
2014    8       12    23  57    5.01   500.8    4.7      48.788
2014    8       13     0   3    5.01   500.7    4.7      48.767
2014    8       13     0   8    5.01   500.7    4.7      48.746
2014    8       13     0  14    5.00   500.6    4.7      48.725
2014    8       13     0  20    5.00   500.6    4.7      48.705
2014    8       13     0  25    5.00   500.5    4.7      48.684
2014    8       13     0  31    5.00   500.5    4.7      48.664
2014    8       13     0  36    4.99   500.4    4.7      48.644
2014    8       13     0  42    4.99   500.4    4.6      48.624
2014    8       13     0  47    4.99   500.3    4.6      48.605
2014    8       13     0  53    4.99   500.3    4.6      48.585
2014    8       13     0  58    4.99   500.2    4.6      48.566
2014    8       13     1   4    4.98   500.2    4.6      48.546
2014    8       13     1   9    4.98   500.1    4.6      48.527
2014    8       13     1  15    4.98   500.1    4.6      48.508
2014    8       13     1  20    4.98   500.0    4.6      48.488
2014    8       13     1  26    4.97   499.9    4.6      48.469
2014    8       13     1  31    4.97   499.9    4.6      48.450
2014    8       13     1  37    4.97   499.8    4.6      48.431
2014    8       13     1  42    4.97   499.8    4.6      48.412
2014    8       13     1  48    4.97   499.7    4.6      48.392
2014    8       13     1  53    4.96   499.7    4.6      48.373
2014    8       13     1  59    4.96   499.6    4.6      48.354
2014    8       13     2   4    4.96   499.6    4.6      48.335
2014    8       13     2  10    4.96   499.5    4.6      48.316
2014    8       13     2  15    4.95   499.4    4.6      48.297
2014    8       13     2  21    4.95   499.4    4.6      48.277
2014    8       13     2  26    4.95   499.3    4.6      48.258
2014    8       13     2  32    4.95   499.3    4.6      48.239
2014    8       13     2  38    4.95   499.2    4.6      48.219
2014    8       13     2  43    4.94   499.1    4.6      48.200
2014    8       13     2  49    4.94   499.1    4.6      48.181
2014    8       13     2  54    4.94   499.0    4.6      48.161
2014    8       13     3   0    4.94   499.0    4.6      48.142
2014    8       13     3   5    4.93   498.9    4.6      48.122
2014    8       13     3  11    4.93   498.8    4.6      48.103
2014    8       13     3  16    4.93   498.8    4.6      48.083
2014    8       13     3  22    4.93   498.7    4.6      48.064
2014    8       13     3  27    4.93   498.7    4.6      48.044
2014    8       13     3  33    4.92   498.6    4.6      48.025
2014    8       13     3  38    4.92   498.5    4.6      48.005
2014    8       13     3  44    4.92   498.5    4.6      47.986
2014    8       13     3  49    4.92   498.4    4.6      47.966
2014    8       13     3  55    4.92   498.3    4.6      47.947
2014    8       13     4   0    4.91   498.3    4.6      47.927
2014    8       13     4   6    4.91   498.2    4.6      47.907
2014    8       13     4  11    4.91   498.1    4.6      47.888
2014    8       13     4  17    4.91   498.1    4.6      47.868
2014    8       13     4  22    4.91   498.0    4.6      47.849
2014    8       13     4  28    4.90   498.0    4.6      47.829
2014    8       13     4  33    4.90   497.9    4.6      47.810
2014    8       13     4  39    4.90   497.8    4.6      47.790
2014    8       13     4  45    4.90   497.8    4.6      47.770
2014    8       13     4  50    4.90   497.7    4.6      47.751
2014    8       13     4  56    4.89   497.6    4.6      47.731
2014    8       13     5   1    4.89   497.6    4.6      47.711
2014    8       13     5   7    4.89   497.5    4.6      47.692
2014    8       13     5  12    4.89   497.4    4.6      47.672
2014    8       13     5  18    4.89   497.4    4.6      47.653
2014    8       13     5  23    4.89   497.3    4.6      47.633
2014    8       13     5  29    4.88   497.3    4.6      47.614
2014    8       13     5  34    4.88   497.2    4.6      47.594
2014    8       13     5  40    4.88   497.1    4.6      47.575
2014    8       13     5  45    4.88   497.1    4.6      47.555
2014    8       13     5  51    4.88   497.0    4.6      47.536
2014    8       13     5  56    4.87   496.9    4.6      47.517
2014    8       13     6   2    4.87   496.9    4.6      47.497
2014    8       13     6   7    4.87   496.8    4.6      47.478
2014    8       13     6  13    4.87   496.8    4.6      47.459
2014    8       13     6  18    4.87   496.7    4.6      47.440
2014    8       13     6  24    4.87   496.6    4.6      47.421
2014    8       13     6  29    4.86   496.6    4.6      47.403
2014    8       13     6  35    4.86   496.5    4.6      47.384
2014    8       13     6  40    4.86   496.4    4.6      47.366
2014    8       13     6  46    4.86   496.4    4.6      47.347
2014    8       13     6  51    4.86   496.3    4.6      47.329
2014    8       13     6  57    4.86   496.3    4.6      47.311
2014    8       13     7   3    4.85   496.2    4.6      47.293
2014    8       13     7   8    4.85   496.1    4.6      47.275
2014    8       13     7  14    4.85   496.1    4.6      47.257
2014    8       13     7  19    4.85   496.0    4.6      47.239
2014    8       13     7  25    4.85   495.9    4.6      47.222
2014    8       13     7  30    4.85   495.9    4.6      47.204
2014    8       13     7  36    4.84   495.8    4.6      47.187
2014    8       13     7  41    4.84   495.8    4.6      47.170
2014    8       13     7  47    4.84   495.7    4.6      47.153
2014    8       13     7  52    4.84   495.6    4.6      47.135
2014    8       13     7  58    4.84   495.6    4.6      47.118
2014    8       13     8   3    4.84   495.5    4.6      47.102
2014    8       13     8   9    4.83   495.5    4.6      47.085
2014    8       13     8  14    4.83   495.4    4.6      47.068
2014    8       13     8  20    4.83   495.3    4.6      47.052
2014    8       13     8  25    4.83   495.3    4.6      47.035
2014    8       13     8  31    4.83   495.2    4.6      47.019
2014    8       13     8  36    4.83   495.2    4.6      47.003
2014    8       13     8  42    4.82   495.1    4.6      46.987
2014    8       13     8  47    4.82   495.0    4.6      46.971
2014    8       13     8  53    4.82   495.0    4.6      46.955
2014    8       13     8  58    4.82   494.9    4.6      46.939
2014    8       13     9   4    4.82   494.8    4.6      46.924
2014    8       13     9   9    4.82   494.8    4.6      46.908
2014    8       13     9  15    4.81   494.7    4.6      46.893
2014    8       13     9  21    4.81   494.7    4.6      46.877
2014    8       13     9  26    4.81   494.6    4.6      46.862
2014    8       13     9  32    4.81   494.5    4.6      46.847
2014    8       13     9  37    4.81   494.5    4.6      46.832
2014    8       13     9  43    4.81   494.4    4.6      46.818
2014    8       13     9  48    4.81   494.4    4.6      46.803
2014    8       13     9  54    4.80   494.3    4.6      46.788
2014    8       13     9  59    4.80   494.2    4.6      46.773
2014    8       13    10   5    4.80   494.2    4.6      46.759
2014    8       13    10  10    4.80   494.1    4.6      46.744
2014    8       13    10  16    4.80   494.0    4.6      46.730
2014    8       13    10  21    4.80   494.0    4.6      46.715
2014    8       13    10  27    4.79   493.9    4.6      46.700
2014    8       13    10  32    4.79   493.8    4.6      46.686
2014    8       13    10  38    4.79   493.8    4.6      46.671
2014    8       13    10  43    4.79   493.7    4.6      46.656
2014    8       13    10  49    4.79   493.6    4.6      46.641
2014    8       13    10  54    4.79   493.6    4.6      46.627
2014    8       13    11   0    4.78   493.5    4.6      46.612
2014    8       13    11   5    4.78   493.4    4.6      46.597
2014    8       13    11  11    4.78   493.4    4.6      46.582
2014    8       13    11  16    4.78   493.3    4.6      46.567
2014    8       13    11  22    4.78   493.2    4.6      46.552
2014    8       13    11  28    4.78   493.2    4.6      46.537
2014    8       13    11  33    4.78   493.1    4.6      46.521
2014    8       13    11  39    4.77   493.0    4.6      46.506
2014    8       13    11  44    4.77   493.0    4.6      46.491
2014    8       13    11  50    4.77   492.9    4.6      46.475
2014    8       13    11  55    4.77   492.8    4.6      46.459
2014    8       13    12   1    4.77   492.8    4.6      46.444
2014    8       13    12   6    4.77   492.7    4.6      46.428
2014    8       13    12  12    4.77   492.6    4.6      46.412
2014    8       13    12  17    4.76   492.6    4.6      46.395
2014    8       13    12  23    4.76   492.5    4.6      46.379
2014    8       13    12  28    4.76   492.4    4.6      46.363
2014    8       13    12  34    4.76   492.4    4.6      46.346
2014    8       13    12  39    4.76   492.3    4.6      46.329
2014    8       13    12  45    4.76   492.2    4.6      46.312
2014    8       13    12  50    4.76   492.1    4.6      46.295
2014    8       13    12  56    4.75   492.1    4.6      46.278
2014    8       13    13   1    4.75   492.0    4.6      46.260
2014    8       13    13   7    4.75   491.9    4.6      46.243
2014    8       13    13  12    4.75   491.9    4.6      46.225
2014    8       13    13  18    4.75   491.8    4.6      46.207
2014    8       13    13  23    4.75   491.7    4.6      46.189
2014    8       13    13  29    4.75   491.6    4.6      46.171
2014    8       13    13  34    4.74   491.6    4.6      46.154
2014    8       13    13  40    4.74   491.5    4.6      46.136
2014    8       13    13  46    4.74   491.4    4.6      46.118
2014    8       13    13  51    4.74   491.3    4.6      46.100
2014    8       13    13  57    4.74   491.3    4.6      46.082
2014    8       13    14   2    4.74   491.2    4.6      46.064
2014    8       13    14   8    4.74   491.1    4.6      46.046
2014    8       13    14  13    4.73   491.0    4.6      46.029
2014    8       13    14  19    4.73   491.0    4.6      46.011
2014    8       13    14  24    4.73   490.9    4.6      45.994
2014    8       13    14  30    4.73   490.8    4.6      45.976
2014    8       13    14  35    4.73   490.7    4.6      45.959
2014    8       13    14  41    4.73   490.7    4.6      45.942
2014    8       13    14  46    4.73   490.6    4.6      45.925
2014    8       13    14  52    4.73   490.5    4.6      45.909
2014    8       13    14  57    4.72   490.5    4.6      45.892
2014    8       13    15   3    4.72   490.4    4.6      45.876
2014    8       13    15   8    4.72   490.3    4.6      45.860
2014    8       13    15  14    4.72   490.2    4.6      45.844
2014    8       13    15  19    4.72   490.2    4.6      45.828
2014    8       13    15  25    4.72   490.1    4.6      45.813
2014    8       13    15  30    4.72   490.0    4.6      45.797
2014    8       13    15  36    4.72   490.0    4.6      45.782
2014    8       13    15  41    4.71   489.9    4.6      45.767
2014    8       13    15  47    4.71   489.8    4.6      45.752
2014    8       13    15  52    4.71   489.8    4.6      45.737
2014    8       13    15  58    4.71   489.7    4.6      45.722
2014    8       13    16   4    4.71   489.6    4.6      45.708
2014    8       13    16   9    4.71   489.5    4.6      45.693
2014    8       13    16  15    4.71   489.5    4.6      45.679
2014    8       13    16  20    4.71   489.4    4.6      45.665
2014    8       13    16  26    4.70   489.3    4.6      45.651
2014    8       13    16  31    4.70   489.3    4.6      45.636
2014    8       13    16  37    4.70   489.2    4.6      45.622
2014    8       13    16  42    4.70   489.1    4.6      45.608
2014    8       13    16  48    4.70   489.1    4.6      45.594
2014    8       13    16  53    4.70   489.0    4.6      45.580
2014    8       13    16  59    4.70   488.9    4.6      45.566
2014    8       13    17   4    4.70   488.9    4.6      45.552
2014    8       13    17  10    4.69   488.8    4.6      45.537
2014    8       13    17  15    4.69   488.7    4.6      45.523
2014    8       13    17  21    4.69   488.7    4.6      45.509
2014    8       13    17  26    4.69   488.6    4.6      45.495
2014    8       13    17  32    4.69   488.5    4.6      45.480
2014    8       13    17  37    4.69   488.5    4.6      45.466
2014    8       13    17  43    4.69   488.4    4.6      45.452
2014    8       13    17  48    4.69   488.3    4.6      45.438
2014    8       13    17  54    4.68   488.3    4.6      45.423
2014    8       13    17  59    4.68   488.2    4.6      45.409
2014    8       13    18   5    4.68   488.1    4.6      45.395
2014    8       13    18  11    4.68   488.0    4.6      45.381
2014    8       13    18  16    4.68   488.0    4.6      45.366
2014    8       13    18  22    4.68   487.9    4.6      45.352
2014    8       13    18  27    4.68   487.8    4.6      45.338
2014    8       13    18  33    4.68   487.8    4.6      45.324
2014    8       13    18  38    4.67   487.7    4.6      45.309
2014    8       13    18  44    4.67   487.6    4.6      45.295
2014    8       13    18  49    4.67   487.5    4.6      45.281
2014    8       13    18  55    4.67   487.5    4.6      45.266
2014    8       13    19   0    4.67   487.4    4.6      45.252
2014    8       13    19   6    4.67   487.3    4.6      45.237
2014    8       13    19  11    4.67   487.3    4.6      45.223
2014    8       13    19  17    4.67   487.2    4.6      45.208
2014    8       13    19  22    4.67   487.1    4.6      45.194
2014    8       13    19  28    4.66   487.0    4.6      45.179
2014    8       13    19  33    4.66   487.0    4.6      45.164
2014    8       13    19  39    4.66   486.9    4.6      45.148
2014    8       13    19  44    4.66   486.8    4.6      45.133
2014    8       13    19  50    4.66   486.7    4.6      45.118
2014    8       13    19  55    4.66   486.7    4.6      45.102
2014    8       13    20   1    4.66   486.6    4.6      45.086
2014    8       13    20   6    4.66   486.5    4.6      45.070
2014    8       13    20  12    4.65   486.4    4.6      45.054
2014    8       13    20  17    4.65   486.3    4.6      45.038
2014    8       13    20  23    4.65   486.3    4.6      45.021
2014    8       13    20  29    4.65   486.2    4.6      45.005
2014    8       13    20  34    4.65   486.1    4.6      44.988
2014    8       13    20  40    4.65   486.0    4.6      44.971
2014    8       13    20  45    4.65   485.9    4.6      44.955
2014    8       13    20  51    4.65   485.9    4.6      44.938
2014    8       13    20  56    4.65   485.8    4.6      44.921
2014    8       13    21   2    4.64   485.7    4.6      44.904
2014    8       13    21   7    4.64   485.6    4.6      44.887
2014    8       13    21  13    4.64   485.5    4.6      44.870
2014    8       13    21  18    4.64   485.4    4.6      44.853
2014    8       13    21  24    4.64   485.3    4.6      44.837
2014    8       13    21  29    4.64   485.3    4.6      44.820
2014    8       13    21  35    4.64   485.2    4.6      44.804
2014    8       13    21  40    4.64   485.1    4.6      44.788
2014    8       13    21  46    4.64   485.0    4.6      44.771
2014    8       13    21  51    4.63   484.9    4.6      44.755
2014    8       13    21  57    4.63   484.8    4.6      44.739
2014    8       13    22   2    4.63   484.7    4.6      44.724
2014    8       13    22   8    4.63   484.7    4.6      44.709
2014    8       13    22  13    4.63   484.6    4.6      44.694
2014    8       13    22  19    4.63   484.5    4.6      44.679
2014    8       13    22  24    4.63   484.4    4.6      44.664
2014    8       13    22  30    4.63   484.3    4.6      44.649
2014    8       13    22  35    4.63   484.2    4.7      44.635
2014    8       13    22  41    4.63   484.1    4.7      44.621
2014    8       13    22  47    4.63   484.0    4.7      44.607
2014    8       13    22  52    4.62   484.0    4.7      44.594
2014    8       13    22  58    4.62   483.9    4.7      44.581
2014    8       13    23   3    4.62   483.8    4.7      44.567
2014    8       13    23   9    4.62   483.7    4.7      44.554
2014    8       13    23  14    4.62   483.6    4.7      44.541
2014    8       13    23  20    4.62   483.5    4.7      44.529
2014    8       13    23  25    4.62   483.4    4.7      44.516
2014    8       13    23  31    4.62   483.3    4.7      44.504
2014    8       13    23  36    4.62   483.3    4.7      44.491
2014    8       13    23  42    4.62   483.2    4.7      44.479
2014    8       13    23  47    4.62   483.1    4.7      44.467
2014    8       13    23  53    4.62   483.0    4.7      44.455
2014    8       13    23  58    4.61   482.9    4.7      44.443
2014    8       14     0   4    4.61   482.8    4.7      44.431
