year    month   day   hour  minute  B_enl V_enl   n_enl       T_enl
[year] [month] [day] [hour][minute] [nT]  [km/s]  [cm-3]      [kK]
2014    8       11     0   2    4.90   355.5    9.1      30.915
2014    8       11     0   8    4.91   355.5    9.1      30.946
2014    8       11     0  14    4.91   355.5    9.1      30.978
2014    8       11     0  19    4.92   355.5    9.2      31.010
2014    8       11     0  25    4.93   355.5    9.2      31.041
2014    8       11     0  31    4.93   355.5    9.2      31.073
2014    8       11     0  37    4.94   355.5    9.2      31.105
2014    8       11     0  43    4.95   355.5    9.2      31.136
2014    8       11     0  49    4.95   355.5    9.2      31.167
2014    8       11     0  55    4.96   355.5    9.2      31.198
2014    8       11     1   1    4.97   355.5    9.2      31.229
2014    8       11     1   6    4.97   355.4    9.3      31.260
2014    8       11     1  12    4.98   355.4    9.3      31.291
2014    8       11     1  18    4.99   355.4    9.3      31.321
2014    8       11     1  24    4.99   355.4    9.3      31.351
2014    8       11     1  30    5.00   355.4    9.3      31.381
2014    8       11     1  36    5.00   355.4    9.3      31.410
2014    8       11     1  42    5.01   355.4    9.3      31.440
2014    8       11     1  47    5.02   355.4    9.3      31.469
2014    8       11     1  53    5.02   355.4    9.3      31.498
2014    8       11     1  59    5.03   355.4    9.4      31.527
2014    8       11     2   5    5.04   355.4    9.4      31.556
2014    8       11     2  11    5.04   355.4    9.4      31.585
2014    8       11     2  17    5.05   355.4    9.4      31.613
2014    8       11     2  23    5.06   355.4    9.4      31.642
2014    8       11     2  28    5.06   355.4    9.4      31.670
2014    8       11     2  34    5.07   355.4    9.4      31.698
2014    8       11     2  40    5.08   355.4    9.4      31.726
2014    8       11     2  46    5.08   355.4    9.4      31.754
2014    8       11     2  52    5.09   355.4    9.5      31.782
2014    8       11     2  58    5.10   355.4    9.5      31.809
2014    8       11     3   4    5.10   355.4    9.5      31.837
2014    8       11     3  10    5.11   355.4    9.5      31.865
2014    8       11     3  15    5.12   355.4    9.5      31.892
2014    8       11     3  21    5.12   355.4    9.5      31.920
2014    8       11     3  27    5.13   355.4    9.5      31.948
2014    8       11     3  33    5.14   355.4    9.5      31.976
2014    8       11     3  39    5.15   355.4    9.5      32.003
2014    8       11     3  45    5.15   355.4    9.6      32.031
2014    8       11     3  51    5.16   355.4    9.6      32.059
2014    8       11     3  56    5.17   355.4    9.6      32.088
2014    8       11     4   2    5.17   355.4    9.6      32.116
2014    8       11     4   8    5.18   355.4    9.6      32.145
2014    8       11     4  14    5.19   355.4    9.6      32.174
2014    8       11     4  20    5.20   355.4    9.6      32.203
2014    8       11     4  26    5.20   355.4    9.6      32.233
2014    8       11     4  32    5.21   355.5    9.7      32.263
2014    8       11     4  38    5.22   355.5    9.7      32.293
2014    8       11     4  43    5.23   355.5    9.7      32.324
2014    8       11     4  49    5.23   355.5    9.7      32.356
2014    8       11     4  55    5.24   355.5    9.7      32.388
2014    8       11     5   1    5.25   355.5    9.7      32.420
2014    8       11     5   7    5.26   355.5    9.7      32.453
2014    8       11     5  13    5.27   355.5    9.8      32.487
2014    8       11     5  19    5.28   355.5    9.8      32.522
2014    8       11     5  24    5.28   355.5    9.8      32.559
2014    8       11     5  30    5.29   355.6    9.8      32.596
2014    8       11     5  36    5.30   355.6    9.8      32.634
2014    8       11     5  42    5.31   355.6    9.8      32.673
2014    8       11     5  48    5.32   355.6    9.9      32.712
2014    8       11     5  54    5.33   355.6    9.9      32.753
2014    8       11     6   0    5.34   355.7    9.9      32.794
2014    8       11     6   6    5.35   355.7    9.9      32.839
2014    8       11     6  11    5.36   355.7    9.9      32.886
2014    8       11     6  17    5.37   355.8   10.0      32.936
2014    8       11     6  23    5.38   355.8   10.0      32.989
2014    8       11     6  29    5.39   355.9   10.0      33.044
2014    8       11     6  35    5.40   355.9   10.0      33.101
2014    8       11     6  41    5.41   356.0   10.0      33.161
2014    8       11     6  47    5.42   356.1   10.1      33.223
2014    8       11     6  52    5.43   356.1   10.1      33.285
2014    8       11     6  58    5.44   356.2   10.1      33.346
2014    8       11     7   4    5.45   356.3   10.1      33.407
2014    8       11     7  10    5.46   356.3   10.1      33.468
2014    8       11     7  16    5.47   356.4   10.2      33.529
2014    8       11     7  22    5.48   356.5   10.2      33.590
2014    8       11     7  28    5.49   356.6   10.2      33.650
2014    8       11     7  34    5.50   356.6   10.2      33.710
2014    8       11     7  39    5.51   356.7   10.2      33.771
2014    8       11     7  45    5.52   356.8   10.2      33.831
2014    8       11     7  51    5.53   356.9   10.2      33.890
2014    8       11     7  57    5.53   356.9   10.3      33.949
2014    8       11     8   3    5.54   357.0   10.3      34.008
2014    8       11     8   9    5.55   357.1   10.3      34.066
2014    8       11     8  15    5.56   357.2   10.3      34.123
2014    8       11     8  20    5.57   357.2   10.3      34.179
2014    8       11     8  26    5.58   357.3   10.3      34.235
2014    8       11     8  32    5.59   357.4   10.3      34.290
2014    8       11     8  38    5.60   357.5   10.3      34.344
2014    8       11     8  44    5.60   357.5   10.4      34.397
2014    8       11     8  50    5.61   357.6   10.4      34.449
2014    8       11     8  56    5.62   357.7   10.4      34.501
2014    8       11     9   1    5.63   357.8   10.4      34.551
2014    8       11     9   7    5.64   357.8   10.4      34.602
2014    8       11     9  13    5.65   357.9   10.4      34.651
2014    8       11     9  19    5.65   357.9   10.4      34.700
2014    8       11     9  25    5.66   358.0   10.4      34.748
2014    8       11     9  31    5.67   358.1   10.4      34.796
2014    8       11     9  37    5.68   358.1   10.4      34.843
2014    8       11     9  43    5.69   358.2   10.5      34.889
2014    8       11     9  48    5.70   358.3   10.5      34.935
2014    8       11     9  54    5.70   358.3   10.5      34.981
2014    8       11    10   0    5.71   358.4   10.5      35.027
2014    8       11    10   6    5.72   358.4   10.5      35.072
2014    8       11    10  12    5.73   358.5   10.5      35.116
2014    8       11    10  18    5.74   358.6   10.5      35.161
2014    8       11    10  24    5.75   358.6   10.5      35.205
2014    8       11    10  29    5.75   358.7   10.5      35.249
2014    8       11    10  35    5.76   358.7   10.5      35.292
2014    8       11    10  41    5.77   358.8   10.6      35.336
2014    8       11    10  47    5.78   358.9   10.6      35.379
2014    8       11    10  53    5.79   358.9   10.6      35.423
2014    8       11    10  59    5.80   359.0   10.6      35.466
2014    8       11    11   5    5.80   359.0   10.6      35.510
2014    8       11    11  11    5.81   359.1   10.6      35.554
2014    8       11    11  16    5.82   359.2   10.6      35.598
2014    8       11    11  22    5.83   359.2   10.6      35.642
2014    8       11    11  28    5.84   359.3   10.6      35.687
2014    8       11    11  34    5.85   359.4   10.6      35.732
2014    8       11    11  40    5.86   359.4   10.7      35.778
2014    8       11    11  46    5.87   359.5   10.7      35.824
2014    8       11    11  52    5.88   359.6   10.7      35.871
2014    8       11    11  57    5.88   359.6   10.7      35.919
2014    8       11    12   3    5.89   359.7   10.7      35.968
2014    8       11    12   9    5.90   359.8   10.7      36.017
2014    8       11    12  15    5.91   359.8   10.7      36.068
2014    8       11    12  21    5.92   359.9   10.7      36.119
2014    8       11    12  27    5.93   360.0   10.8      36.172
2014    8       11    12  33    5.94   360.1   10.8      36.226
2014    8       11    12  39    5.95   360.2   10.8      36.281
2014    8       11    12  44    5.96   360.3   10.8      36.338
2014    8       11    12  50    5.97   360.3   10.8      36.397
2014    8       11    12  56    5.98   360.4   10.8      36.457
2014    8       11    13   2    6.00   360.5   10.9      36.519
2014    8       11    13   8    6.01   360.6   10.9      36.582
2014    8       11    13  14    6.02   360.7   10.9      36.646
2014    8       11    13  20    6.03   360.8   10.9      36.712
2014    8       11    13  25    6.04   360.9   11.0      36.781
2014    8       11    13  31    6.05   361.0   11.0      36.853
2014    8       11    13  37    6.06   361.2   11.0      36.928
2014    8       11    13  43    6.08   361.3   11.0      37.007
2014    8       11    13  49    6.09   361.4   11.1      37.089
2014    8       11    13  55    6.10   361.6   11.1      37.175
2014    8       11    14   1    6.11   361.7   11.1      37.266
2014    8       11    14   6    6.12   361.9   11.1      37.361
2014    8       11    14  12    6.14   362.1   11.2      37.461
2014    8       11    14  18    6.15   362.2   11.2      37.563
2014    8       11    14  24    6.16   362.4   11.2      37.668
2014    8       11    14  30    6.17   362.6   11.2      37.774
2014    8       11    14  36    6.18   362.8   11.3      37.882
2014    8       11    14  42    6.19   363.0   11.3      37.992
2014    8       11    14  48    6.21   363.1   11.3      38.102
2014    8       11    14  53    6.22   363.3   11.3      38.212
2014    8       11    14  59    6.23   363.5   11.3      38.321
2014    8       11    15   5    6.24   363.7   11.4      38.429
2014    8       11    15  11    6.25   363.9   11.4      38.536
2014    8       11    15  17    6.26   364.1   11.4      38.642
2014    8       11    15  23    6.27   364.2   11.4      38.747
2014    8       11    15  29    6.28   364.4   11.4      38.851
2014    8       11    15  34    6.29   364.6   11.4      38.954
2014    8       11    15  40    6.30   364.8   11.5      39.056
2014    8       11    15  46    6.31   365.0   11.5      39.158
2014    8       11    15  52    6.32   365.2   11.5      39.258
2014    8       11    15  58    6.33   365.3   11.5      39.357
2014    8       11    16   4    6.34   365.5   11.5      39.456
2014    8       11    16  10    6.35   365.7   11.5      39.553
2014    8       11    16  16    6.36   365.9   11.5      39.650
2014    8       11    16  21    6.37   366.1   11.5      39.746
2014    8       11    16  27    6.38   366.3   11.6      39.841
2014    8       11    16  33    6.39   366.5   11.6      39.935
2014    8       11    16  39    6.40   366.6   11.6      40.028
2014    8       11    16  45    6.41   366.8   11.6      40.121
2014    8       11    16  51    6.42   367.0   11.6      40.212
2014    8       11    16  57    6.43   367.2   11.6      40.303
2014    8       11    17   2    6.44   367.4   11.6      40.392
2014    8       11    17   8    6.45   367.6   11.6      40.481
2014    8       11    17  14    6.45   367.8   11.6      40.569
2014    8       11    17  20    6.46   368.0   11.6      40.656
2014    8       11    17  26    6.47   368.2   11.6      40.742
2014    8       11    17  32    6.48   368.3   11.6      40.826
2014    8       11    17  38    6.49   368.5   11.6      40.910
2014    8       11    17  44    6.50   368.7   11.6      40.992
2014    8       11    17  49    6.51   368.9   11.6      41.074
2014    8       11    17  55    6.52   369.1   11.6      41.154
2014    8       11    18   1    6.52   369.3   11.6      41.232
2014    8       11    18   7    6.53   369.5   11.6      41.310
2014    8       11    18  13    6.54   369.6   11.6      41.386
2014    8       11    18  19    6.55   369.8   11.6      41.462
2014    8       11    18  25    6.56   370.0   11.6      41.536
2014    8       11    18  30    6.56   370.2   11.6      41.610
2014    8       11    18  36    6.57   370.4   11.6      41.682
2014    8       11    18  42    6.58   370.5   11.6      41.754
2014    8       11    18  48    6.59   370.7   11.6      41.825
2014    8       11    18  54    6.60   370.9   11.6      41.895
2014    8       11    19   0    6.60   371.1   11.6      41.964
2014    8       11    19   6    6.61   371.3   11.6      42.033
2014    8       11    19  11    6.62   371.4   11.6      42.101
2014    8       11    19  17    6.63   371.6   11.6      42.169
2014    8       11    19  23    6.63   371.8   11.6      42.237
2014    8       11    19  29    6.64   372.0   11.6      42.305
2014    8       11    19  35    6.65   372.2   11.6      42.372
2014    8       11    19  41    6.66   372.4   11.6      42.439
2014    8       11    19  47    6.66   372.5   11.6      42.506
2014    8       11    19  53    6.67   372.7   11.6      42.573
2014    8       11    19  58    6.68   372.9   11.6      42.641
2014    8       11    20   4    6.69   373.1   11.7      42.708
2014    8       11    20  10    6.69   373.3   11.7      42.776
2014    8       11    20  16    6.70   373.4   11.7      42.843
2014    8       11    20  22    6.71   373.6   11.7      42.911
2014    8       11    20  28    6.72   373.8   11.7      42.980
2014    8       11    20  34    6.72   374.0   11.7      43.049
2014    8       11    20  39    6.73   374.2   11.7      43.118
2014    8       11    20  45    6.74   374.4   11.7      43.189
2014    8       11    20  51    6.75   374.5   11.7      43.260
2014    8       11    20  57    6.76   374.7   11.7      43.331
2014    8       11    21   3    6.76   374.9   11.7      43.403
2014    8       11    21   9    6.77   375.1   11.7      43.477
2014    8       11    21  15    6.78   375.3   11.7      43.551
2014    8       11    21  21    6.79   375.5   11.7      43.627
2014    8       11    21  26    6.80   375.7   11.7      43.706
2014    8       11    21  32    6.80   375.9   11.7      43.788
2014    8       11    21  38    6.81   376.1   11.7      43.872
2014    8       11    21  44    6.82   376.3   11.7      43.958
2014    8       11    21  50    6.83   376.5   11.8      44.047
2014    8       11    21  56    6.83   376.7   11.8      44.138
2014    8       11    22   2    6.84   377.0   11.8      44.231
2014    8       11    22   7    6.85   377.2   11.8      44.325
2014    8       11    22  13    6.86   377.4   11.8      44.420
2014    8       11    22  19    6.87   377.6   11.8      44.514
2014    8       11    22  25    6.87   377.8   11.8      44.608
2014    8       11    22  31    6.88   378.0   11.8      44.703
2014    8       11    22  37    6.89   378.2   11.8      44.798
2014    8       11    22  43    6.90   378.4   11.8      44.894
2014    8       11    22  49    6.90   378.7   11.8      44.991
2014    8       11    22  54    6.91   378.9   11.8      45.088
2014    8       11    23   0    6.92   379.1   11.8      45.187
2014    8       11    23   6    6.93   379.3   11.9      45.286
2014    8       11    23  12    6.94   379.5   11.9      45.387
2014    8       11    23  18    6.94   379.8   11.9      45.489
2014    8       11    23  24    6.95   380.0   11.9      45.594
2014    8       11    23  30    6.96   380.2   11.9      45.700
2014    8       11    23  35    6.97   380.5   11.9      45.808
2014    8       11    23  41    6.98   380.7   11.9      45.919
2014    8       11    23  47    6.99   381.0   11.9      46.033
2014    8       11    23  53    6.99   381.2   11.9      46.151
2014    8       11    23  59    7.00   381.4   12.0      46.269
2014    8       12     0   5    7.01   381.7   12.0      46.386
2014    8       12     0  11    7.02   381.9   12.0      46.505
2014    8       12     0  17    7.03   382.2   12.0      46.630
2014    8       12     0  22    7.04   382.5   12.0      46.762
2014    8       12     0  28    7.05   382.8   12.0      46.899
2014    8       12     0  34    7.06   383.1   12.1      47.041
2014    8       12     0  40    7.07   383.4   12.1      47.186
2014    8       12     0  46    7.08   383.7   12.1      47.337
2014    8       12     0  52    7.09   384.1   12.1      47.492
2014    8       12     0  58    7.10   384.4   12.1      47.650
2014    8       12     1   3    7.11   384.7   12.1      47.806
2014    8       12     1   9    7.12   385.1   12.1      47.959
2014    8       12     1  15    7.12   385.4   12.1      48.109
2014    8       12     1  21    7.13   385.8   12.1      48.256
2014    8       12     1  27    7.14   386.1   12.1      48.400
2014    8       12     1  33    7.15   386.5   12.2      48.540
2014    8       12     1  39    7.15   386.8   12.2      48.678
2014    8       12     1  44    7.16   387.2   12.2      48.812
2014    8       12     1  50    7.17   387.5   12.2      48.941
2014    8       12     1  56    7.17   387.9   12.1      49.067
2014    8       12     2   2    7.18   388.2   12.1      49.189
2014    8       12     2   8    7.18   388.5   12.1      49.307
2014    8       12     2  14    7.19   388.9   12.1      49.422
2014    8       12     2  20    7.19   389.2   12.1      49.533
2014    8       12     2  26    7.20   389.5   12.1      49.642
2014    8       12     2  31    7.20   389.9   12.1      49.747
2014    8       12     2  37    7.21   390.2   12.1      49.850
2014    8       12     2  43    7.21   390.5   12.1      49.951
2014    8       12     2  49    7.21   390.9   12.1      50.049
2014    8       12     2  55    7.22   391.2   12.1      50.144
2014    8       12     3   1    7.22   391.5   12.0      50.238
2014    8       12     3   7    7.23   391.8   12.0      50.330
2014    8       12     3  12    7.23   392.2   12.0      50.421
2014    8       12     3  18    7.23   392.5   12.0      50.510
2014    8       12     3  24    7.24   392.8   12.0      50.598
2014    8       12     3  30    7.24   393.1   12.0      50.684
2014    8       12     3  36    7.24   393.4   12.0      50.770
2014    8       12     3  42    7.25   393.7   11.9      50.856
2014    8       12     3  48    7.25   394.0   11.9      50.940
2014    8       12     3  54    7.25   394.3   11.9      51.025
2014    8       12     3  59    7.26   394.6   11.9      51.109
2014    8       12     4   5    7.26   395.0   11.9      51.193
2014    8       12     4  11    7.26   395.3   11.9      51.276
2014    8       12     4  17    7.27   395.6   11.9      51.360
2014    8       12     4  23    7.27   395.9   11.8      51.444
2014    8       12     4  29    7.27   396.2   11.8      51.528
2014    8       12     4  35    7.27   396.5   11.8      51.611
2014    8       12     4  40    7.28   396.8   11.8      51.694
2014    8       12     4  46    7.28   397.1   11.8      51.777
2014    8       12     4  52    7.28   397.5   11.8      51.860
2014    8       12     4  58    7.29   397.8   11.7      51.942
2014    8       12     5   4    7.29   398.1   11.7      52.024
2014    8       12     5  10    7.29   398.4   11.7      52.106
2014    8       12     5  16    7.30   398.7   11.7      52.187
2014    8       12     5  22    7.30   399.0   11.7      52.268
2014    8       12     5  27    7.30   399.3   11.7      52.348
2014    8       12     5  33    7.30   399.6   11.7      52.428
2014    8       12     5  39    7.31   400.0   11.6      52.508
2014    8       12     5  45    7.31   400.3   11.6      52.588
2014    8       12     5  51    7.31   400.6   11.6      52.668
2014    8       12     5  57    7.32   400.9   11.6      52.748
2014    8       12     6   3    7.32   401.2   11.6      52.828
2014    8       12     6   8    7.32   401.5   11.6      52.908
2014    8       12     6  14    7.33   401.8   11.6      52.988
2014    8       12     6  20    7.33   402.1   11.6      53.068
2014    8       12     6  26    7.33   402.5   11.5      53.149
2014    8       12     6  32    7.34   402.8   11.5      53.230
2014    8       12     6  38    7.34   403.1   11.5      53.314
2014    8       12     6  44    7.34   403.4   11.5      53.398
2014    8       12     6  50    7.35   403.7   11.5      53.483
2014    8       12     6  55    7.35   404.0   11.5      53.569
2014    8       12     7   1    7.35   404.3   11.5      53.657
2014    8       12     7   7    7.36   404.7   11.5      53.748
2014    8       12     7  13    7.36   405.0   11.5      53.842
2014    8       12     7  19    7.36   405.3   11.5      53.936
2014    8       12     7  25    7.37   405.6   11.5      54.029
2014    8       12     7  31    7.37   405.9   11.5      54.122
2014    8       12     7  36    7.38   406.2   11.5      54.218
2014    8       12     7  42    7.38   406.6   11.5      54.321
2014    8       12     7  48    7.39   406.9   11.5      54.430
2014    8       12     7  54    7.39   407.2   11.5      54.544
2014    8       12     8   0    7.39   407.6   11.5      54.663
2014    8       12     8   6    7.40   408.0   11.5      54.787
2014    8       12     8  12    7.40   408.4   11.5      54.916
2014    8       12     8  17    7.41   408.7   11.5      55.051
2014    8       12     8  23    7.41   409.1   11.5      55.187
2014    8       12     8  29    7.42   409.5   11.5      55.320
2014    8       12     8  35    7.42   409.9   11.5      55.452
2014    8       12     8  41    7.42   410.3   11.5      55.583
2014    8       12     8  47    7.42   410.8   11.5      55.711
2014    8       12     8  53    7.43   411.2   11.5      55.838
2014    8       12     8  59    7.43   411.6   11.5      55.964
2014    8       12     9   4    7.43   412.0   11.5      56.087
2014    8       12     9  10    7.43   412.4   11.5      56.208
2014    8       12     9  16    7.43   412.9   11.4      56.326
2014    8       12     9  22    7.43   413.3   11.4      56.442
2014    8       12     9  28    7.43   413.7   11.4      56.555
2014    8       12     9  34    7.43   414.1   11.4      56.666
2014    8       12     9  40    7.43   414.6   11.4      56.775
2014    8       12     9  45    7.43   415.0   11.4      56.881
2014    8       12     9  51    7.43   415.4   11.4      56.986
2014    8       12     9  57    7.43   415.8   11.3      57.088
2014    8       12    10   3    7.43   416.3   11.3      57.189
2014    8       12    10   9    7.43   416.7   11.3      57.287
2014    8       12    10  15    7.43   417.1   11.3      57.384
2014    8       12    10  21    7.43   417.5   11.3      57.479
2014    8       12    10  27    7.43   418.0   11.2      57.573
2014    8       12    10  32    7.42   418.4   11.2      57.665
2014    8       12    10  38    7.42   418.8   11.2      57.756
2014    8       12    10  44    7.42   419.2   11.2      57.845
2014    8       12    10  50    7.42   419.6   11.2      57.933
2014    8       12    10  56    7.42   420.1   11.1      58.020
2014    8       12    11   2    7.42   420.5   11.1      58.105
2014    8       12    11   8    7.42   420.9   11.1      58.190
2014    8       12    11  13    7.42   421.3   11.1      58.274
2014    8       12    11  19    7.42   421.7   11.1      58.357
2014    8       12    11  25    7.42   422.1   11.0      58.441
2014    8       12    11  31    7.41   422.6   11.0      58.523
2014    8       12    11  37    7.41   423.0   11.0      58.604
2014    8       12    11  43    7.41   423.4   11.0      58.685
2014    8       12    11  49    7.41   423.8   10.9      58.766
2014    8       12    11  55    7.41   424.3   10.9      58.847
2014    8       12    12   0    7.41   424.7   10.9      58.927
2014    8       12    12   6    7.41   425.2   10.9      59.006
2014    8       12    12  12    7.40   425.6   10.9      59.087
2014    8       12    12  18    7.40   426.1   10.8      59.167
2014    8       12    12  24    7.40   426.5   10.8      59.248
2014    8       12    12  30    7.40   427.0   10.8      59.329
2014    8       12    12  36    7.40   427.5   10.8      59.410
2014    8       12    12  41    7.39   427.9   10.7      59.491
2014    8       12    12  47    7.39   428.4   10.7      59.572
2014    8       12    12  53    7.39   428.9   10.7      59.651
2014    8       12    12  59    7.38   429.3   10.6      59.728
2014    8       12    13   5    7.38   429.8   10.6      59.804
2014    8       12    13  11    7.38   430.3   10.6      59.878
2014    8       12    13  17    7.37   430.7   10.5      59.949
2014    8       12    13  22    7.37   431.2   10.5      60.016
2014    8       12    13  28    7.36   431.7   10.5      60.080
2014    8       12    13  34    7.36   432.1   10.4      60.140
2014    8       12    13  40    7.35   432.6   10.4      60.199
2014    8       12    13  46    7.34   433.1   10.4      60.256
2014    8       12    13  52    7.34   433.6   10.3      60.307
2014    8       12    13  58    7.33   434.0   10.3      60.350
2014    8       12    14   4    7.32   434.5   10.3      60.385
2014    8       12    14   9    7.31   434.9   10.2      60.414
2014    8       12    14  15    7.31   435.4   10.2      60.437
2014    8       12    14  21    7.30   435.8   10.1      60.456
2014    8       12    14  27    7.29   436.2   10.1      60.468
2014    8       12    14  33    7.28   436.6   10.1      60.475
2014    8       12    14  39    7.27   437.0   10.0      60.481
2014    8       12    14  45    7.26   437.5   10.0      60.487
2014    8       12    14  50    7.25   437.9    9.9      60.495
2014    8       12    14  56    7.25   438.3    9.9      60.502
2014    8       12    15   2    7.24   438.7    9.9      60.510
2014    8       12    15   8    7.23   439.1    9.8      60.518
2014    8       12    15  14    7.22   439.6    9.8      60.525
2014    8       12    15  20    7.21   440.0    9.8      60.531
2014    8       12    15  26    7.20   440.4    9.7      60.538
2014    8       12    15  31    7.19   440.8    9.7      60.544
2014    8       12    15  37    7.18   441.2    9.7      60.551
2014    8       12    15  43    7.17   441.6    9.6      60.559
2014    8       12    15  49    7.16   442.1    9.6      60.566
2014    8       12    15  55    7.15   442.5    9.5      60.574
2014    8       12    16   1    7.14   442.9    9.5      60.581
2014    8       12    16   7    7.13   443.3    9.5      60.590
2014    8       12    16  13    7.13   443.7    9.5      60.598
2014    8       12    16  18    7.12   444.1    9.4      60.607
2014    8       12    16  24    7.11   444.5    9.4      60.617
2014    8       12    16  30    7.10   444.9    9.4      60.627
2014    8       12    16  36    7.09   445.3    9.3      60.638
2014    8       12    16  42    7.08   445.7    9.3      60.650
2014    8       12    16  48    7.07   446.1    9.3      60.662
2014    8       12    16  54    7.06   446.5    9.2      60.675
2014    8       12    16  59    7.05   446.9    9.2      60.690
2014    8       12    17   5    7.04   447.3    9.2      60.704
2014    8       12    17  11    7.03   447.6    9.2      60.720
2014    8       12    17  17    7.02   448.0    9.1      60.736
2014    8       12    17  23    7.01   448.4    9.1      60.752
2014    8       12    17  29    7.00   448.8    9.1      60.768
2014    8       12    17  35    6.99   449.2    9.0      60.785
2014    8       12    17  40    6.98   449.6    9.0      60.801
2014    8       12    17  46    6.97   450.0    9.0      60.818
2014    8       12    17  52    6.96   450.4    9.0      60.833
2014    8       12    17  58    6.95   450.8    8.9      60.849
2014    8       12    18   4    6.94   451.2    8.9      60.863
2014    8       12    18  10    6.93   451.5    8.9      60.877
2014    8       12    18  16    6.92   451.9    8.9      60.889
2014    8       12    18  22    6.92   452.3    8.8      60.900
2014    8       12    18  27    6.91   452.7    8.8      60.909
2014    8       12    18  33    6.90   453.1    8.8      60.917
2014    8       12    18  39    6.89   453.5    8.8      60.923
2014    8       12    18  45    6.88   453.8    8.7      60.928
2014    8       12    18  51    6.87   454.2    8.7      60.931
2014    8       12    18  57    6.86   454.6    8.7      60.932
2014    8       12    19   3    6.85   455.0    8.7      60.930
2014    8       12    19   8    6.84   455.4    8.6      60.926
2014    8       12    19  14    6.83   455.8    8.6      60.920
2014    8       12    19  20    6.82   456.2    8.6      60.913
2014    8       12    19  26    6.81   456.6    8.6      60.904
2014    8       12    19  32    6.80   456.9    8.5      60.894
2014    8       12    19  38    6.79   457.3    8.5      60.885
2014    8       12    19  44    6.77   457.7    8.5      60.875
2014    8       12    19  49    6.76   458.1    8.4      60.865
2014    8       12    19  55    6.75   458.6    8.4      60.856
2014    8       12    20   1    6.74   459.0    8.4      60.846
2014    8       12    20   7    6.73   459.4    8.4      60.837
2014    8       12    20  13    6.72   459.8    8.3      60.825
2014    8       12    20  19    6.70   460.2    8.3      60.812
2014    8       12    20  25    6.69   460.6    8.3      60.798
2014    8       12    20  31    6.68   461.0    8.2      60.781
2014    8       12    20  36    6.67   461.4    8.2      60.762
2014    8       12    20  42    6.65   461.8    8.2      60.739
2014    8       12    20  48    6.64   462.2    8.1      60.712
2014    8       12    20  54    6.63   462.6    8.1      60.681
2014    8       12    21   0    6.61   463.0    8.1      60.649
2014    8       12    21   6    6.60   463.4    8.0      60.614
2014    8       12    21  12    6.58   463.9    8.0      60.577
2014    8       12    21  17    6.57   464.2    8.0      60.527
2014    8       12    21  23    6.55   464.6    7.9      60.469
2014    8       12    21  29    6.54   465.0    7.9      60.402
2014    8       12    21  35    6.52   465.4    7.8      60.329
2014    8       12    21  41    6.51   465.7    7.8      60.250
2014    8       12    21  47    6.49   466.1    7.8      60.163
2014    8       12    21  53    6.48   466.4    7.7      60.069
2014    8       12    21  58    6.46   466.7    7.7      59.972
2014    8       12    22   4    6.45   467.0    7.7      59.878
2014    8       12    22  10    6.43   467.3    7.6      59.785
2014    8       12    22  16    6.42   467.6    7.6      59.692
2014    8       12    22  22    6.40   467.9    7.6      59.601
2014    8       12    22  28    6.39   468.2    7.5      59.510
2014    8       12    22  34    6.37   468.5    7.5      59.419
2014    8       12    22  40    6.36   468.8    7.5      59.327
2014    8       12    22  45    6.34   469.1    7.4      59.234
2014    8       12    22  51    6.33   469.3    7.4      59.143
2014    8       12    22  57    6.31   469.6    7.4      59.051
2014    8       12    23   3    6.30   469.9    7.4      58.961
2014    8       12    23   9    6.29   470.2    7.3      58.870
2014    8       12    23  15    6.27   470.4    7.3      58.780
2014    8       12    23  21    6.26   470.7    7.3      58.690
2014    8       12    23  26    6.24   471.0    7.2      58.601
2014    8       12    23  32    6.23   471.3    7.2      58.513
2014    8       12    23  38    6.22   471.5    7.2      58.425
2014    8       12    23  44    6.20   471.8    7.2      58.338
2014    8       12    23  50    6.19   472.0    7.1      58.253
2014    8       12    23  56    6.17   472.3    7.1      58.167
2014    8       13     0   2    6.16   472.5    7.1      58.083
2014    8       13     0   7    6.15   472.7    7.1      58.000
2014    8       13     0  13    6.13   473.0    7.0      57.917
2014    8       13     0  19    6.12   473.2    7.0      57.836
2014    8       13     0  25    6.11   473.4    7.0      57.755
2014    8       13     0  31    6.09   473.6    7.0      57.677
2014    8       13     0  37    6.08   473.9    7.0      57.599
2014    8       13     0  43    6.07   474.1    6.9      57.524
2014    8       13     0  49    6.05   474.3    6.9      57.450
2014    8       13     0  54    6.04   474.5    6.9      57.377
2014    8       13     1   0    6.03   474.7    6.9      57.304
2014    8       13     1   6    6.01   474.9    6.9      57.233
2014    8       13     1  12    6.00   475.1    6.8      57.161
2014    8       13     1  18    5.99   475.3    6.8      57.090
2014    8       13     1  24    5.98   475.5    6.8      57.018
2014    8       13     1  30    5.96   475.7    6.8      56.946
2014    8       13     1  35    5.95   475.9    6.8      56.873
2014    8       13     1  41    5.94   476.1    6.7      56.798
2014    8       13     1  47    5.92   476.3    6.7      56.723
2014    8       13     1  53    5.91   476.5    6.7      56.646
2014    8       13     1  59    5.90   476.8    6.7      56.568
2014    8       13     2   5    5.89   476.9    6.7      56.488
2014    8       13     2  11    5.87   477.1    6.6      56.407
2014    8       13     2  16    5.86   477.3    6.6      56.324
2014    8       13     2  22    5.85   477.5    6.6      56.238
2014    8       13     2  28    5.83   477.7    6.6      56.149
2014    8       13     2  34    5.82   477.9    6.6      56.059
2014    8       13     2  40    5.81   478.1    6.5      55.966
2014    8       13     2  46    5.79   478.2    6.5      55.871
2014    8       13     2  52    5.78   478.4    6.5      55.775
2014    8       13     2  58    5.77   478.6    6.5      55.679
2014    8       13     3   3    5.75   478.7    6.5      55.583
2014    8       13     3   9    5.74   478.9    6.5      55.486
2014    8       13     3  15    5.73   479.0    6.4      55.389
2014    8       13     3  21    5.71   479.1    6.4      55.292
2014    8       13     3  27    5.70   479.3    6.4      55.196
2014    8       13     3  33    5.69   479.4    6.4      55.100
2014    8       13     3  39    5.67   479.5    6.4      55.005
2014    8       13     3  44    5.66   479.6    6.3      54.911
2014    8       13     3  50    5.65   479.7    6.3      54.819
2014    8       13     3  56    5.64   479.8    6.3      54.727
2014    8       13     4   2    5.62   479.9    6.3      54.637
2014    8       13     4   8    5.61   480.0    6.3      54.548
2014    8       13     4  14    5.60   480.1    6.3      54.461
2014    8       13     4  20    5.59   480.2    6.3      54.375
2014    8       13     4  25    5.57   480.3    6.2      54.290
2014    8       13     4  31    5.56   480.3    6.2      54.206
2014    8       13     4  37    5.55   480.4    6.2      54.124
2014    8       13     4  43    5.54   480.5    6.2      54.043
2014    8       13     4  49    5.53   480.5    6.2      53.962
2014    8       13     4  55    5.52   480.6    6.2      53.883
2014    8       13     5   1    5.50   480.7    6.2      53.804
2014    8       13     5   7    5.49   480.7    6.1      53.726
2014    8       13     5  12    5.48   480.8    6.1      53.650
2014    8       13     5  18    5.47   480.8    6.1      53.574
2014    8       13     5  24    5.46   480.8    6.1      53.500
2014    8       13     5  30    5.45   480.9    6.1      53.427
2014    8       13     5  36    5.44   480.9    6.1      53.355
2014    8       13     5  42    5.43   480.9    6.1      53.284
2014    8       13     5  48    5.42   481.0    6.1      53.213
2014    8       13     5  53    5.41   481.0    6.1      53.144
2014    8       13     5  59    5.40   481.0    6.1      53.077
2014    8       13     6   5    5.39   481.0    6.0      53.010
2014    8       13     6  11    5.38   481.1    6.0      52.944
2014    8       13     6  17    5.37   481.1    6.0      52.878
2014    8       13     6  23    5.36   481.1    6.0      52.812
2014    8       13     6  29    5.35   481.2    6.0      52.747
2014    8       13     6  34    5.34   481.2    6.0      52.682
2014    8       13     6  40    5.33   481.3    6.0      52.618
2014    8       13     6  46    5.32   481.4    6.0      52.553
2014    8       13     6  52    5.31   481.4    6.0      52.488
2014    8       13     6  58    5.30   481.5    6.0      52.423
2014    8       13     7   4    5.29   481.5    5.9      52.358
2014    8       13     7  10    5.28   481.6    5.9      52.293
2014    8       13     7  16    5.27   481.6    5.9      52.227
2014    8       13     7  21    5.26   481.6    5.9      52.161
2014    8       13     7  27    5.25   481.7    5.9      52.095
2014    8       13     7  33    5.24   481.7    5.9      52.028
2014    8       13     7  39    5.23   481.8    5.9      51.961
2014    8       13     7  45    5.22   481.8    5.9      51.894
2014    8       13     7  51    5.22   481.9    5.9      51.826
2014    8       13     7  57    5.21   481.9    5.9      51.760
2014    8       13     8   2    5.20   482.0    5.9      51.694
2014    8       13     8   8    5.19   482.0    5.8      51.629
2014    8       13     8  14    5.18   482.1    5.8      51.564
2014    8       13     8  20    5.17   482.1    5.8      51.500
2014    8       13     8  26    5.16   482.2    5.8      51.435
2014    8       13     8  32    5.15   482.2    5.8      51.372
2014    8       13     8  38    5.14   482.2    5.8      51.308
2014    8       13     8  43    5.13   482.3    5.8      51.244
2014    8       13     8  49    5.12   482.3    5.8      51.179
2014    8       13     8  55    5.12   482.4    5.8      51.115
2014    8       13     9   1    5.11   482.4    5.8      51.049
2014    8       13     9   7    5.10   482.4    5.7      50.984
2014    8       13     9  13    5.09   482.5    5.7      50.918
2014    8       13     9  19    5.08   482.5    5.7      50.852
2014    8       13     9  25    5.07   482.6    5.7      50.785
2014    8       13     9  30    5.06   482.6    5.7      50.719
2014    8       13     9  36    5.06   482.7    5.7      50.651
2014    8       13     9  42    5.05   482.7    5.7      50.584
2014    8       13     9  48    5.04   482.8    5.7      50.515
2014    8       13     9  54    5.03   482.8    5.7      50.447
2014    8       13    10   0    5.02   482.9    5.7      50.378
2014    8       13    10   6    5.01   482.9    5.7      50.309
2014    8       13    10  11    5.00   482.9    5.7      50.240
2014    8       13    10  17    5.00   482.9    5.6      50.171
2014    8       13    10  23    4.99   483.0    5.6      50.103
2014    8       13    10  29    4.98   483.0    5.6      50.035
2014    8       13    10  35    4.97   483.0    5.6      49.968
2014    8       13    10  41    4.96   483.0    5.6      49.901
2014    8       13    10  47    4.96   483.0    5.6      49.835
2014    8       13    10  53    4.95   483.0    5.6      49.770
2014    8       13    10  58    4.94   483.0    5.6      49.706
2014    8       13    11   4    4.93   483.0    5.6      49.642
2014    8       13    11  10    4.92   483.0    5.6      49.580
2014    8       13    11  16    4.92   483.0    5.6      49.519
2014    8       13    11  22    4.91   483.0    5.6      49.459
2014    8       13    11  28    4.90   483.0    5.6      49.400
2014    8       13    11  34    4.89   483.0    5.5      49.342
2014    8       13    11  39    4.89   483.0    5.5      49.285
2014    8       13    11  45    4.88   483.0    5.5      49.228
2014    8       13    11  51    4.87   483.0    5.5      49.172
2014    8       13    11  57    4.86   482.9    5.5      49.117
2014    8       13    12   3    4.86   482.9    5.5      49.064
2014    8       13    12   9    4.85   482.9    5.5      49.011
2014    8       13    12  15    4.84   482.9    5.5      48.960
2014    8       13    12  20    4.84   482.9    5.5      48.909
2014    8       13    12  26    4.83   482.9    5.5      48.859
2014    8       13    12  32    4.82   482.8    5.5      48.811
2014    8       13    12  38    4.82   482.8    5.5      48.763
2014    8       13    12  44    4.81   482.8    5.5      48.715
2014    8       13    12  50    4.80   482.7    5.5      48.667
2014    8       13    12  56    4.80   482.7    5.5      48.619
2014    8       13    13   2    4.79   482.7    5.5      48.571
2014    8       13    13   7    4.79   482.6    5.5      48.523
2014    8       13    13  13    4.78   482.6    5.5      48.475
2014    8       13    13  19    4.77   482.6    5.5      48.428
2014    8       13    13  25    4.77   482.5    5.5      48.382
2014    8       13    13  31    4.76   482.5    5.5      48.337
2014    8       13    13  37    4.75   482.5    5.4      48.291
2014    8       13    13  43    4.75   482.4    5.4      48.246
2014    8       13    13  48    4.74   482.4    5.4      48.201
2014    8       13    13  54    4.74   482.4    5.4      48.156
2014    8       13    14   0    4.73   482.3    5.4      48.111
2014    8       13    14   6    4.73   482.3    5.4      48.067
2014    8       13    14  12    4.72   482.3    5.4      48.022
2014    8       13    14  18    4.71   482.2    5.4      47.976
2014    8       13    14  24    4.71   482.2    5.4      47.930
2014    8       13    14  29    4.70   482.2    5.4      47.883
2014    8       13    14  35    4.70   482.1    5.4      47.836
2014    8       13    14  41    4.69   482.1    5.4      47.787
2014    8       13    14  47    4.69   482.1    5.4      47.739
2014    8       13    14  53    4.68   482.0    5.4      47.689
2014    8       13    14  59    4.67   482.0    5.4      47.639
2014    8       13    15   5    4.67   481.9    5.4      47.589
2014    8       13    15  10    4.66   481.9    5.4      47.538
2014    8       13    15  16    4.66   481.9    5.4      47.487
2014    8       13    15  22    4.65   481.8    5.4      47.435
2014    8       13    15  28    4.65   481.8    5.4      47.383
2014    8       13    15  34    4.64   481.8    5.4      47.330
2014    8       13    15  40    4.64   481.7    5.3      47.277
2014    8       13    15  46    4.63   481.7    5.3      47.224
2014    8       13    15  52    4.63   481.6    5.3      47.170
2014    8       13    15  57    4.62   481.6    5.3      47.116
2014    8       13    16   3    4.62   481.6    5.3      47.062
2014    8       13    16   9    4.61   481.5    5.3      47.007
2014    8       13    16  15    4.61   481.5    5.3      46.952
2014    8       13    16  21    4.60   481.4    5.3      46.897
2014    8       13    16  27    4.59   481.4    5.3      46.841
2014    8       13    16  33    4.59   481.4    5.3      46.785
2014    8       13    16  38    4.58   481.3    5.3      46.729
2014    8       13    16  44    4.58   481.3    5.3      46.673
2014    8       13    16  50    4.57   481.2    5.3      46.616
2014    8       13    16  56    4.57   481.2    5.3      46.560
2014    8       13    17   2    4.56   481.1    5.3      46.503
2014    8       13    17   8    4.56   481.1    5.3      46.447
2014    8       13    17  14    4.55   481.0    5.3      46.390
2014    8       13    17  20    4.55   481.0    5.3      46.333
2014    8       13    17  25    4.54   480.9    5.3      46.276
2014    8       13    17  31    4.54   480.9    5.2      46.220
2014    8       13    17  37    4.54   480.8    5.2      46.163
2014    8       13    17  43    4.53   480.7    5.2      46.106
2014    8       13    17  49    4.53   480.7    5.2      46.049
2014    8       13    17  55    4.52   480.6    5.2      45.993
2014    8       13    18   1    4.52   480.5    5.2      45.936
2014    8       13    18   6    4.51   480.5    5.2      45.880
2014    8       13    18  12    4.51   480.4    5.2      45.824
2014    8       13    18  18    4.50   480.3    5.2      45.769
2014    8       13    18  24    4.50   480.2    5.2      45.714
2014    8       13    18  30    4.49   480.2    5.2      45.660
2014    8       13    18  36    4.49   480.1    5.2      45.606
2014    8       13    18  42    4.48   480.0    5.2      45.554
2014    8       13    18  47    4.48   479.9    5.2      45.502
2014    8       13    18  53    4.47   479.8    5.2      45.452
2014    8       13    18  59    4.47   479.7    5.2      45.403
2014    8       13    19   5    4.47   479.7    5.2      45.355
2014    8       13    19  11    4.46   479.6    5.2      45.309
2014    8       13    19  17    4.46   479.5    5.2      45.264
2014    8       13    19  23    4.45   479.4    5.2      45.222
2014    8       13    19  29    4.45   479.3    5.2      45.182
2014    8       13    19  34    4.45   479.2    5.2      45.144
2014    8       13    19  40    4.44   479.1    5.2      45.109
2014    8       13    19  46    4.44   479.0    5.2      45.075
2014    8       13    19  52    4.43   479.0    5.2      45.044
2014    8       13    19  58    4.43   478.9    5.2      45.014
2014    8       13    20   4    4.43   478.8    5.2      44.987
2014    8       13    20  10    4.42   478.7    5.2      44.960
2014    8       13    20  15    4.42   478.6    5.2      44.934
2014    8       13    20  21    4.42   478.5    5.2      44.909
2014    8       13    20  27    4.41   478.4    5.2      44.884
2014    8       13    20  33    4.41   478.3    5.2      44.861
2014    8       13    20  39    4.41   478.2    5.2      44.837
2014    8       13    20  45    4.40   478.1    5.2      44.815
2014    8       13    20  51    4.40   478.1    5.2      44.795
2014    8       13    20  56    4.40   478.0    5.2      44.776
2014    8       13    21   2    4.39   477.9    5.2      44.759
2014    8       13    21   8    4.39   477.8    5.2      44.744
2014    8       13    21  14    4.39   477.7    5.2      44.729
2014    8       13    21  20    4.38   477.6    5.2      44.716
2014    8       13    21  26    4.38   477.5    5.2      44.703
2014    8       13    21  32    4.38   477.4    5.2      44.689
2014    8       13    21  37    4.38   477.3    5.2      44.674
2014    8       13    21  43    4.37   477.2    5.2      44.658
2014    8       13    21  49    4.37   477.1    5.2      44.641
2014    8       13    21  55    4.37   477.0    5.2      44.623
2014    8       13    22   1    4.37   477.0    5.2      44.605
2014    8       13    22   7    4.36   476.9    5.2      44.585
2014    8       13    22  13    4.36   476.8    5.2      44.565
2014    8       13    22  19    4.36   476.7    5.2      44.543
2014    8       13    22  24    4.36   476.6    5.2      44.520
2014    8       13    22  30    4.35   476.5    5.2      44.495
2014    8       13    22  36    4.35   476.5    5.2      44.470
2014    8       13    22  42    4.35   476.4    5.2      44.444
2014    8       13    22  48    4.35   476.3    5.2      44.417
2014    8       13    22  54    4.34   476.2    5.2      44.389
2014    8       13    23   0    4.34   476.2    5.2      44.359
2014    8       13    23   5    4.34   476.1    5.2      44.329
2014    8       13    23  11    4.34   476.0    5.2      44.298
2014    8       13    23  17    4.33   475.9    5.2      44.266
2014    8       13    23  23    4.33   475.9    5.2      44.232
2014    8       13    23  29    4.33   475.8    5.2      44.198
2014    8       13    23  35    4.33   475.7    5.2      44.163
2014    8       13    23  41    4.32   475.6    5.2      44.128
2014    8       13    23  46    4.32   475.6    5.2      44.092
2014    8       13    23  52    4.32   475.5    5.2      44.055
2014    8       13    23  58    4.32   475.4    5.2      44.017
2014    8       14     0   4    4.31   475.3    5.2      43.980
2014    8       14     0  10    4.31   475.2    5.2      43.941
2014    8       14     0  16    4.31   475.2    5.2      43.901
2014    8       14     0  22    4.31   475.1    5.2      43.861
2014    8       14     0  28    4.30   475.0    5.2      43.821
2014    8       14     0  33    4.30   474.9    5.2      43.779
2014    8       14     0  39    4.30   474.8    5.2      43.737
2014    8       14     0  45    4.29   474.8    5.2      43.694
2014    8       14     0  51    4.29   474.7    5.2      43.650
2014    8       14     0  57    4.29   474.6    5.1      43.606
2014    8       14     1   3    4.29   474.5    5.1      43.561
2014    8       14     1   9    4.28   474.4    5.1      43.516
2014    8       14     1  14    4.28   474.3    5.1      43.470
2014    8       14     1  20    4.28   474.2    5.1      43.424
2014    8       14     1  26    4.28   474.1    5.1      43.377
2014    8       14     1  32    4.27   474.0    5.1      43.330
2014    8       14     1  38    4.27   473.9    5.1      43.283
2014    8       14     1  44    4.27   473.8    5.1      43.235
2014    8       14     1  50    4.27   473.7    5.1      43.188
2014    8       14     1  56    4.26   473.6    5.1      43.140
2014    8       14     2   1    4.26   473.5    5.1      43.092
2014    8       14     2   7    4.26   473.4    5.1      43.045
2014    8       14     2  13    4.26   473.3    5.1      42.997
2014    8       14     2  19    4.25   473.2    5.1      42.950
2014    8       14     2  25    4.25   473.1    5.1      42.904
2014    8       14     2  31    4.25   472.9    5.1      42.857
2014    8       14     2  37    4.25   472.8    5.1      42.812
2014    8       14     2  42    4.24   472.7    5.1      42.767
2014    8       14     2  48    4.24   472.6    5.1      42.722
2014    8       14     2  54    4.24   472.5    5.1      42.679
2014    8       14     3   0    4.24   472.4    5.1      42.637
2014    8       14     3   6    4.23   472.2    5.1      42.595
2014    8       14     3  12    4.23   472.1    5.1      42.555
2014    8       14     3  18    4.23   472.0    5.1      42.516
2014    8       14     3  23    4.23   471.9    5.1      42.478
2014    8       14     3  29    4.23   471.7    5.1      42.442
2014    8       14     3  35    4.22   471.6    5.1      42.407
2014    8       14     3  41    4.22   471.5    5.1      42.373
2014    8       14     3  47    4.22   471.4    5.1      42.341
2014    8       14     3  53    4.22   471.2    5.1      42.310
2014    8       14     3  59    4.22   471.1    5.1      42.281
2014    8       14     4   5    4.21   471.0    5.1      42.253
2014    8       14     4  10    4.21   470.8    5.1      42.229
2014    8       14     4  16    4.21   470.7    5.1      42.208
2014    8       14     4  22    4.21   470.6    5.1      42.188
2014    8       14     4  28    4.21   470.4    5.1      42.172
2014    8       14     4  34    4.21   470.3    5.1      42.158
2014    8       14     4  40    4.21   470.2    5.1      42.147
2014    8       14     4  46    4.20   470.1    5.1      42.136
2014    8       14     4  51    4.20   469.9    5.1      42.126
2014    8       14     4  57    4.20   469.8    5.1      42.116
2014    8       14     5   3    4.20   469.7    5.1      42.106
2014    8       14     5   9    4.20   469.6    5.1      42.098
2014    8       14     5  15    4.20   469.4    5.1      42.089
2014    8       14     5  21    4.20   469.3    5.1      42.081
2014    8       14     5  27    4.20   469.2    5.1      42.072
2014    8       14     5  32    4.20   469.1    5.1      42.064
2014    8       14     5  38    4.20   469.0    5.1      42.056
2014    8       14     5  44    4.20   468.9    5.2      42.049
2014    8       14     5  50    4.20   468.7    5.2      42.042
2014    8       14     5  56    4.20   468.6    5.2      42.036
2014    8       14     6   2    4.20   468.5    5.2      42.031
2014    8       14     6   8    4.20   468.4    5.2      42.025
2014    8       14     6  13    4.20   468.3    5.2      42.020
2014    8       14     6  19    4.20   468.2    5.2      42.014
2014    8       14     6  25    4.19   468.1    5.2      42.008
2014    8       14     6  31    4.19   468.0    5.2      42.000
2014    8       14     6  37    4.19   467.9    5.2      41.991
2014    8       14     6  43    4.19   467.8    5.2      41.981
2014    8       14     6  49    4.19   467.7    5.2      41.971
2014    8       14     6  55    4.19   467.6    5.2      41.960
2014    8       14     7   0    4.19   467.5    5.2      41.948
2014    8       14     7   6    4.19   467.4    5.2      41.935
2014    8       14     7  12    4.19   467.3    5.2      41.922
2014    8       14     7  18    4.19   467.2    5.2      41.907
2014    8       14     7  24    4.19   467.1    5.2      41.892
2014    8       14     7  30    4.19   467.0    5.2      41.877
2014    8       14     7  36    4.19   466.9    5.2      41.861
2014    8       14     7  41    4.19   466.8    5.2      41.843
2014    8       14     7  47    4.19   466.6    5.2      41.826
2014    8       14     7  53    4.18   466.5    5.2      41.807
2014    8       14     7  59    4.18   466.4    5.2      41.788
2014    8       14     8   5    4.18   466.3    5.2      41.768
2014    8       14     8  11    4.18   466.2    5.2      41.748
2014    8       14     8  17    4.18   466.1    5.2      41.727
2014    8       14     8  23    4.18   466.0    5.2      41.706
2014    8       14     8  28    4.18   465.9    5.2      41.685
2014    8       14     8  34    4.18   465.8    5.2      41.663
2014    8       14     8  40    4.18   465.7    5.2      41.640
2014    8       14     8  46    4.18   465.6    5.2      41.618
2014    8       14     8  52    4.18   465.5    5.2      41.595
2014    8       14     8  58    4.18   465.4    5.2      41.572
2014    8       14     9   4    4.18   465.3    5.2      41.549
2014    8       14     9   9    4.17   465.2    5.2      41.526
2014    8       14     9  15    4.17   465.1    5.2      41.502
2014    8       14     9  21    4.17   464.9    5.2      41.478
2014    8       14     9  27    4.17   464.8    5.2      41.455
2014    8       14     9  33    4.17   464.7    5.2      41.430
2014    8       14     9  39    4.17   464.6    5.2      41.405
2014    8       14     9  45    4.17   464.5    5.2      41.380
2014    8       14     9  50    4.17   464.4    5.2      41.355
2014    8       14     9  56    4.17   464.3    5.2      41.328
2014    8       14    10   2    4.17   464.2    5.2      41.302
2014    8       14    10   8    4.17   464.0    5.2      41.275
2014    8       14    10  14    4.17   463.9    5.2      41.248
2014    8       14    10  20    4.17   463.8    5.2      41.220
2014    8       14    10  26    4.16   463.7    5.2      41.192
2014    8       14    10  32    4.16   463.6    5.2      41.164
2014    8       14    10  37    4.16   463.4    5.2      41.135
2014    8       14    10  43    4.16   463.3    5.2      41.107
2014    8       14    10  49    4.16   463.2    5.2      41.079
2014    8       14    10  55    4.16   463.0    5.2      41.050
2014    8       14    11   1    4.16   462.9    5.2      41.023
2014    8       14    11   7    4.16   462.8    5.2      40.996
2014    8       14    11  13    4.16   462.6    5.2      40.969
2014    8       14    11  18    4.16   462.5    5.2      40.943
2014    8       14    11  24    4.16   462.4    5.2      40.918
2014    8       14    11  30    4.16   462.2    5.2      40.895
2014    8       14    11  36    4.16   462.1    5.2      40.872
2014    8       14    11  42    4.16   461.9    5.2      40.850
2014    8       14    11  48    4.16   461.8    5.2      40.830
2014    8       14    11  54    4.16   461.7    5.2      40.812
2014    8       14    11  59    4.16   461.6    5.2      40.794
2014    8       14    12   5    4.16   461.4    5.2      40.778
2014    8       14    12  11    4.16   461.3    5.2      40.764
2014    8       14    12  17    4.16   461.2    5.2      40.751
2014    8       14    12  23    4.16   461.0    5.2      40.740
2014    8       14    12  29    4.16   460.9    5.2      40.730
2014    8       14    12  35    4.16   460.8    5.2      40.721
2014    8       14    12  40    4.16   460.7    5.2      40.713
2014    8       14    12  46    4.16   460.6    5.3      40.707
2014    8       14    12  52    4.16   460.5    5.3      40.701
2014    8       14    12  58    4.16   460.3    5.3      40.698
2014    8       14    13   4    4.16   460.2    5.3      40.697
2014    8       14    13  10    4.17   460.1    5.3      40.697
2014    8       14    13  16    4.17   460.0    5.3      40.700
2014    8       14    13  22    4.17   459.9    5.3      40.703
2014    8       14    13  27    4.17   459.8    5.3      40.708
2014    8       14    13  33    4.17   459.7    5.3      40.713
2014    8       14    13  39    4.17   459.6    5.3      40.718
2014    8       14    13  45    4.17   459.4    5.3      40.723
2014    8       14    13  51    4.17   459.3    5.3      40.727
2014    8       14    13  57    4.17   459.2    5.3      40.731
2014    8       14    14   3    4.17   459.1    5.3      40.735
2014    8       14    14   8    4.18   459.0    5.3      40.739
2014    8       14    14  14    4.18   458.9    5.3      40.742
2014    8       14    14  20    4.18   458.8    5.3      40.744
2014    8       14    14  26    4.18   458.7    5.3      40.747
2014    8       14    14  32    4.18   458.6    5.3      40.749
2014    8       14    14  38    4.18   458.5    5.4      40.750
2014    8       14    14  44    4.18   458.4    5.4      40.751
2014    8       14    14  50    4.18   458.2    5.4      40.752
2014    8       14    14  55    4.18   458.1    5.4      40.753
2014    8       14    15   1    4.18   458.0    5.4      40.754
2014    8       14    15   7    4.18   457.9    5.4      40.754
2014    8       14    15  13    4.19   457.8    5.4      40.754
2014    8       14    15  19    4.19   457.7    5.4      40.754
2014    8       14    15  25    4.19   457.6    5.4      40.755
2014    8       14    15  31    4.19   457.5    5.4      40.755
2014    8       14    15  36    4.19   457.4    5.4      40.755
2014    8       14    15  42    4.19   457.3    5.4      40.755
2014    8       14    15  48    4.19   457.2    5.4      40.755
2014    8       14    15  54    4.19   457.1    5.4      40.755
2014    8       14    16   0    4.19   457.0    5.4      40.755
2014    8       14    16   6    4.19   456.9    5.4      40.756
2014    8       14    16  12    4.20   456.8    5.4      40.757
2014    8       14    16  17    4.20   456.8    5.4      40.758
2014    8       14    16  23    4.20   456.7    5.4      40.759
2014    8       14    16  29    4.20   456.6    5.4      40.761
2014    8       14    16  35    4.20   456.5    5.5      40.763
2014    8       14    16  41    4.20   456.4    5.5      40.765
2014    8       14    16  47    4.20   456.3    5.5      40.768
2014    8       14    16  53    4.20   456.2    5.5      40.770
2014    8       14    16  59    4.20   456.1    5.5      40.773
2014    8       14    17   4    4.21   456.0    5.5      40.776
2014    8       14    17  10    4.21   455.9    5.5      40.779
2014    8       14    17  16    4.21   455.9    5.5      40.782
2014    8       14    17  22    4.21   455.8    5.5      40.786
2014    8       14    17  28    4.21   455.7    5.5      40.790
2014    8       14    17  34    4.21   455.6    5.5      40.794
2014    8       14    17  40    4.21   455.5    5.5      40.798
2014    8       14    17  45    4.21   455.4    5.5      40.804
2014    8       14    17  51    4.21   455.3    5.5      40.809
2014    8       14    17  57    4.22   455.3    5.5      40.816
2014    8       14    18   3    4.22   455.2    5.5      40.823
2014    8       14    18   9    4.22   455.1    5.5      40.831
2014    8       14    18  15    4.22   455.0    5.5      40.839
2014    8       14    18  21    4.22   454.9    5.5      40.848
2014    8       14    18  26    4.22   454.8    5.5      40.856
2014    8       14    18  32    4.22   454.8    5.6      40.865
2014    8       14    18  38    4.22   454.7    5.6      40.874
2014    8       14    18  44    4.23   454.6    5.6      40.884
2014    8       14    18  50    4.23   454.5    5.6      40.893
2014    8       14    18  56    4.23   454.4    5.6      40.903
2014    8       14    19   2    4.23   454.4    5.6      40.913
2014    8       14    19   7    4.23   454.3    5.6      40.923
2014    8       14    19  13    4.23   454.2    5.6      40.933
2014    8       14    19  19    4.24   454.1    5.6      40.944
2014    8       14    19  25    4.24   454.1    5.6      40.954
2014    8       14    19  31    4.24   454.0    5.6      40.965
2014    8       14    19  37    4.24   453.9    5.6      40.977
2014    8       14    19  43    4.24   453.9    5.6      40.988
2014    8       14    19  49    4.24   453.8    5.6      41.000
2014    8       14    19  54    4.25   453.7    5.6      41.013
2014    8       14    20   0    4.25   453.7    5.6      41.025
2014    8       14    20   6    4.25   453.6    5.6      41.038
2014    8       14    20  12    4.25   453.5    5.7      41.051
2014    8       14    20  18    4.25   453.5    5.7      41.064
2014    8       14    20  24    4.25   453.4    5.7      41.077
2014    8       14    20  30    4.26   453.3    5.7      41.090
2014    8       14    20  35    4.26   453.3    5.7      41.103
2014    8       14    20  41    4.26   453.2    5.7      41.117
2014    8       14    20  47    4.26   453.1    5.7      41.130
2014    8       14    20  53    4.26   453.1    5.7      41.144
2014    8       14    20  59    4.27   453.0    5.7      41.158
2014    8       14    21   5    4.27   452.9    5.7      41.172
2014    8       14    21  11    4.27   452.9    5.7      41.186
2014    8       14    21  16    4.27   452.8    5.7      41.200
2014    8       14    21  22    4.27   452.7    5.7      41.214
2014    8       14    21  28    4.28   452.7    5.7      41.227
2014    8       14    21  34    4.28   452.6    5.7      41.241
2014    8       14    21  40    4.28   452.6    5.7      41.256
2014    8       14    21  46    4.28   452.5    5.8      41.272
2014    8       14    21  52    4.28   452.4    5.8      41.287
2014    8       14    21  58    4.29   452.4    5.8      41.304
2014    8       14    22   3    4.29   452.3    5.8      41.321
2014    8       14    22   9    4.29   452.3    5.8      41.338
2014    8       14    22  15    4.29   452.2    5.8      41.355
2014    8       14    22  21    4.29   452.2    5.8      41.372
2014    8       14    22  27    4.30   452.1    5.8      41.388
2014    8       14    22  33    4.30   452.1    5.8      41.404
2014    8       14    22  39    4.30   452.0    5.8      41.420
2014    8       14    22  44    4.30   452.0    5.8      41.436
2014    8       14    22  50    4.30   451.9    5.8      41.451
2014    8       14    22  56    4.31   451.9    5.8      41.466
2014    8       14    23   2    4.31   451.9    5.8      41.481
2014    8       14    23   8    4.31   451.8    5.8      41.495
2014    8       14    23  14    4.31   451.8    5.8      41.510
2014    8       14    23  20    4.31   451.7    5.9      41.524
2014    8       14    23  26    4.32   451.7    5.9      41.538
2014    8       14    23  31    4.32   451.7    5.9      41.552
2014    8       14    23  37    4.32   451.6    5.9      41.566
2014    8       14    23  43    4.32   451.6    5.9      41.580
2014    8       14    23  49    4.32   451.6    5.9      41.594
2014    8       14    23  55    4.33   451.5    5.9      41.609
2014    8       15     0   1    4.33   451.5    5.9      41.623
2014    8       15     0   7    4.33   451.5    5.9      41.638
2014    8       15     0  12    4.33   451.4    5.9      41.653
2014    8       15     0  18    4.33   451.4    5.9      41.667
2014    8       15     0  24    4.33   451.4    5.9      41.683
2014    8       15     0  30    4.34   451.3    5.9      41.698
2014    8       15     0  36    4.34   451.3    5.9      41.713
2014    8       15     0  42    4.34   451.3    5.9      41.729
2014    8       15     0  48    4.34   451.3    5.9      41.744
2014    8       15     0  53    4.34   451.2    5.9      41.761
2014    8       15     0  59    4.35   451.2    5.9      41.777
2014    8       15     1   5    4.35   451.2    6.0      41.794
2014    8       15     1  11    4.35   451.2    6.0      41.812
2014    8       15     1  17    4.35   451.1    6.0      41.830
2014    8       15     1  23    4.35   451.1    6.0      41.848
2014    8       15     1  29    4.36   451.1    6.0      41.867
2014    8       15     1  34    4.36   451.1    6.0      41.886
2014    8       15     1  40    4.36   451.1    6.0      41.905
2014    8       15     1  46    4.36   451.1    6.0      41.924
2014    8       15     1  52    4.36   451.0    6.0      41.944
2014    8       15     1  58    4.37   451.0    6.0      41.962
2014    8       15     2   4    4.37   451.0    6.0      41.981
2014    8       15     2  10    4.37   451.0    6.0      42.000
2014    8       15     2  16    4.37   451.0    6.0      42.018
2014    8       15     2  21    4.37   451.0    6.0      42.036
2014    8       15     2  27    4.37   451.0    6.0      42.053
2014    8       15     2  33    4.38   450.9    6.0      42.070
2014    8       15     2  39    4.38   450.9    6.0      42.087
2014    8       15     2  45    4.38   450.9    6.0      42.104
2014    8       15     2  51    4.38   450.9    6.0      42.120
2014    8       15     2  57    4.38   450.9    6.0      42.136
2014    8       15     3   2    4.39   450.9    6.0      42.152
2014    8       15     3   8    4.39   450.9    6.0      42.168
2014    8       15     3  14    4.39   450.9    6.1      42.184
2014    8       15     3  20    4.39   450.8    6.1      42.199
2014    8       15     3  26    4.39   450.8    6.1      42.215
2014    8       15     3  32    4.40   450.8    6.1      42.230
2014    8       15     3  38    4.40   450.8    6.1      42.245
2014    8       15     3  43    4.40   450.8    6.1      42.260
2014    8       15     3  49    4.40   450.8    6.1      42.274
2014    8       15     3  55    4.40   450.8    6.1      42.289
2014    8       15     4   1    4.41   450.8    6.1      42.303
2014    8       15     4   7    4.41   450.8    6.1      42.317
2014    8       15     4  13    4.41   450.8    6.1      42.331
2014    8       15     4  19    4.41   450.7    6.1      42.345
2014    8       15     4  25    4.41   450.7    6.1      42.359
2014    8       15     4  30    4.41   450.7    6.1      42.373
2014    8       15     4  36    4.42   450.7    6.1      42.386
2014    8       15     4  42    4.42   450.7    6.1      42.400
2014    8       15     4  48    4.42   450.7    6.1      42.414
2014    8       15     4  54    4.42   450.7    6.1      42.428
2014    8       15     5   0    4.42   450.7    6.1      42.442
2014    8       15     5   6    4.43   450.7    6.1      42.457
2014    8       15     5  11    4.43   450.7    6.1      42.472
2014    8       15     5  17    4.43   450.6    6.1      42.488
2014    8       15     5  23    4.43   450.6    6.2      42.505
2014    8       15     5  29    4.43   450.6    6.2      42.522
2014    8       15     5  35    4.43   450.6    6.2      42.539
2014    8       15     5  41    4.44   450.6    6.2      42.557
2014    8       15     5  47    4.44   450.6    6.2      42.574
2014    8       15     5  52    4.44   450.6    6.2      42.591
2014    8       15     5  58    4.44   450.6    6.2      42.608
2014    8       15     6   4    4.44   450.6    6.2      42.624
2014    8       15     6  10    4.45   450.6    6.2      42.640
2014    8       15     6  16    4.45   450.6    6.2      42.656
2014    8       15     6  22    4.45   450.6    6.2      42.671
2014    8       15     6  28    4.45   450.6    6.2      42.686
2014    8       15     6  34    4.45   450.6    6.2      42.701
2014    8       15     6  39    4.45   450.6    6.2      42.716
2014    8       15     6  45    4.45   450.6    6.2      42.730
2014    8       15     6  51    4.46   450.6    6.2      42.744
2014    8       15     6  57    4.46   450.6    6.2      42.758
2014    8       15     7   3    4.46   450.6    6.2      42.772
2014    8       15     7   9    4.46   450.6    6.2      42.785
2014    8       15     7  15    4.46   450.6    6.2      42.798
2014    8       15     7  20    4.46   450.6    6.2      42.812
2014    8       15     7  26    4.47   450.6    6.2      42.825
2014    8       15     7  32    4.47   450.6    6.2      42.838
2014    8       15     7  38    4.47   450.6    6.2      42.851
2014    8       15     7  44    4.47   450.7    6.2      42.863
2014    8       15     7  50    4.47   450.7    6.2      42.876
2014    8       15     7  56    4.47   450.7    6.2      42.888
2014    8       15     8   1    4.47   450.7    6.2      42.900
2014    8       15     8   7    4.48   450.7    6.2      42.912
2014    8       15     8  13    4.48   450.7    6.2      42.924
2014    8       15     8  19    4.48   450.7    6.2      42.935
2014    8       15     8  25    4.48   450.7    6.2      42.947
2014    8       15     8  31    4.48   450.7    6.3      42.958
2014    8       15     8  37    4.48   450.7    6.3      42.968
2014    8       15     8  43    4.48   450.7    6.3      42.979
2014    8       15     8  48    4.49   450.7    6.3      42.990
2014    8       15     8  54    4.49   450.7    6.3      43.000
2014    8       15     9   0    4.49   450.7    6.3      43.010
2014    8       15     9   6    4.49   450.7    6.3      43.020
2014    8       15     9  12    4.49   450.7    6.3      43.030
2014    8       15     9  18    4.49   450.7    6.3      43.039
2014    8       15     9  24    4.49   450.8    6.3      43.049
2014    8       15     9  29    4.50   450.8    6.3      43.058
2014    8       15     9  35    4.50   450.8    6.3      43.067
2014    8       15     9  41    4.50   450.8    6.3      43.076
2014    8       15     9  47    4.50   450.8    6.3      43.085
2014    8       15     9  53    4.50   450.8    6.3      43.093
2014    8       15     9  59    4.50   450.8    6.3      43.102
2014    8       15    10   5    4.51   450.8    6.3      43.111
2014    8       15    10  10    4.51   450.8    6.3      43.119
2014    8       15    10  16    4.51   450.8    6.3      43.127
2014    8       15    10  22    4.51   450.8    6.3      43.135
2014    8       15    10  28    4.51   450.8    6.3      43.144
2014    8       15    10  34    4.51   450.9    6.3      43.152
2014    8       15    10  40    4.51   450.9    6.3      43.160
2014    8       15    10  46    4.52   450.9    6.3      43.167
2014    8       15    10  51    4.52   450.9    6.3      43.175
2014    8       15    10  57    4.52   450.9    6.3      43.184
2014    8       15    11   3    4.52   450.9    6.3      43.193
2014    8       15    11   9    4.52   450.9    6.3      43.202
2014    8       15    11  15    4.52   450.9    6.3      43.212
2014    8       15    11  21    4.53   451.0    6.3      43.222
2014    8       15    11  27    4.53   451.0    6.3      43.232
2014    8       15    11  33    4.53   451.0    6.3      43.243
2014    8       15    11  38    4.53   451.0    6.3      43.254
2014    8       15    11  44    4.53   451.0    6.3      43.264
2014    8       15    11  50    4.53   451.0    6.3      43.275
2014    8       15    11  56    4.53   451.1    6.3      43.285
2014    8       15    12   2    4.54   451.1    6.3      43.295
2014    8       15    12   8    4.54   451.1    6.3      43.305
2014    8       15    12  14    4.54   451.1    6.3      43.315
2014    8       15    12  19    4.54   451.1    6.3      43.325
2014    8       15    12  25    4.54   451.1    6.3      43.334
2014    8       15    12  31    4.54   451.2    6.3      43.344
2014    8       15    12  37    4.54   451.2    6.3      43.353
2014    8       15    12  43    4.54   451.2    6.3      43.362
2014    8       15    12  49    4.54   451.2    6.3      43.371
2014    8       15    12  55    4.55   451.2    6.3      43.380
2014    8       15    13   1    4.55   451.2    6.3      43.389
2014    8       15    13   6    4.55   451.2    6.3      43.397
2014    8       15    13  12    4.55   451.2    6.3      43.406
2014    8       15    13  18    4.55   451.3    6.3      43.414
2014    8       15    13  24    4.55   451.3    6.3      43.422
2014    8       15    13  30    4.55   451.3    6.3      43.429
2014    8       15    13  36    4.55   451.3    6.3      43.437
2014    8       15    13  42    4.55   451.3    6.3      43.444
2014    8       15    13  47    4.56   451.3    6.3      43.451
2014    8       15    13  53    4.56   451.3    6.3      43.458
2014    8       15    13  59    4.56   451.3    6.3      43.464
2014    8       15    14   5    4.56   451.3    6.4      43.471
2014    8       15    14  11    4.56   451.4    6.4      43.477
2014    8       15    14  17    4.56   451.4    6.4      43.483
2014    8       15    14  23    4.56   451.4    6.4      43.489
2014    8       15    14  28    4.56   451.4    6.4      43.494
2014    8       15    14  34    4.56   451.4    6.4      43.500
2014    8       15    14  40    4.57   451.4    6.4      43.505
2014    8       15    14  46    4.57   451.4    6.4      43.511
2014    8       15    14  52    4.57   451.4    6.4      43.516
2014    8       15    14  58    4.57   451.4    6.4      43.521
2014    8       15    15   4    4.57   451.4    6.4      43.526
2014    8       15    15  10    4.57   451.4    6.4      43.531
2014    8       15    15  15    4.57   451.4    6.4      43.536
2014    8       15    15  21    4.57   451.4    6.4      43.542
2014    8       15    15  27    4.57   451.5    6.4      43.547
2014    8       15    15  33    4.58   451.5    6.4      43.552
2014    8       15    15  39    4.58   451.5    6.4      43.558
2014    8       15    15  45    4.58   451.5    6.4      43.563
2014    8       15    15  51    4.58   451.5    6.4      43.569
2014    8       15    15  56    4.58   451.5    6.4      43.574
2014    8       15    16   2    4.58   451.5    6.4      43.580
2014    8       15    16   8    4.58   451.5    6.4      43.585
2014    8       15    16  14    4.58   451.5    6.4      43.591
2014    8       15    16  20    4.59   451.5    6.4      43.597
2014    8       15    16  26    4.59   451.5    6.4      43.603
2014    8       15    16  32    4.59   451.5    6.4      43.609
2014    8       15    16  37    4.59   451.5    6.4      43.615
2014    8       15    16  43    4.59   451.5    6.4      43.621
2014    8       15    16  49    4.59   451.5    6.4      43.628
2014    8       15    16  55    4.59   451.5    6.4      43.634
2014    8       15    17   1    4.59   451.5    6.4      43.641
2014    8       15    17   7    4.60   451.5    6.4      43.648
2014    8       15    17  13    4.60   451.5    6.4      43.655
2014    8       15    17  18    4.60   451.6    6.4      43.662
2014    8       15    17  24    4.60   451.6    6.4      43.669
2014    8       15    17  30    4.60   451.6    6.4      43.677
2014    8       15    17  36    4.60   451.6    6.4      43.685
2014    8       15    17  42    4.61   451.6    6.4      43.693
2014    8       15    17  48    4.61   451.6    6.4      43.701
2014    8       15    17  54    4.61   451.6    6.4      43.709
2014    8       15    18   0    4.61   451.6    6.4      43.717
2014    8       15    18   5    4.61   451.6    6.4      43.726
2014    8       15    18  11    4.61   451.6    6.4      43.735
2014    8       15    18  17    4.62   451.6    6.4      43.744
2014    8       15    18  23    4.62   451.6    6.4      43.753
2014    8       15    18  29    4.62   451.6    6.4      43.762
2014    8       15    18  35    4.62   451.6    6.4      43.772
2014    8       15    18  41    4.62   451.7    6.4      43.782
2014    8       15    18  46    4.63   451.7    6.4      43.793
2014    8       15    18  52    4.63   451.7    6.4      43.804
2014    8       15    18  58    4.63   451.7    6.4      43.816
2014    8       15    19   4    4.63   451.7    6.4      43.829
2014    8       15    19  10    4.63   451.7    6.4      43.843
2014    8       15    19  16    4.64   451.7    6.4      43.857
2014    8       15    19  22    4.64   451.7    6.4      43.871
2014    8       15    19  27    4.64   451.8    6.4      43.885
2014    8       15    19  33    4.64   451.8    6.4      43.899
2014    8       15    19  39    4.64   451.8    6.5      43.914
2014    8       15    19  45    4.65   451.8    6.5      43.931
2014    8       15    19  51    4.65   451.8    6.5      43.948
2014    8       15    19  57    4.65   451.8    6.5      43.967
2014    8       15    20   3    4.65   451.9    6.5      43.986
2014    8       15    20   9    4.65   451.9    6.5      44.006
2014    8       15    20  14    4.66   451.9    6.5      44.026
2014    8       15    20  20    4.66   452.0    6.5      44.046
2014    8       15    20  26    4.66   452.0    6.5      44.065
2014    8       15    20  32    4.66   452.0    6.5      44.084
2014    8       15    20  38    4.66   452.0    6.5      44.102
2014    8       15    20  44    4.67   452.1    6.5      44.119
2014    8       15    20  50    4.67   452.1    6.5      44.137
2014    8       15    20  55    4.67   452.1    6.5      44.153
2014    8       15    21   1    4.67   452.1    6.5      44.169
2014    8       15    21   7    4.67   452.2    6.5      44.185
2014    8       15    21  13    4.68   452.2    6.5      44.200
2014    8       15    21  19    4.68   452.2    6.5      44.215
2014    8       15    21  25    4.68   452.2    6.5      44.229
2014    8       15    21  31    4.68   452.3    6.5      44.242
2014    8       15    21  36    4.68   452.3    6.5      44.256
2014    8       15    21  42    4.68   452.3    6.5      44.269
2014    8       15    21  48    4.69   452.3    6.5      44.281
2014    8       15    21  54    4.69   452.4    6.5      44.294
2014    8       15    22   0    4.69   452.4    6.5      44.306
2014    8       15    22   6    4.69   452.4    6.5      44.317
2014    8       15    22  12    4.69   452.4    6.5      44.328
2014    8       15    22  18    4.70   452.5    6.5      44.340
2014    8       15    22  23    4.70   452.5    6.5      44.351
2014    8       15    22  29    4.70   452.5    6.5      44.361
2014    8       15    22  35    4.70   452.5    6.5      44.372
2014    8       15    22  41    4.70   452.6    6.5      44.382
2014    8       15    22  47    4.70   452.6    6.5      44.393
2014    8       15    22  53    4.71   452.6    6.5      44.403
2014    8       15    22  59    4.71   452.6    6.5      44.413
2014    8       15    23   4    4.71   452.7    6.5      44.423
2014    8       15    23  10    4.71   452.7    6.5      44.433
2014    8       15    23  16    4.71   452.7    6.5      44.443
2014    8       15    23  22    4.72   452.7    6.5      44.452
2014    8       15    23  28    4.72   452.8    6.5      44.462
2014    8       15    23  34    4.72   452.8    6.5      44.471
2014    8       15    23  40    4.72   452.8    6.5      44.481
2014    8       15    23  45    4.72   452.8    6.5      44.490
2014    8       15    23  51    4.73   452.8    6.5      44.499
2014    8       15    23  57    4.73   452.9    6.5      44.509
2014    8       16     0   3    4.73   452.9    6.5      44.518
2014    8       16     0   9    4.73   452.9    6.5      44.527
2014    8       16     0  15    4.73   452.9    6.5      44.536
2014    8       16     0  21    4.74   452.9    6.5      44.545
2014    8       16     0  26    4.74   453.0    6.5      44.555
2014    8       16     0  32    4.74   453.0    6.5      44.565
2014    8       16     0  38    4.74   453.0    6.5      44.575
2014    8       16     0  44    4.74   453.0    6.5      44.585
2014    8       16     0  50    4.75   453.0    6.5      44.596
2014    8       16     0  56    4.75   453.0    6.5      44.608
2014    8       16     1   2    4.75   453.1    6.5      44.620
2014    8       16     1   8    4.75   453.1    6.5      44.633
2014    8       16     1  13    4.75   453.1    6.5      44.646
2014    8       16     1  19    4.76   453.1    6.5      44.660
2014    8       16     1  25    4.76   453.1    6.6      44.674
2014    8       16     1  31    4.76   453.1    6.6      44.690
2014    8       16     1  37    4.76   453.2    6.6      44.706
2014    8       16     1  43    4.77   453.2    6.6      44.722
2014    8       16     1  49    4.77   453.2    6.6      44.740
2014    8       16     1  54    4.77   453.2    6.6      44.758
2014    8       16     2   0    4.77   453.2    6.6      44.778
2014    8       16     2   6    4.78   453.3    6.6      44.798
2014    8       16     2  12    4.78   453.3    6.6      44.820
2014    8       16     2  18    4.78   453.3    6.6      44.842
2014    8       16     2  24    4.78   453.3    6.6      44.865
2014    8       16     2  30    4.79   453.4    6.6      44.890
2014    8       16     2  35    4.79   453.4    6.6      44.917
2014    8       16     2  41    4.79   453.4    6.6      44.945
2014    8       16     2  47    4.80   453.5    6.6      44.975
2014    8       16     2  53    4.80   453.5    6.6      45.007
2014    8       16     2  59    4.80   453.6    6.6      45.040
2014    8       16     3   5    4.80   453.6    6.6      45.074
2014    8       16     3  11    4.81   453.7    6.6      45.108
2014    8       16     3  17    4.81   453.8    6.6      45.142
2014    8       16     3  22    4.81   453.8    6.6      45.176
2014    8       16     3  28    4.82   453.9    6.6      45.209
2014    8       16     3  34    4.82   453.9    6.7      45.242
2014    8       16     3  40    4.82   454.0    6.7      45.276
2014    8       16     3  46    4.83   454.1    6.7      45.310
2014    8       16     3  52    4.83   454.1    6.7      45.344
2014    8       16     3  58    4.83   454.2    6.7      45.379
2014    8       16     4   3    4.83   454.3    6.7      45.414
2014    8       16     4   9    4.84   454.4    6.7      45.449
2014    8       16     4  15    4.84   454.4    6.7      45.485
2014    8       16     4  21    4.84   454.5    6.7      45.520
2014    8       16     4  27    4.85   454.6    6.7      45.554
2014    8       16     4  33    4.85   454.6    6.7      45.588
2014    8       16     4  39    4.85   454.7    6.7      45.622
2014    8       16     4  45    4.86   454.8    6.7      45.655
2014    8       16     4  50    4.86   454.9    6.7      45.688
2014    8       16     4  56    4.86   454.9    6.7      45.720
2014    8       16     5   2    4.86   455.0    6.7      45.752
2014    8       16     5   8    4.87   455.1    6.7      45.785
2014    8       16     5  14    4.87   455.2    6.7      45.816
2014    8       16     5  20    4.87   455.2    6.7      45.848
2014    8       16     5  26    4.88   455.3    6.7      45.880
2014    8       16     5  31    4.88   455.4    6.7      45.911
2014    8       16     5  37    4.88   455.5    6.7      45.944
2014    8       16     5  43    4.88   455.6    6.8      45.976
2014    8       16     5  49    4.89   455.6    6.8      46.010
2014    8       16     5  55    4.89   455.7    6.8      46.044
2014    8       16     6   1    4.89   455.8    6.8      46.080
2014    8       16     6   7    4.90   455.9    6.8      46.116
2014    8       16     6  12    4.90   456.0    6.8      46.153
2014    8       16     6  18    4.90   456.1    6.8      46.190
2014    8       16     6  24    4.90   456.2    6.8      46.227
2014    8       16     6  30    4.91   456.2    6.8      46.263
2014    8       16     6  36    4.91   456.3    6.8      46.299
2014    8       16     6  42    4.91   456.4    6.8      46.335
2014    8       16     6  48    4.91   456.5    6.8      46.370
2014    8       16     6  53    4.92   456.6    6.8      46.405
2014    8       16     6  59    4.92   456.7    6.8      46.439
2014    8       16     7   5    4.92   456.7    6.8      46.474
2014    8       16     7  11    4.92   456.8    6.8      46.508
2014    8       16     7  17    4.93   456.9    6.8      46.542
2014    8       16     7  23    4.93   457.0    6.8      46.576
2014    8       16     7  29    4.93   457.1    6.8      46.610
2014    8       16     7  35    4.94   457.2    6.8      46.644
2014    8       16     7  40    4.94   457.2    6.8      46.679
2014    8       16     7  46    4.94   457.3    6.8      46.713
2014    8       16     7  52    4.94   457.4    6.8      46.748
2014    8       16     7  58    4.95   457.5    6.8      46.783
2014    8       16     8   4    4.95   457.6    6.8      46.819
2014    8       16     8  10    4.95   457.7    6.8      46.855
2014    8       16     8  16    4.95   457.7    6.8      46.892
2014    8       16     8  21    4.96   457.8    6.8      46.928
2014    8       16     8  27    4.96   457.9    6.8      46.965
2014    8       16     8  33    4.96   458.0    6.8      47.002
2014    8       16     8  39    4.96   458.1    6.8      47.040
2014    8       16     8  45    4.97   458.2    6.8      47.077
2014    8       16     8  51    4.97   458.2    6.9      47.115
2014    8       16     8  57    4.97   458.3    6.9      47.153
2014    8       16     9   2    4.98   458.4    6.9      47.192
2014    8       16     9   8    4.98   458.5    6.9      47.232
2014    8       16     9  14    4.98   458.6    6.9      47.272
2014    8       16     9  20    4.98   458.7    6.9      47.313
2014    8       16     9  26    4.99   458.8    6.9      47.355
2014    8       16     9  32    4.99   458.9    6.9      47.397
2014    8       16     9  38    4.99   459.1    6.9      47.440
2014    8       16     9  43    5.00   459.2    6.9      47.482
2014    8       16     9  49    5.00   459.3    6.9      47.523
2014    8       16     9  55    5.00   459.4    6.9      47.564
2014    8       16    10   1    5.00   459.5    6.9      47.604
2014    8       16    10   7    5.01   459.6    6.9      47.644
2014    8       16    10  13    5.01   459.7    6.9      47.682
2014    8       16    10  19    5.01   459.8    6.9      47.721
2014    8       16    10  25    5.01   460.0    6.9      47.759
2014    8       16    10  30    5.02   460.1    6.9      47.797
2014    8       16    10  36    5.02   460.2    6.9      47.834
2014    8       16    10  42    5.02   460.3    6.9      47.871
2014    8       16    10  48    5.03   460.4    6.9      47.908
2014    8       16    10  54    5.03   460.5    6.9      47.945
2014    8       16    11   0    5.03   460.6    6.9      47.981
2014    8       16    11   6    5.03   460.8    6.9      48.018
2014    8       16    11  11    5.04   460.9    6.9      48.055
2014    8       16    11  17    5.04   461.0    6.9      48.092
2014    8       16    11  23    5.04   461.1    6.9      48.129
2014    8       16    11  29    5.05   461.2    6.9      48.166
2014    8       16    11  35    5.05   461.4    6.9      48.204
2014    8       16    11  41    5.05   461.5    6.9      48.242
2014    8       16    11  47    5.05   461.6    6.9      48.280
2014    8       16    11  53    5.06   461.8    6.9      48.319
2014    8       16    11  58    5.06   461.9    6.9      48.359
2014    8       16    12   4    5.06   462.0    6.9      48.400
2014    8       16    12  10    5.07   462.1    6.9      48.441
2014    8       16    12  16    5.07   462.3    6.9      48.482
2014    8       16    12  22    5.07   462.4    6.9      48.525
2014    8       16    12  28    5.07   462.6    6.9      48.568
2014    8       16    12  34    5.08   462.7    6.9      48.613
2014    8       16    12  39    5.08   462.8    6.9      48.659
2014    8       16    12  45    5.08   463.0    6.9      48.707
2014    8       16    12  51    5.09   463.2    6.9      48.756
2014    8       16    12  57    5.09   463.3    6.9      48.806
2014    8       16    13   3    5.09   463.5    6.9      48.858
2014    8       16    13   9    5.09   463.6    6.9      48.910
2014    8       16    13  15    5.10   463.8    6.9      48.962
2014    8       16    13  20    5.10   463.9    6.9      49.014
2014    8       16    13  26    5.10   464.1    6.9      49.066
2014    8       16    13  32    5.10   464.2    6.9      49.118
2014    8       16    13  38    5.11   464.4    7.0      49.171
2014    8       16    13  44    5.11   464.6    7.0      49.224
2014    8       16    13  50    5.11   464.7    7.0      49.277
2014    8       16    13  56    5.11   464.9    7.0      49.330
2014    8       16    14   1    5.12   465.0    7.0      49.383
2014    8       16    14   7    5.12   465.2    7.0      49.438
2014    8       16    14  13    5.12   465.3    7.0      49.494
2014    8       16    14  19    5.12   465.5    7.0      49.550
2014    8       16    14  25    5.13   465.6    7.0      49.607
2014    8       16    14  31    5.13   465.8    7.0      49.664
2014    8       16    14  37    5.13   466.0    7.0      49.722
2014    8       16    14  43    5.13   466.2    7.0      49.779
2014    8       16    14  48    5.14   466.3    7.0      49.836
2014    8       16    14  54    5.14   466.5    7.0      49.891
2014    8       16    15   0    5.14   466.7    7.0      49.946
2014    8       16    15   6    5.14   466.8    7.0      49.999
2014    8       16    15  12    5.15   467.0    7.0      50.053
2014    8       16    15  18    5.15   467.2    7.0      50.106
2014    8       16    15  24    5.15   467.4    7.0      50.158
2014    8       16    15  29    5.15   467.5    7.0      50.209
2014    8       16    15  35    5.15   467.7    7.0      50.260
2014    8       16    15  41    5.16   467.9    7.0      50.311
2014    8       16    15  47    5.16   468.1    7.0      50.360
2014    8       16    15  53    5.16   468.2    7.0      50.409
2014    8       16    15  59    5.16   468.4    7.0      50.457
2014    8       16    16   5    5.17   468.6    7.0      50.504
2014    8       16    16  10    5.17   468.8    7.0      50.551
2014    8       16    16  16    5.17   468.9    7.0      50.597
2014    8       16    16  22    5.17   469.1    7.0      50.642
2014    8       16    16  28    5.17   469.3    7.0      50.688
2014    8       16    16  34    5.18   469.5    7.0      50.733
2014    8       16    16  40    5.18   469.6    7.0      50.777
2014    8       16    16  46    5.18   469.8    7.0      50.821
2014    8       16    16  52    5.18   470.0    7.0      50.865
2014    8       16    16  57    5.18   470.2    7.0      50.909
2014    8       16    17   3    5.19   470.3    7.0      50.952
2014    8       16    17   9    5.19   470.5    7.0      50.995
2014    8       16    17  15    5.19   470.7    7.0      51.038
2014    8       16    17  21    5.19   470.9    7.0      51.080
2014    8       16    17  27    5.19   471.0    7.0      51.121
2014    8       16    17  33    5.20   471.2    7.0      51.163
2014    8       16    17  38    5.20   471.4    7.0      51.204
2014    8       16    17  44    5.20   471.5    7.0      51.245
2014    8       16    17  50    5.20   471.7    7.0      51.287
2014    8       16    17  56    5.20   471.9    7.0      51.329
2014    8       16    18   2    5.21   472.1    7.0      51.373
2014    8       16    18   8    5.21   472.3    7.0      51.418
2014    8       16    18  14    5.21   472.5    7.0      51.466
2014    8       16    18  19    5.21   472.7    7.0      51.516
2014    8       16    18  25    5.21   472.9    7.0      51.568
2014    8       16    18  31    5.22   473.1    7.0      51.622
2014    8       16    18  37    5.22   473.3    7.0      51.677
2014    8       16    18  43    5.22   473.5    7.0      51.732
2014    8       16    18  49    5.22   473.7    7.0      51.788
2014    8       16    18  55    5.23   473.9    7.0      51.843
2014    8       16    19   1    5.23   474.1    7.0      51.899
2014    8       16    19   6    5.23   474.4    7.0      51.954
2014    8       16    19  12    5.23   474.6    7.0      52.009
2014    8       16    19  18    5.23   474.8    7.0      52.065
2014    8       16    19  24    5.24   475.0    7.0      52.120
2014    8       16    19  30    5.24   475.2    7.0      52.175
2014    8       16    19  36    5.24   475.5    7.0      52.230
2014    8       16    19  42    5.24   475.7    7.0      52.285
2014    8       16    19  47    5.24   475.9    7.0      52.340
2014    8       16    19  53    5.24   476.1    7.0      52.395
2014    8       16    19  59    5.25   476.4    7.0      52.451
2014    8       16    20   5    5.25   476.6    7.0      52.506
2014    8       16    20  11    5.25   476.8    7.0      52.562
2014    8       16    20  17    5.25   477.1    7.0      52.619
2014    8       16    20  23    5.25   477.3    6.9      52.676
2014    8       16    20  28    5.25   477.6    6.9      52.733
2014    8       16    20  34    5.25   477.8    6.9      52.790
2014    8       16    20  40    5.26   478.0    6.9      52.847
2014    8       16    20  46    5.26   478.3    6.9      52.903
2014    8       16    20  52    5.26   478.5    6.9      52.959
2014    8       16    20  58    5.26   478.8    6.9      53.015
2014    8       16    21   4    5.26   479.0    6.9      53.069
2014    8       16    21   9    5.26   479.2    6.9      53.123
2014    8       16    21  15    5.26   479.5    6.9      53.177
2014    8       16    21  21    5.26   479.7    6.9      53.230
2014    8       16    21  27    5.26   480.0    6.9      53.282
2014    8       16    21  33    5.26   480.2    6.9      53.334
2014    8       16    21  39    5.26   480.4    6.9      53.386
2014    8       16    21  45    5.26   480.7    6.9      53.438
2014    8       16    21  51    5.27   480.9    6.9      53.489
2014    8       16    21  56    5.27   481.1    6.9      53.541
2014    8       16    22   2    5.27   481.4    6.9      53.593
2014    8       16    22   8    5.27   481.6    6.9      53.646
2014    8       16    22  14    5.27   481.8    6.9      53.700
2014    8       16    22  20    5.27   482.1    6.9      53.753
2014    8       16    22  26    5.27   482.3    6.9      53.807
2014    8       16    22  32    5.27   482.6    6.9      53.862
2014    8       16    22  37    5.27   482.8    6.9      53.917
2014    8       16    22  43    5.27   483.1    6.9      53.972
2014    8       16    22  49    5.27   483.3    6.9      54.028
2014    8       16    22  55    5.27   483.6    6.9      54.083
2014    8       16    23   1    5.27   483.9    6.9      54.137
2014    8       16    23   7    5.28   484.1    6.9      54.192
2014    8       16    23  13    5.28   484.4    6.9      54.245
2014    8       16    23  18    5.28   484.6    6.9      54.297
2014    8       16    23  24    5.28   484.9    6.9      54.348
2014    8       16    23  30    5.28   485.2    6.9      54.398
2014    8       16    23  36    5.28   485.4    6.9      54.447
2014    8       16    23  42    5.28   485.7    6.8      54.495
2014    8       16    23  48    5.28   486.0    6.8      54.542
2014    8       16    23  54    5.28   486.2    6.8      54.588
2014    8       17    24   0    5.28   486.5    6.8      54.633
2014    8       17     0   5    5.28   486.8    6.8      54.677
2014    8       17     0  11    5.28   487.1    6.8      54.720
2014    8       17     0  17    5.28   487.3    6.8      54.762
2014    8       17     0  23    5.28   487.6    6.8      54.804
2014    8       17     0  29    5.28   487.9    6.8      54.844
2014    8       17     0  35    5.28   488.1    6.8      54.883
2014    8       17     0  41    5.28   488.4    6.8      54.920
2014    8       17     0  46    5.28   488.7    6.8      54.957
2014    8       17     0  52    5.28   488.9    6.8      54.992
2014    8       17     0  58    5.28   489.2    6.8      55.026
2014    8       17     1   4    5.28   489.4    6.8      55.060
2014    8       17     1  10    5.27   489.7    6.8      55.093
2014    8       17     1  16    5.27   489.9    6.8      55.125
2014    8       17     1  22    5.27   490.2    6.8      55.158
2014    8       17     1  27    5.27   490.4    6.7      55.190
2014    8       17     1  33    5.27   490.7    6.7      55.223
2014    8       17     1  39    5.27   490.9    6.7      55.257
2014    8       17     1  45    5.27   491.2    6.7      55.293
2014    8       17     1  51    5.27   491.4    6.7      55.331
2014    8       17     1  57    5.27   491.7    6.7      55.371
2014    8       17     2   3    5.27   492.0    6.7      55.412
2014    8       17     2   9    5.27   492.2    6.7      55.454
2014    8       17     2  14    5.27   492.5    6.7      55.496
2014    8       17     2  20    5.27   492.8    6.7      55.538
2014    8       17     2  26    5.27   493.0    6.7      55.578
2014    8       17     2  32    5.27   493.3    6.7      55.618
2014    8       17     2  38    5.27   493.6    6.7      55.657
2014    8       17     2  44    5.26   493.9    6.6      55.695
2014    8       17     2  50    5.26   494.1    6.6      55.732
2014    8       17     2  55    5.26   494.4    6.6      55.768
2014    8       17     3   1    5.26   494.7    6.6      55.804
2014    8       17     3   7    5.26   494.9    6.6      55.838
2014    8       17     3  13    5.26   495.2    6.6      55.871
2014    8       17     3  19    5.26   495.5    6.6      55.903
2014    8       17     3  25    5.26   495.7    6.6      55.934
2014    8       17     3  31    5.25   496.0    6.6      55.965
2014    8       17     3  36    5.25   496.3    6.6      55.995
2014    8       17     3  42    5.25   496.5    6.6      56.023
2014    8       17     3  48    5.25   496.8    6.5      56.051
2014    8       17     3  54    5.25   497.1    6.5      56.078
2014    8       17     4   0    5.25   497.4    6.5      56.104
2014    8       17     4   6    5.24   497.6    6.5      56.129
2014    8       17     4  12    5.24   497.9    6.5      56.154
2014    8       17     4  17    5.24   498.2    6.5      56.178
2014    8       17     4  23    5.24   498.5    6.5      56.203
2014    8       17     4  29    5.24   498.8    6.5      56.227
2014    8       17     4  35    5.23   499.1    6.5      56.251
2014    8       17     4  41    5.23   499.4    6.5      56.274
2014    8       17     4  47    5.23   499.7    6.4      56.298
2014    8       17     4  53    5.23   500.0    6.4      56.319
2014    8       17     4  59    5.22   500.3    6.4      56.337
2014    8       17     5   4    5.22   500.6    6.4      56.352
2014    8       17     5  10    5.22   500.8    6.4      56.364
2014    8       17     5  16    5.21   501.1    6.4      56.375
2014    8       17     5  22    5.21   501.3    6.4      56.383
2014    8       17     5  28    5.21   501.6    6.4      56.389
2014    8       17     5  34    5.21   501.8    6.4      56.397
2014    8       17     5  40    5.20   502.1    6.3      56.404
2014    8       17     5  45    5.20   502.3    6.3      56.412
2014    8       17     5  51    5.20   502.5    6.3      56.421
2014    8       17     5  57    5.19   502.8    6.3      56.431
2014    8       17     6   3    5.19   503.0    6.3      56.442
2014    8       17     6   9    5.19   503.3    6.3      56.454
2014    8       17     6  15    5.18   503.5    6.3      56.467
2014    8       17     6  21    5.18   503.8    6.3      56.481
2014    8       17     6  26    5.18   504.0    6.3      56.496
2014    8       17     6  32    5.17   504.3    6.3      56.510
2014    8       17     6  38    5.17   504.5    6.2      56.524
2014    8       17     6  44    5.17   504.8    6.2      56.537
2014    8       17     6  50    5.17   505.0    6.2      56.550
2014    8       17     6  56    5.16   505.3    6.2      56.561
2014    8       17     7   2    5.16   505.5    6.2      56.571
2014    8       17     7   7    5.16   505.8    6.2      56.580
2014    8       17     7  13    5.15   506.0    6.2      56.587
2014    8       17     7  19    5.15   506.3    6.2      56.594
2014    8       17     7  25    5.14   506.5    6.2      56.599
2014    8       17     7  31    5.14   506.8    6.1      56.603
2014    8       17     7  37    5.14   507.0    6.1      56.605
2014    8       17     7  43    5.13   507.3    6.1      56.607
2014    8       17     7  49    5.13   507.5    6.1      56.607
2014    8       17     7  54    5.13   507.7    6.1      56.605
2014    8       17     8   0    5.12   507.9    6.1      56.603
2014    8       17     8   6    5.12   508.2    6.1      56.599
2014    8       17     8  12    5.12   508.4    6.1      56.594
2014    8       17     8  18    5.11   508.6    6.1      56.589
2014    8       17     8  24    5.11   508.8    6.0      56.584
2014    8       17     8  30    5.10   509.0    6.0      56.577
2014    8       17     8  35    5.10   509.3    6.0      56.570
2014    8       17     8  41    5.10   509.5    6.0      56.563
2014    8       17     8  47    5.09   509.7    6.0      56.555
2014    8       17     8  53    5.09   510.0    6.0      56.545
2014    8       17     8  59    5.09   510.2    6.0      56.534
2014    8       17     9   5    5.08   510.4    6.0      56.523
2014    8       17     9  11    5.08   510.6    6.0      56.510
2014    8       17     9  17    5.07   510.9    5.9      56.497
2014    8       17     9  22    5.07   511.1    5.9      56.483
2014    8       17     9  28    5.06   511.3    5.9      56.467
2014    8       17     9  34    5.06   511.5    5.9      56.450
2014    8       17     9  40    5.06   511.7    5.9      56.431
2014    8       17     9  46    5.05   512.0    5.9      56.412
2014    8       17     9  52    5.05   512.2    5.9      56.391
2014    8       17     9  58    5.04   512.4    5.9      56.370
2014    8       17    10   3    5.04   512.6    5.8      56.348
2014    8       17    10   9    5.03   512.8    5.8      56.327
2014    8       17    10  15    5.03   513.0    5.8      56.304
2014    8       17    10  21    5.03   513.2    5.8      56.282
2014    8       17    10  27    5.02   513.4    5.8      56.258
2014    8       17    10  33    5.02   513.6    5.8      56.233
2014    8       17    10  39    5.01   513.8    5.8      56.207
2014    8       17    10  44    5.01   514.0    5.8      56.179
2014    8       17    10  50    5.00   514.1    5.8      56.151
2014    8       17    10  56    5.00   514.3    5.7      56.120
2014    8       17    11   2    4.99   514.5    5.7      56.089
2014    8       17    11   8    4.99   514.7    5.7      56.057
2014    8       17    11  14    4.98   514.8    5.7      56.025
2014    8       17    11  20    4.98   515.0    5.7      55.992
2014    8       17    11  25    4.98   515.2    5.7      55.959
2014    8       17    11  31    4.97   515.3    5.7      55.925
2014    8       17    11  37    4.97   515.5    5.7      55.893
2014    8       17    11  43    4.96   515.7    5.7      55.863
2014    8       17    11  49    4.96   515.8    5.6      55.833
2014    8       17    11  55    4.95   516.0    5.6      55.804
2014    8       17    12   1    4.95   516.2    5.6      55.777
2014    8       17    12   7    4.95   516.4    5.6      55.749
2014    8       17    12  12    4.94   516.6    5.6      55.721
2014    8       17    12  18    4.94   516.7    5.6      55.692
2014    8       17    12  24    4.93   516.9    5.6      55.663
2014    8       17    12  30    4.93   517.0    5.6      55.635
2014    8       17    12  36    4.92   517.2    5.6      55.605
2014    8       17    12  42    4.92   517.3    5.6      55.574
2014    8       17    12  48    4.91   517.5    5.6      55.545
2014    8       17    12  53    4.91   517.6    5.5      55.517
2014    8       17    12  59    4.90   517.8    5.5      55.488
2014    8       17    13   5    4.90   517.9    5.5      55.458
2014    8       17    13  11    4.89   518.0    5.5      55.427
2014    8       17    13  17    4.89   518.2    5.5      55.395
2014    8       17    13  23    4.88   518.3    5.5      55.362
2014    8       17    13  29    4.88   518.5    5.5      55.329
2014    8       17    13  34    4.88   518.6    5.5      55.296
2014    8       17    13  40    4.87   518.7    5.5      55.262
2014    8       17    13  46    4.87   518.9    5.5      55.227
2014    8       17    13  52    4.86   519.0    5.5      55.191
2014    8       17    13  58    4.86   519.1    5.4      55.154
2014    8       17    14   4    4.85   519.2    5.4      55.117
2014    8       17    14  10    4.85   519.4    5.4      55.078
2014    8       17    14  15    4.84   519.5    5.4      55.039
2014    8       17    14  21    4.84   519.6    5.4      55.000
2014    8       17    14  27    4.83   519.7    5.4      54.960
2014    8       17    14  33    4.83   519.8    5.4      54.920
2014    8       17    14  39    4.82   519.9    5.4      54.880
2014    8       17    14  45    4.82   520.0    5.4      54.839
2014    8       17    14  51    4.82   520.1    5.4      54.798
2014    8       17    14  57    4.81   520.1    5.3      54.758
2014    8       17    15   2    4.81   520.2    5.3      54.718
2014    8       17    15   8    4.80   520.3    5.3      54.677
2014    8       17    15  14    4.80   520.4    5.3      54.636
2014    8       17    15  20    4.79   520.4    5.3      54.595
2014    8       17    15  26    4.79   520.5    5.3      54.556
2014    8       17    15  32    4.78   520.6    5.3      54.517
2014    8       17    15  38    4.78   520.7    5.3      54.477
2014    8       17    15  43    4.78   520.8    5.3      54.439
2014    8       17    15  49    4.77   520.9    5.3      54.400
2014    8       17    15  55    4.77   521.0    5.3      54.361
2014    8       17    16   1    4.76   521.1    5.3      54.322
2014    8       17    16   7    4.76   521.2    5.3      54.282
2014    8       17    16  13    4.76   521.3    5.2      54.240
2014    8       17    16  19    4.75   521.4    5.2      54.198
2014    8       17    16  25    4.75   521.5    5.2      54.155
2014    8       17    16  30    4.74   521.6    5.2      54.112
2014    8       17    16  36    4.74   521.7    5.2      54.069
2014    8       17    16  42    4.73   521.8    5.2      54.024
2014    8       17    16  48    4.73   521.8    5.2      53.979
2014    8       17    16  54    4.73   521.9    5.2      53.934
2014    8       17    17   0    4.72   522.0    5.2      53.888
2014    8       17    17   6    4.72   522.1    5.2      53.841
2014    8       17    17  11    4.71   522.2    5.2      53.794
2014    8       17    17  17    4.71   522.3    5.2      53.748
2014    8       17    17  23    4.70   522.3    5.1      53.703
2014    8       17    17  29    4.70   522.4    5.1      53.658
2014    8       17    17  35    4.69   522.5    5.1      53.614
2014    8       17    17  41    4.69   522.6    5.1      53.570
2014    8       17    17  47    4.69   522.6    5.1      53.526
2014    8       17    17  52    4.68   522.7    5.1      53.482
2014    8       17    17  58    4.68   522.7    5.1      53.438
2014    8       17    18   4    4.67   522.8    5.1      53.394
2014    8       17    18  10    4.67   522.8    5.1      53.350
2014    8       17    18  16    4.67   522.9    5.1      53.305
2014    8       17    18  22    4.66   522.9    5.1      53.261
2014    8       17    18  28    4.66   523.0    5.1      53.217
2014    8       17    18  33    4.66   523.0    5.1      53.175
2014    8       17    18  39    4.65   523.0    5.1      53.133
2014    8       17    18  45    4.65   523.0    5.1      53.093
2014    8       17    18  51    4.65   523.0    5.1      53.054
2014    8       17    18  57    4.64   523.0    5.1      53.016
2014    8       17    19   3    4.64   523.1    5.0      52.981
2014    8       17    19   9    4.64   523.1    5.0      52.948
2014    8       17    19  15    4.63   523.1    5.0      52.918
2014    8       17    19  20    4.63   523.1    5.0      52.889
2014    8       17    19  26    4.63   523.0    5.0      52.861
2014    8       17    19  32    4.63   523.0    5.0      52.837
2014    8       17    19  38    4.62   523.0    5.0      52.817
2014    8       17    19  44    4.62   523.0    5.0      52.799
2014    8       17    19  50    4.62   523.0    5.0      52.784
2014    8       17    19  56    4.62   523.1    5.0      52.770
2014    8       17    20   1    4.61   523.1    5.0      52.756
2014    8       17    20   7    4.61   523.1    5.0      52.744
2014    8       17    20  13    4.61   523.1    5.0      52.732
2014    8       17    20  19    4.61   523.2    5.0      52.718
2014    8       17    20  25    4.60   523.2    5.0      52.703
2014    8       17    20  31    4.60   523.2    5.0      52.685
2014    8       17    20  37    4.60   523.2    5.0      52.666
2014    8       17    20  42    4.60   523.3    5.0      52.645
2014    8       17    20  48    4.59   523.3    5.0      52.625
2014    8       17    20  54    4.59   523.3    5.0      52.603
2014    8       17    21   0    4.59   523.3    5.0      52.581
2014    8       17    21   6    4.59   523.4    5.0      52.557
2014    8       17    21  12    4.58   523.4    5.0      52.533
2014    8       17    21  18    4.58   523.4    5.0      52.508
2014    8       17    21  23    4.58   523.4    5.0      52.483
2014    8       17    21  29    4.58   523.5    5.0      52.458
2014    8       17    21  35    4.57   523.5    5.0      52.431
2014    8       17    21  41    4.57   523.5    5.0      52.405
2014    8       17    21  47    4.57   523.5    5.0      52.379
2014    8       17    21  53    4.57   523.6    5.0      52.352
2014    8       17    21  59    4.56   523.6    5.0      52.325
2014    8       17    22   5    4.56   523.6    5.0      52.298
2014    8       17    22  10    4.56   523.6    5.0      52.271
2014    8       17    22  16    4.56   523.6    5.0      52.244
2014    8       17    22  22    4.55   523.7    5.0      52.217
2014    8       17    22  28    4.55   523.7    5.0      52.190
2014    8       17    22  34    4.55   523.7    5.0      52.163
2014    8       17    22  40    4.55   523.7    5.0      52.135
2014    8       17    22  46    4.54   523.8    5.0      52.108
2014    8       17    22  51    4.54   523.8    5.0      52.080
2014    8       17    22  57    4.54   523.8    4.9      52.052
2014    8       17    23   3    4.54   523.9    4.9      52.024
2014    8       17    23   9    4.53   523.9    4.9      51.996
2014    8       17    23  15    4.53   523.9    4.9      51.968
2014    8       17    23  21    4.53   524.0    4.9      51.940
2014    8       17    23  27    4.53   524.0    4.9      51.913
2014    8       17    23  33    4.52   524.0    4.9      51.885
2014    8       17    23  38    4.52   524.0    4.9      51.857
2014    8       17    23  44    4.52   524.1    4.9      51.830
2014    8       17    23  50    4.52   524.1    4.9      51.803
2014    8       17    23  56    4.51   524.1    4.9      51.776
2014    8       18     0   2    4.51   524.1    4.9      51.750
2014    8       18     0   8    4.51   524.2    4.9      51.724
2014    8       18     0  14    4.51   524.2    4.9      51.699
2014    8       18     0  19    4.50   524.2    4.9      51.674
2014    8       18     0  25    4.50   524.2    4.9      51.650
2014    8       18     0  31    4.50   524.3    4.9      51.627
2014    8       18     0  37    4.50   524.3    4.9      51.604
2014    8       18     0  43    4.50   524.3    4.9      51.582
2014    8       18     0  49    4.49   524.3    4.9      51.560
2014    8       18     0  55    4.49   524.3    4.9      51.540
2014    8       18     1   0    4.49   524.3    4.9      51.520
2014    8       18     1   6    4.49   524.4    4.9      51.501
2014    8       18     1  12    4.49   524.4    4.9      51.483
2014    8       18     1  18    4.48   524.4    4.9      51.466
2014    8       18     1  24    4.48   524.4    4.9      51.450
2014    8       18     1  30    4.48   524.4    4.9      51.436
2014    8       18     1  36    4.48   524.4    4.9      51.422
2014    8       18     1  41    4.48   524.4    4.9      51.410
2014    8       18     1  47    4.48   524.4    4.9      51.398
2014    8       18     1  53    4.47   524.4    4.9      51.388
2014    8       18     1  59    4.47   524.4    4.9      51.379
2014    8       18     2   5    4.47   524.4    4.9      51.372
2014    8       18     2  11    4.47   524.4    4.9      51.365
2014    8       18     2  17    4.47   524.4    4.9      51.360
2014    8       18     2  23    4.47   524.4    4.9      51.355
2014    8       18     2  28    4.47   524.4    4.9      51.352
2014    8       18     2  34    4.47   524.4    4.9      51.351
2014    8       18     2  40    4.47   524.4    4.9      51.350
2014    8       18     2  46    4.46   524.4    4.9      51.350
2014    8       18     2  52    4.46   524.4    4.9      51.351
2014    8       18     2  58    4.46   524.4    4.9      51.352
2014    8       18     3   4    4.46   524.4    4.9      51.353
2014    8       18     3   9    4.46   524.4    4.9      51.355
2014    8       18     3  15    4.46   524.4    4.9      51.355
2014    8       18     3  21    4.46   524.4    4.9      51.355
2014    8       18     3  27    4.46   524.4    4.9      51.356
2014    8       18     3  33    4.46   524.4    4.9      51.356
2014    8       18     3  39    4.46   524.4    4.9      51.356
2014    8       18     3  45    4.46   524.4    4.9      51.356
2014    8       18     3  50    4.46   524.4    4.9      51.355
2014    8       18     3  56    4.46   524.4    4.9      51.354
2014    8       18     4   2    4.46   524.4    4.9      51.352
2014    8       18     4   8    4.46   524.4    4.9      51.350
2014    8       18     4  14    4.45   524.5    4.9      51.348
2014    8       18     4  20    4.45   524.5    4.9      51.345
2014    8       18     4  26    4.45   524.5    4.9      51.341
2014    8       18     4  32    4.45   524.5    4.9      51.337
2014    8       18     4  37    4.45   524.5    4.9      51.332
2014    8       18     4  43    4.45   524.5    4.9      51.327
2014    8       18     4  49    4.45   524.5    4.9      51.321
2014    8       18     4  55    4.45   524.5    4.9      51.315
2014    8       18     5   1    4.45   524.6    4.9      51.308
2014    8       18     5   7    4.45   524.6    4.9      51.301
2014    8       18     5  13    4.45   524.6    4.9      51.295
2014    8       18     5  18    4.44   524.6    4.9      51.288
2014    8       18     5  24    4.44   524.6    4.9      51.281
2014    8       18     5  30    4.44   524.7    4.9      51.274
2014    8       18     5  36    4.44   524.7    4.9      51.267
2014    8       18     5  42    4.44   524.7    4.9      51.259
2014    8       18     5  48    4.44   524.7    4.9      51.251
2014    8       18     5  54    4.44   524.8    4.9      51.243
2014    8       18     5  59    4.44   524.8    4.9      51.235
2014    8       18     6   5    4.44   524.8    4.9      51.227
2014    8       18     6  11    4.44   524.9    4.9      51.218
2014    8       18     6  17    4.43   524.9    4.8      51.210
2014    8       18     6  23    4.43   524.9    4.8      51.201
2014    8       18     6  29    4.43   524.9    4.8      51.192
2014    8       18     6  35    4.43   525.0    4.8      51.183
2014    8       18     6  41    4.43   525.0    4.8      51.173
2014    8       18     6  46    4.43   525.0    4.8      51.164
2014    8       18     6  52    4.43   525.1    4.8      51.155
2014    8       18     6  58    4.43   525.1    4.8      51.146
2014    8       18     7   4    4.43   525.1    4.8      51.137
2014    8       18     7  10    4.43   525.1    4.8      51.128
2014    8       18     7  16    4.42   525.2    4.8      51.120
2014    8       18     7  22    4.42   525.2    4.8      51.111
2014    8       18     7  27    4.42   525.2    4.8      51.103
2014    8       18     7  33    4.42   525.2    4.8      51.096
2014    8       18     7  39    4.42   525.3    4.8      51.089
2014    8       18     7  45    4.42   525.3    4.8      51.083
2014    8       18     7  51    4.42   525.3    4.8      51.077
2014    8       18     7  57    4.42   525.3    4.8      51.072
2014    8       18     8   3    4.42   525.4    4.8      51.068
2014    8       18     8   8    4.42   525.4    4.8      51.064
2014    8       18     8  14    4.42   525.4    4.8      51.061
2014    8       18     8  20    4.41   525.5    4.8      51.059
2014    8       18     8  26    4.41   525.5    4.8      51.058
2014    8       18     8  32    4.41   525.5    4.8      51.057
2014    8       18     8  38    4.41   525.5    4.8      51.058
2014    8       18     8  44    4.41   525.6    4.8      51.059
2014    8       18     8  50    4.41   525.6    4.8      51.062
2014    8       18     8  55    4.41   525.6    4.8      51.065
2014    8       18     9   1    4.41   525.6    4.8      51.069
2014    8       18     9   7    4.41   525.7    4.8      51.074
2014    8       18     9  13    4.41   525.7    4.8      51.080
2014    8       18     9  19    4.41   525.7    4.8      51.087
2014    8       18     9  25    4.41   525.8    4.8      51.094
2014    8       18     9  31    4.41   525.8    4.8      51.102
2014    8       18     9  36    4.41   525.8    4.8      51.111
2014    8       18     9  42    4.41   525.8    4.8      51.121
2014    8       18     9  48    4.41   525.9    4.8      51.131
2014    8       18     9  54    4.41   525.9    4.8      51.142
2014    8       18    10   0    4.41   525.9    4.8      51.154
2014    8       18    10   6    4.41   525.9    4.8      51.165
2014    8       18    10  12    4.41   526.0    4.8      51.178
2014    8       18    10  17    4.41   526.0    4.8      51.191
2014    8       18    10  23    4.41   526.0    4.8      51.204
2014    8       18    10  29    4.41   526.1    4.8      51.218
2014    8       18    10  35    4.41   526.1    4.8      51.232
2014    8       18    10  41    4.41   526.1    4.8      51.246
2014    8       18    10  47    4.41   526.1    4.8      51.261
2014    8       18    10  53    4.41   526.2    4.8      51.276
2014    8       18    10  58    4.41   526.2    4.8      51.292
2014    8       18    11   4    4.41   526.2    4.8      51.308
2014    8       18    11  10    4.41   526.2    4.8      51.325
2014    8       18    11  16    4.41   526.3    4.8      51.341
2014    8       18    11  22    4.41   526.3    4.8      51.358
2014    8       18    11  28    4.41   526.3    4.8      51.375
2014    8       18    11  34    4.41   526.4    4.8      51.392
2014    8       18    11  39    4.41   526.4    4.8      51.409
2014    8       18    11  45    4.41   526.4    4.8      51.426
2014    8       18    11  51    4.41   526.5    4.8      51.444
2014    8       18    11  57    4.41   526.5    4.8      51.462
2014    8       18    12   3    4.41   526.5    4.8      51.480
2014    8       18    12   9    4.41   526.6    4.8      51.498
2014    8       18    12  15    4.41   526.6    4.8      51.516
2014    8       18    12  21    4.41   526.6    4.8      51.534
2014    8       18    12  26    4.41   526.7    4.8      51.550
2014    8       18    12  32    4.41   526.7    4.8      51.566
2014    8       18    12  38    4.41   526.8    4.8      51.581
2014    8       18    12  44    4.41   526.8    4.8      51.595
2014    8       18    12  50    4.41   526.9    4.8      51.608
2014    8       18    12  56    4.41   526.9    4.8      51.621
2014    8       18    13   2    4.41   527.0    4.8      51.633
2014    8       18    13   7    4.41   527.0    4.8      51.644
2014    8       18    13  13    4.41   527.1    4.8      51.654
2014    8       18    13  19    4.40   527.1    4.8      51.663
2014    8       18    13  25    4.40   527.2    4.8      51.672
2014    8       18    13  31    4.40   527.2    4.8      51.680
2014    8       18    13  37    4.40   527.3    4.8      51.687
2014    8       18    13  43    4.40   527.3    4.8      51.694
2014    8       18    13  49    4.40   527.4    4.8      51.700
2014    8       18    13  54    4.40   527.4    4.8      51.705
2014    8       18    14   0    4.40   527.5    4.8      51.710
2014    8       18    14   6    4.40   527.5    4.8      51.715
2014    8       18    14  12    4.40   527.6    4.8      51.719
2014    8       18    14  18    4.40   527.6    4.8      51.723
2014    8       18    14  24    4.40   527.7    4.8      51.726
2014    8       18    14  30    4.40   527.8    4.8      51.730
2014    8       18    14  35    4.40   527.8    4.8      51.733
2014    8       18    14  41    4.40   527.9    4.8      51.736
2014    8       18    14  47    4.40   527.9    4.8      51.739
2014    8       18    14  53    4.40   528.0    4.8      51.743
2014    8       18    14  59    4.40   528.0    4.8      51.746
2014    8       18    15   5    4.40   528.1    4.8      51.750
2014    8       18    15  11    4.40   528.1    4.8      51.754
2014    8       18    15  16    4.40   528.2    4.8      51.758
2014    8       18    15  22    4.40   528.2    4.8      51.763
2014    8       18    15  28    4.40   528.3    4.8      51.768
2014    8       18    15  34    4.40   528.4    4.8      51.773
2014    8       18    15  40    4.40   528.4    4.8      51.780
2014    8       18    15  46    4.40   528.5    4.8      51.787
2014    8       18    15  52    4.40   528.6    4.8      51.795
2014    8       18    15  58    4.40   528.6    4.8      51.805
2014    8       18    16   3    4.40   528.7    4.8      51.816
2014    8       18    16   9    4.40   528.8    4.8      51.828
2014    8       18    16  15    4.40   528.8    4.8      51.842
2014    8       18    16  21    4.40   528.9    4.8      51.857
2014    8       18    16  27    4.40   529.0    4.8      51.872
2014    8       18    16  33    4.39   529.0    4.8      51.889
2014    8       18    16  39    4.39   529.1    4.8      51.906
2014    8       18    16  44    4.39   529.2    4.8      51.923
2014    8       18    16  50    4.39   529.2    4.8      51.941
2014    8       18    16  56    4.39   529.3    4.8      51.959
2014    8       18    17   2    4.39   529.4    4.8      51.977
2014    8       18    17   8    4.39   529.4    4.8      51.996
2014    8       18    17  14    4.39   529.5    4.8      52.015
2014    8       18    17  20    4.39   529.6    4.8      52.034
2014    8       18    17  25    4.39   529.6    4.8      52.053
2014    8       18    17  31    4.39   529.7    4.8      52.072
2014    8       18    17  37    4.39   529.8    4.8      52.092
2014    8       18    17  43    4.39   529.8    4.8      52.112
2014    8       18    17  49    4.39   529.9    4.8      52.132
2014    8       18    17  55    4.39   530.0    4.8      52.151
2014    8       18    18   1    4.39   530.0    4.8      52.172
2014    8       18    18   6    4.39   530.1    4.8      52.193
2014    8       18    18  12    4.39   530.2    4.8      52.214
2014    8       18    18  18    4.39   530.2    4.8      52.235
2014    8       18    18  24    4.39   530.3    4.8      52.257
2014    8       18    18  30    4.39   530.3    4.8      52.279
2014    8       18    18  36    4.39   530.4    4.8      52.302
2014    8       18    18  42    4.39   530.5    4.8      52.325
2014    8       18    18  47    4.39   530.5    4.8      52.349
2014    8       18    18  53    4.39   530.6    4.8      52.374
2014    8       18    18  59    4.39   530.6    4.8      52.400
2014    8       18    19   5    4.39   530.7    4.8      52.426
2014    8       18    19  11    4.39   530.8    4.8      52.455
2014    8       18    19  17    4.39   530.8    4.8      52.484
2014    8       18    19  23    4.39   530.9    4.8      52.515
2014    8       18    19  29    4.39   531.0    4.8      52.547
2014    8       18    19  34    4.39   531.0    4.8      52.579
2014    8       18    19  40    4.39   531.1    4.8      52.611
2014    8       18    19  46    4.39   531.2    4.8      52.642
2014    8       18    19  52    4.39   531.2    4.8      52.673
2014    8       18    19  58    4.39   531.3    4.8      52.704
2014    8       18    20   4    4.39   531.4    4.8      52.733
2014    8       18    20  10    4.39   531.5    4.8      52.760
2014    8       18    20  15    4.39   531.6    4.8      52.787
2014    8       18    20  21    4.39   531.6    4.8      52.812
2014    8       18    20  27    4.39   531.7    4.8      52.835
2014    8       18    20  33    4.39   531.8    4.8      52.856
2014    8       18    20  39    4.39   531.9    4.8      52.876
2014    8       18    20  45    4.39   532.0    4.8      52.894
2014    8       18    20  51    4.39   532.1    4.8      52.911
2014    8       18    20  57    4.39   532.2    4.8      52.926
2014    8       18    21   2    4.39   532.2    4.8      52.940
2014    8       18    21   8    4.39   532.3    4.8      52.953
2014    8       18    21  14    4.39   532.4    4.8      52.965
2014    8       18    21  20    4.38   532.5    4.8      52.976
2014    8       18    21  26    4.38   532.6    4.8      52.985
2014    8       18    21  32    4.38   532.7    4.8      52.994
2014    8       18    21  38    4.38   532.8    4.8      53.002
2014    8       18    21  43    4.38   532.8    4.8      53.010
2014    8       18    21  49    4.38   532.9    4.8      53.016
2014    8       18    21  55    4.38   533.0    4.8      53.022
2014    8       18    22   1    4.38   533.1    4.8      53.028
2014    8       18    22   7    4.38   533.2    4.8      53.033
2014    8       18    22  13    4.38   533.3    4.8      53.037
2014    8       18    22  19    4.38   533.4    4.8      53.041
2014    8       18    22  24    4.38   533.4    4.8      53.044
2014    8       18    22  30    4.38   533.5    4.8      53.048
2014    8       18    22  36    4.38   533.6    4.8      53.051
2014    8       18    22  42    4.38   533.7    4.8      53.053
2014    8       18    22  48    4.37   533.8    4.8      53.056
2014    8       18    22  54    4.37   533.9    4.8      53.059
2014    8       18    23   0    4.37   534.0    4.8      53.062
2014    8       18    23   6    4.37   534.0    4.8      53.065
2014    8       18    23  11    4.37   534.1    4.8      53.069
2014    8       18    23  17    4.37   534.2    4.8      53.074
2014    8       18    23  23    4.37   534.3    4.8      53.081
2014    8       18    23  29    4.37   534.4    4.8      53.088
2014    8       18    23  35    4.37   534.5    4.8      53.096
2014    8       18    23  41    4.37   534.6    4.8      53.106
2014    8       18    23  47    4.37   534.7    4.8      53.116
2014    8       18    23  52    4.37   534.8    4.8      53.129
2014    8       18    23  58    4.37   534.9    4.8      53.143
2014    8       19     0   4    4.37   535.0    4.8      53.159
2014    8       19     0  10    4.37   535.1    4.8      53.176
2014    8       19     0  16    4.37   535.2    4.8      53.195
2014    8       19     0  22    4.36   535.4    4.8      53.213
2014    8       19     0  28    4.36   535.5    4.8      53.231
2014    8       19     0  33    4.36   535.6    4.8      53.249
2014    8       19     0  39    4.36   535.7    4.8      53.266
2014    8       19     0  45    4.36   535.8    4.8      53.283
2014    8       19     0  51    4.36   535.9    4.8      53.299
2014    8       19     0  57    4.36   536.0    4.8      53.315
2014    8       19     1   3    4.36   536.1    4.8      53.330
2014    8       19     1   9    4.36   536.2    4.8      53.346
2014    8       19     1  14    4.36   536.3    4.8      53.360
2014    8       19     1  20    4.36   536.4    4.8      53.375
2014    8       19     1  26    4.35   536.5    4.8      53.389
2014    8       19     1  32    4.35   536.6    4.8      53.403
2014    8       19     1  38    4.35   536.7    4.8      53.418
2014    8       19     1  44    4.35   536.8    4.8      53.432
2014    8       19     1  50    4.35   536.9    4.8      53.446
2014    8       19     1  55    4.35   537.0    4.8      53.461
2014    8       19     2   1    4.35   537.1    4.8      53.476
2014    8       19     2   7    4.35   537.2    4.8      53.491
2014    8       19     2  13    4.35   537.3    4.8      53.506
2014    8       19     2  19    4.35   537.4    4.7      53.522
2014    8       19     2  25    4.34   537.5    4.7      53.538
2014    8       19     2  31    4.34   537.6    4.7      53.555
2014    8       19     2  37    4.34   537.7    4.7      53.573
2014    8       19     2  42    4.34   537.8    4.7      53.591
2014    8       19     2  48    4.34   537.9    4.7      53.610
2014    8       19     2  54    4.34   537.9    4.7      53.628
2014    8       19     3   0    4.34   538.0    4.7      53.646
2014    8       19     3   6    4.34   538.1    4.7      53.665
2014    8       19     3  12    4.33   538.2    4.7      53.683
2014    8       19     3  18    4.33   538.3    4.7      53.701
2014    8       19     3  23    4.33   538.4    4.7      53.718
2014    8       19     3  29    4.33   538.5    4.7      53.735
2014    8       19     3  35    4.33   538.6    4.7      53.752
2014    8       19     3  41    4.33   538.7    4.7      53.767
2014    8       19     3  47    4.33   538.8    4.7      53.781
2014    8       19     3  53    4.32   538.9    4.7      53.793
2014    8       19     3  59    4.32   539.0    4.7      53.805
2014    8       19     4   5    4.32   539.1    4.7      53.816
2014    8       19     4  10    4.32   539.2    4.7      53.826
2014    8       19     4  16    4.32   539.3    4.7      53.834
2014    8       19     4  22    4.32   539.4    4.7      53.843
2014    8       19     4  28    4.31   539.5    4.7      53.849
2014    8       19     4  34    4.31   539.6    4.7      53.855
2014    8       19     4  40    4.31   539.7    4.7      53.860
2014    8       19     4  46    4.31   539.8    4.7      53.863
2014    8       19     4  51    4.31   539.9    4.7      53.865
2014    8       19     4  57    4.30   540.0    4.7      53.867
2014    8       19     5   3    4.30   540.0    4.7      53.867
2014    8       19     5   9    4.30   540.1    4.7      53.867
2014    8       19     5  15    4.30   540.2    4.7      53.866
2014    8       19     5  21    4.30   540.3    4.7      53.864
2014    8       19     5  27    4.29   540.4    4.7      53.861
2014    8       19     5  32    4.29   540.5    4.7      53.857
2014    8       19     5  38    4.29   540.6    4.7      53.852
2014    8       19     5  44    4.29   540.7    4.7      53.847
2014    8       19     5  50    4.29   540.7    4.7      53.840
2014    8       19     5  56    4.28   540.8    4.7      53.834
2014    8       19     6   2    4.28   540.9    4.7      53.826
2014    8       19     6   8    4.28   541.0    4.7      53.818
2014    8       19     6  13    4.28   541.1    4.6      53.809
2014    8       19     6  19    4.27   541.1    4.6      53.800
2014    8       19     6  25    4.27   541.2    4.6      53.791
2014    8       19     6  31    4.27   541.3    4.6      53.781
2014    8       19     6  37    4.27   541.4    4.6      53.771
2014    8       19     6  43    4.27   541.5    4.6      53.761
2014    8       19     6  49    4.26   541.5    4.6      53.751
2014    8       19     6  55    4.26   541.6    4.6      53.740
2014    8       19     7   0    4.26   541.7    4.6      53.730
2014    8       19     7   6    4.26   541.8    4.6      53.720
2014    8       19     7  12    4.26   541.8    4.6      53.712
2014    8       19     7  18    4.25   541.9    4.6      53.705
2014    8       19     7  24    4.25   542.0    4.6      53.699
2014    8       19     7  30    4.25   542.1    4.6      53.696
2014    8       19     7  36    4.25   542.2    4.6      53.693
2014    8       19     7  41    4.24   542.3    4.6      53.690
2014    8       19     7  47    4.24   542.4    4.6      53.687
2014    8       19     7  53    4.24   542.5    4.6      53.684
2014    8       19     7  59    4.24   542.5    4.6      53.680
2014    8       19     8   5    4.24   542.6    4.6      53.675
2014    8       19     8  11    4.23   542.7    4.6      53.670
2014    8       19     8  17    4.23   542.8    4.6      53.665
2014    8       19     8  22    4.23   542.9    4.6      53.659
2014    8       19     8  28    4.23   543.0    4.6      53.653
2014    8       19     8  34    4.22   543.1    4.6      53.646
2014    8       19     8  40    4.22   543.1    4.6      53.639
2014    8       19     8  46    4.22   543.2    4.6      53.632
2014    8       19     8  52    4.22   543.3    4.5      53.624
2014    8       19     8  58    4.21   543.4    4.5      53.616
2014    8       19     9   3    4.21   543.5    4.5      53.607
2014    8       19     9   9    4.21   543.6    4.5      53.598
2014    8       19     9  15    4.20   543.6    4.5      53.589
2014    8       19     9  21    4.20   543.7    4.5      53.580
2014    8       19     9  27    4.20   543.8    4.5      53.570
2014    8       19     9  33    4.20   543.9    4.5      53.560
2014    8       19     9  39    4.19   544.0    4.5      53.549
2014    8       19     9  45    4.19   544.0    4.5      53.538
2014    8       19     9  50    4.19   544.1    4.5      53.526
2014    8       19     9  56    4.19   544.2    4.5      53.515
2014    8       19    10   2    4.18   544.2    4.5      53.502
2014    8       19    10   8    4.18   544.3    4.5      53.490
2014    8       19    10  14    4.18   544.4    4.5      53.477
2014    8       19    10  20    4.17   544.4    4.5      53.463
2014    8       19    10  26    4.17   544.5    4.5      53.449
2014    8       19    10  31    4.17   544.6    4.5      53.435
2014    8       19    10  37    4.16   544.6    4.5      53.420
2014    8       19    10  43    4.16   544.7    4.5      53.405
2014    8       19    10  49    4.16   544.7    4.5      53.389
2014    8       19    10  55    4.15   544.8    4.5      53.373
2014    8       19    11   1    4.15   544.8    4.5      53.357
2014    8       19    11   7    4.15   544.9    4.4      53.341
2014    8       19    11  13    4.15   544.9    4.4      53.324
2014    8       19    11  18    4.14   545.0    4.4      53.307
2014    8       19    11  24    4.14   545.0    4.4      53.290
2014    8       19    11  30    4.14   545.1    4.4      53.273
2014    8       19    11  36    4.13   545.1    4.4      53.255
2014    8       19    11  42    4.13   545.1    4.4      53.237
2014    8       19    11  48    4.13   545.2    4.4      53.218
2014    8       19    11  54    4.12   545.2    4.4      53.199
2014    8       19    11  59    4.12   545.3    4.4      53.179
2014    8       19    12   5    4.12   545.3    4.4      53.158
2014    8       19    12  11    4.11   545.3    4.4      53.137
2014    8       19    12  17    4.11   545.3    4.4      53.115
2014    8       19    12  23    4.11   545.4    4.4      53.092
2014    8       19    12  29    4.10   545.4    4.4      53.069
2014    8       19    12  35    4.10   545.4    4.4      53.045
2014    8       19    12  40    4.10   545.4    4.4      53.020
2014    8       19    12  46    4.09   545.5    4.4      52.995
2014    8       19    12  52    4.09   545.5    4.4      52.968
2014    8       19    12  58    4.09   545.5    4.4      52.941
2014    8       19    13   4    4.08   545.5    4.4      52.913
2014    8       19    13  10    4.08   545.5    4.4      52.885
2014    8       19    13  16    4.08   545.5    4.3      52.856
2014    8       19    13  21    4.07   545.6    4.3      52.825
2014    8       19    13  27    4.07   545.6    4.3      52.795
2014    8       19    13  33    4.07   545.6    4.3      52.764
2014    8       19    13  39    4.06   545.6    4.3      52.732
2014    8       19    13  45    4.06   545.6    4.3      52.699
2014    8       19    13  51    4.06   545.6    4.3      52.666
2014    8       19    13  57    4.05   545.6    4.3      52.632
2014    8       19    14   3    4.05   545.6    4.3      52.598
2014    8       19    14   8    4.05   545.6    4.3      52.563
2014    8       19    14  14    4.04   545.6    4.3      52.527
2014    8       19    14  20    4.04   545.6    4.3      52.491
2014    8       19    14  26    4.04   545.6    4.3      52.455
2014    8       19    14  32    4.03   545.6    4.3      52.418
2014    8       19    14  38    4.03   545.6    4.3      52.380
2014    8       19    14  44    4.03   545.6    4.3      52.342
2014    8       19    14  49    4.02   545.6    4.3      52.304
2014    8       19    14  55    4.02   545.6    4.3      52.266
2014    8       19    15   1    4.02   545.5    4.3      52.227
2014    8       19    15   7    4.01   545.5    4.3      52.188
2014    8       19    15  13    4.01   545.5    4.2      52.148
2014    8       19    15  19    4.01   545.5    4.2      52.109
2014    8       19    15  25    4.00   545.5    4.2      52.069
2014    8       19    15  30    4.00   545.5    4.2      52.029
2014    8       19    15  36    4.00   545.5    4.2      51.989
2014    8       19    15  42    3.99   545.4    4.2      51.949
2014    8       19    15  48    3.99   545.4    4.2      51.908
2014    8       19    15  54    3.99   545.4    4.2      51.867
2014    8       19    16   0    3.98   545.4    4.2      51.827
2014    8       19    16   6    3.98   545.4    4.2      51.786
2014    8       19    16  11    3.98   545.3    4.2      51.745
2014    8       19    16  17    3.97   545.3    4.2      51.705
2014    8       19    16  23    3.97   545.3    4.2      51.664
2014    8       19    16  29    3.97   545.3    4.2      51.623
2014    8       19    16  35    3.96   545.2    4.2      51.582
2014    8       19    16  41    3.96   545.2    4.2      51.542
2014    8       19    16  47    3.96   545.2    4.2      51.501
2014    8       19    16  53    3.95   545.1    4.2      51.460
2014    8       19    16  58    3.95   545.1    4.2      51.419
2014    8       19    17   4    3.95   545.1    4.2      51.379
2014    8       19    17  10    3.94   545.0    4.2      51.338
2014    8       19    17  16    3.94   545.0    4.2      51.297
2014    8       19    17  22    3.94   544.9    4.2      51.257
2014    8       19    17  28    3.93   544.9    4.2      51.216
2014    8       19    17  34    3.93   544.9    4.1      51.176
2014    8       19    17  39    3.93   544.8    4.1      51.136
2014    8       19    17  45    3.92   544.8    4.1      51.096
2014    8       19    17  51    3.92   544.7    4.1      51.055
2014    8       19    17  57    3.92   544.7    4.1      51.016
2014    8       19    18   3    3.91   544.6    4.1      50.976
2014    8       19    18   9    3.91   544.6    4.1      50.937
2014    8       19    18  15    3.91   544.5    4.1      50.897
2014    8       19    18  20    3.90   544.5    4.1      50.858
2014    8       19    18  26    3.90   544.4    4.1      50.820
2014    8       19    18  32    3.90   544.3    4.1      50.782
2014    8       19    18  38    3.89   544.3    4.1      50.745
2014    8       19    18  44    3.89   544.2    4.1      50.707
2014    8       19    18  50    3.89   544.1    4.1      50.670
2014    8       19    18  56    3.88   544.1    4.1      50.632
2014    8       19    19   2    3.88   544.0    4.1      50.594
2014    8       19    19   7    3.88   543.9    4.1      50.556
2014    8       19    19  13    3.87   543.9    4.1      50.517
2014    8       19    19  19    3.87   543.8    4.1      50.478
2014    8       19    19  25    3.87   543.7    4.1      50.439
2014    8       19    19  31    3.86   543.6    4.1      50.399
2014    8       19    19  37    3.86   543.5    4.1      50.358
2014    8       19    19  43    3.86   543.5    4.1      50.317
2014    8       19    19  48    3.85   543.4    4.1      50.276
2014    8       19    19  54    3.85   543.3    4.1      50.234
2014    8       19    20   0    3.85   543.2    4.1      50.191
2014    8       19    20   6    3.84   543.1    4.1      50.148
2014    8       19    20  12    3.84   543.0    4.1      50.104
2014    8       19    20  18    3.84   542.9    4.1      50.060
2014    8       19    20  24    3.83   542.8    4.1      50.015
2014    8       19    20  29    3.83   542.7    4.1      49.970
2014    8       19    20  35    3.83   542.7    4.1      49.924
2014    8       19    20  41    3.83   542.6    4.0      49.878
2014    8       19    20  47    3.82   542.5    4.0      49.831
2014    8       19    20  53    3.82   542.4    4.0      49.784
2014    8       19    20  59    3.82   542.3    4.0      49.737
2014    8       19    21   5    3.81   542.2    4.0      49.689
2014    8       19    21  11    3.81   542.1    4.0      49.640
2014    8       19    21  16    3.81   542.0    4.0      49.591
2014    8       19    21  22    3.80   541.9    4.0      49.542
2014    8       19    21  28    3.80   541.7    4.0      49.492
2014    8       19    21  34    3.80   541.6    4.0      49.442
2014    8       19    21  40    3.79   541.5    4.0      49.392
2014    8       19    21  46    3.79   541.4    4.0      49.341
2014    8       19    21  52    3.79   541.3    4.0      49.290
2014    8       19    21  57    3.79   541.2    4.0      49.238
2014    8       19    22   3    3.78   541.1    4.0      49.187
2014    8       19    22   9    3.78   541.0    4.0      49.135
2014    8       19    22  15    3.78   540.9    4.0      49.083
2014    8       19    22  21    3.77   540.8    4.0      49.030
2014    8       19    22  27    3.77   540.6    4.0      48.977
2014    8       19    22  33    3.77   540.5    4.0      48.924
2014    8       19    22  38    3.76   540.4    4.0      48.871
2014    8       19    22  44    3.76   540.3    4.0      48.818
2014    8       19    22  50    3.76   540.2    4.0      48.764
2014    8       19    22  56    3.75   540.1    4.0      48.710
2014    8       19    23   2    3.75   539.9    4.0      48.656
2014    8       19    23   8    3.75   539.8    4.0      48.602
2014    8       19    23  14    3.75   539.7    4.0      48.547
2014    8       19    23  19    3.74   539.6    4.0      48.493
2014    8       19    23  25    3.74   539.5    4.0      48.438
2014    8       19    23  31    3.74   539.3    4.0      48.383
2014    8       19    23  37    3.73   539.2    3.9      48.329
2014    8       19    23  43    3.73   539.1    3.9      48.274
2014    8       19    23  49    3.73   539.0    3.9      48.219
2014    8       19    23  55    3.72   538.8    3.9      48.165
2014    8       20     0   1    3.72   538.7    3.9      48.110
2014    8       20     0   6    3.72   538.6    3.9      48.056
2014    8       20     0  12    3.72   538.4    3.9      48.002
2014    8       20     0  18    3.71   538.3    3.9      47.948
2014    8       20     0  24    3.71   538.2    3.9      47.895
2014    8       20     0  30    3.71   538.0    3.9      47.842
2014    8       20     0  36    3.70   537.9    3.9      47.789
2014    8       20     0  42    3.70   537.7    3.9      47.738
2014    8       20     0  47    3.70   537.6    3.9      47.687
2014    8       20     0  53    3.70   537.5    3.9      47.636
2014    8       20     0  59    3.69   537.3    3.9      47.586
2014    8       20     1   5    3.69   537.2    3.9      47.537
2014    8       20     1  11    3.69   537.0    3.9      47.489
2014    8       20     1  17    3.68   536.9    3.9      47.442
2014    8       20     1  23    3.68   536.8    3.9      47.395
2014    8       20     1  28    3.68   536.6    3.9      47.350
2014    8       20     1  34    3.68   536.5    3.9      47.305
2014    8       20     1  40    3.67   536.3    3.9      47.261
2014    8       20     1  46    3.67   536.2    3.9      47.218
2014    8       20     1  52    3.67   536.0    3.9      47.177
2014    8       20     1  58    3.67   535.9    3.9      47.136
2014    8       20     2   4    3.66   535.8    3.9      47.096
2014    8       20     2  10    3.66   535.6    3.9      47.056
2014    8       20     2  15    3.66   535.5    3.9      47.017
2014    8       20     2  21    3.66   535.3    3.9      46.979
2014    8       20     2  27    3.65   535.2    3.9      46.940
2014    8       20     2  33    3.65   535.0    3.9      46.901
2014    8       20     2  39    3.65   534.9    3.9      46.862
2014    8       20     2  45    3.65   534.7    3.9      46.822
2014    8       20     2  51    3.64   534.6    3.9      46.783
2014    8       20     2  56    3.64   534.4    3.9      46.744
2014    8       20     3   2    3.64   534.3    3.9      46.704
2014    8       20     3   8    3.64   534.1    3.9      46.663
2014    8       20     3  14    3.63   534.0    3.9      46.623
2014    8       20     3  20    3.63   533.8    3.9      46.582
2014    8       20     3  26    3.63   533.7    3.9      46.540
2014    8       20     3  32    3.63   533.5    3.9      46.499
2014    8       20     3  37    3.62   533.3    3.9      46.456
2014    8       20     3  43    3.62   533.2    3.9      46.414
2014    8       20     3  49    3.62   533.0    3.9      46.371
2014    8       20     3  55    3.62   532.9    3.9      46.328
2014    8       20     4   1    3.61   532.7    3.9      46.285
2014    8       20     4   7    3.61   532.5    3.9      46.242
2014    8       20     4  13    3.61   532.4    3.9      46.198
2014    8       20     4  19    3.61   532.2    3.9      46.153
2014    8       20     4  24    3.60   532.1    3.9      46.109
2014    8       20     4  30    3.60   531.9    3.9      46.064
2014    8       20     4  36    3.60   531.7    3.9      46.019
2014    8       20     4  42    3.60   531.6    3.9      45.974
2014    8       20     4  48    3.59   531.4    3.9      45.928
2014    8       20     4  54    3.59   531.3    3.9      45.882
2014    8       20     5   0    3.59   531.1    3.9      45.836
2014    8       20     5   5    3.59   530.9    3.9      45.789
2014    8       20     5  11    3.58   530.8    3.9      45.742
2014    8       20     5  17    3.58   530.6    3.9      45.695
2014    8       20     5  23    3.58   530.4    3.9      45.647
2014    8       20     5  29    3.58   530.3    3.9      45.599
2014    8       20     5  35    3.58   530.1    3.9      45.551
2014    8       20     5  41    3.57   529.9    3.9      45.503
2014    8       20     5  46    3.57   529.7    3.9      45.455
2014    8       20     5  52    3.57   529.6    3.9      45.406
2014    8       20     5  58    3.57   529.4    3.9      45.356
2014    8       20     6   4    3.56   529.2    3.9      45.307
2014    8       20     6  10    3.56   529.1    3.9      45.258
2014    8       20     6  16    3.56   528.9    3.9      45.208
2014    8       20     6  22    3.56   528.7    3.9      45.157
2014    8       20     6  27    3.55   528.5    3.9      45.107
2014    8       20     6  33    3.55   528.4    3.9      45.056
2014    8       20     6  39    3.55   528.2    3.9      45.005
2014    8       20     6  45    3.55   528.0    3.9      44.954
2014    8       20     6  51    3.54   527.8    3.9      44.902
2014    8       20     6  57    3.54   527.7    3.9      44.850
2014    8       20     7   3    3.54   527.5    3.9      44.798
2014    8       20     7   9    3.54   527.3    3.9      44.745
2014    8       20     7  14    3.53   527.1    3.9      44.693
2014    8       20     7  20    3.53   526.9    3.9      44.640
2014    8       20     7  26    3.53   526.8    3.8      44.587
2014    8       20     7  32    3.53   526.6    3.8      44.533
2014    8       20     7  38    3.52   526.4    3.8      44.480
2014    8       20     7  44    3.52   526.2    3.8      44.427
2014    8       20     7  50    3.52   526.0    3.8      44.373
2014    8       20     7  55    3.52   525.8    3.8      44.320
2014    8       20     8   1    3.52   525.6    3.8      44.267
2014    8       20     8   7    3.51   525.5    3.8      44.214
2014    8       20     8  13    3.51   525.3    3.8      44.160
2014    8       20     8  19    3.51   525.1    3.8      44.108
2014    8       20     8  25    3.51   524.9    3.8      44.055
2014    8       20     8  31    3.50   524.7    3.8      44.002
2014    8       20     8  36    3.50   524.5    3.8      43.950
2014    8       20     8  42    3.50   524.3    3.8      43.899
2014    8       20     8  48    3.50   524.1    3.8      43.847
2014    8       20     8  54    3.50   523.9    3.8      43.796
2014    8       20     9   0    3.49   523.7    3.8      43.746
2014    8       20     9   6    3.49   523.5    3.8      43.695
2014    8       20     9  12    3.49   523.3    3.8      43.646
2014    8       20     9  18    3.49   523.2    3.8      43.596
2014    8       20     9  23    3.48   523.0    3.8      43.547
2014    8       20     9  29    3.48   522.8    3.8      43.499
2014    8       20     9  35    3.48   522.6    3.8      43.451
2014    8       20     9  41    3.48   522.4    3.8      43.403
2014    8       20     9  47    3.48   522.2    3.8      43.356
2014    8       20     9  53    3.47   522.0    3.8      43.309
2014    8       20     9  59    3.47   521.8    3.8      43.262
2014    8       20    10   4    3.47   521.6    3.8      43.215
2014    8       20    10  10    3.47   521.4    3.8      43.169
2014    8       20    10  16    3.47   521.2    3.8      43.123
2014    8       20    10  22    3.46   521.0    3.8      43.077
2014    8       20    10  28    3.46   520.8    3.8      43.031
2014    8       20    10  34    3.46   520.6    3.8      42.985
2014    8       20    10  40    3.46   520.4    3.8      42.939
2014    8       20    10  45    3.46   520.2    3.8      42.893
2014    8       20    10  51    3.45   520.0    3.8      42.847
2014    8       20    10  57    3.45   519.8    3.8      42.801
2014    8       20    11   3    3.45   519.6    3.8      42.755
2014    8       20    11   9    3.45   519.4    3.8      42.710
2014    8       20    11  15    3.45   519.2    3.8      42.664
2014    8       20    11  21    3.44   519.0    3.8      42.618
2014    8       20    11  27    3.44   518.8    3.8      42.573
2014    8       20    11  32    3.44   518.6    3.8      42.528
2014    8       20    11  38    3.44   518.4    3.8      42.482
2014    8       20    11  44    3.44   518.2    3.8      42.437
2014    8       20    11  50    3.43   517.9    3.8      42.392
2014    8       20    11  56    3.43   517.7    3.8      42.348
2014    8       20    12   2    3.43   517.5    3.8      42.303
2014    8       20    12   8    3.43   517.3    3.8      42.259
2014    8       20    12  13    3.43   517.1    3.8      42.215
2014    8       20    12  19    3.43   516.9    3.8      42.171
2014    8       20    12  25    3.42   516.7    3.8      42.127
2014    8       20    12  31    3.42   516.5    3.8      42.083
2014    8       20    12  37    3.42   516.3    3.8      42.039
2014    8       20    12  43    3.42   516.1    3.8      41.996
2014    8       20    12  49    3.42   515.8    3.8      41.952
2014    8       20    12  54    3.41   515.6    3.8      41.908
2014    8       20    13   0    3.41   515.4    3.8      41.865
2014    8       20    13   6    3.41   515.2    3.8      41.821
2014    8       20    13  12    3.41   515.0    3.8      41.777
2014    8       20    13  18    3.41   514.8    3.8      41.733
2014    8       20    13  24    3.41   514.6    3.8      41.689
2014    8       20    13  30    3.40   514.4    3.8      41.644
2014    8       20    13  35    3.40   514.2    3.8      41.599
2014    8       20    13  41    3.40   513.9    3.8      41.554
2014    8       20    13  47    3.40   513.7    3.8      41.509
2014    8       20    13  53    3.40   513.5    3.8      41.463
2014    8       20    13  59    3.39   513.3    3.8      41.417
2014    8       20    14   5    3.39   513.1    3.8      41.371
2014    8       20    14  11    3.39   512.9    3.8      41.325
2014    8       20    14  17    3.39   512.7    3.8      41.278
2014    8       20    14  22    3.39   512.4    3.8      41.232
2014    8       20    14  28    3.38   512.2    3.8      41.184
2014    8       20    14  34    3.38   512.0    3.8      41.137
2014    8       20    14  40    3.38   511.8    3.8      41.090
2014    8       20    14  46    3.38   511.6    3.8      41.042
2014    8       20    14  52    3.38   511.4    3.8      40.994
2014    8       20    14  58    3.38   511.1    3.8      40.946
2014    8       20    15   3    3.37   510.9    3.8      40.898
2014    8       20    15   9    3.37   510.7    3.8      40.849
2014    8       20    15  15    3.37   510.5    3.8      40.800
2014    8       20    15  21    3.37   510.3    3.8      40.751
2014    8       20    15  27    3.37   510.1    3.8      40.702
2014    8       20    15  33    3.36   509.8    3.8      40.652
2014    8       20    15  39    3.36   509.6    3.8      40.602
2014    8       20    15  44    3.36   509.4    3.8      40.552
2014    8       20    15  50    3.36   509.2    3.8      40.501
2014    8       20    15  56    3.36   509.0    3.8      40.451
2014    8       20    16   2    3.35   508.7    3.8      40.400
2014    8       20    16   8    3.35   508.5    3.8      40.349
2014    8       20    16  14    3.35   508.3    3.8      40.298
2014    8       20    16  20    3.35   508.1    3.8      40.246
2014    8       20    16  26    3.35   507.8    3.8      40.195
2014    8       20    16  31    3.35   507.6    3.8      40.143
2014    8       20    16  37    3.34   507.4    3.8      40.092
2014    8       20    16  43    3.34   507.2    3.8      40.040
2014    8       20    16  49    3.34   506.9    3.8      39.988
2014    8       20    16  55    3.34   506.7    3.8      39.936
2014    8       20    17   1    3.34   506.5    3.8      39.884
2014    8       20    17   7    3.33   506.3    3.8      39.832
2014    8       20    17  12    3.33   506.0    3.8      39.780
2014    8       20    17  18    3.33   505.8    3.8      39.728
2014    8       20    17  24    3.33   505.6    3.8      39.676
2014    8       20    17  30    3.33   505.4    3.8      39.623
2014    8       20    17  36    3.33   505.1    3.8      39.571
2014    8       20    17  42    3.32   504.9    3.8      39.519
2014    8       20    17  48    3.32   504.7    3.8      39.467
2014    8       20    17  53    3.32   504.4    3.8      39.415
2014    8       20    17  59    3.32   504.2    3.8      39.363
2014    8       20    18   5    3.32   504.0    3.8      39.312
2014    8       20    18  11    3.31   503.7    3.8      39.260
2014    8       20    18  17    3.31   503.5    3.8      39.209
2014    8       20    18  23    3.31   503.3    3.8      39.157
2014    8       20    18  29    3.31   503.0    3.8      39.106
2014    8       20    18  35    3.31   502.8    3.8      39.056
2014    8       20    18  40    3.31   502.5    3.8      39.005
2014    8       20    18  46    3.30   502.3    3.8      38.955
2014    8       20    18  52    3.30   502.1    3.8      38.906
2014    8       20    18  58    3.30   501.8    3.8      38.856
2014    8       20    19   4    3.30   501.6    3.8      38.807
2014    8       20    19  10    3.30   501.3    3.8      38.758
2014    8       20    19  16    3.30   501.1    3.8      38.709
2014    8       20    19  21    3.29   500.9    3.8      38.661
2014    8       20    19  27    3.29   500.6    3.8      38.614
2014    8       20    19  33    3.29   500.4    3.8      38.566
2014    8       20    19  39    3.29   500.1    3.8      38.519
2014    8       20    19  45    3.29   499.9    3.8      38.472
2014    8       20    19  51    3.29   499.7    3.8      38.426
2014    8       20    19  57    3.29   499.4    3.8      38.379
2014    8       20    20   2    3.28   499.2    3.8      38.334
2014    8       20    20   8    3.28   498.9    3.8      38.288
2014    8       20    20  14    3.28   498.7    3.8      38.243
2014    8       20    20  20    3.28   498.5    3.8      38.198
2014    8       20    20  26    3.28   498.2    3.8      38.153
2014    8       20    20  32    3.28   498.0    3.8      38.109
2014    8       20    20  38    3.27   497.7    3.8      38.065
2014    8       20    20  43    3.27   497.5    3.8      38.020
2014    8       20    20  49    3.27   497.2    3.8      37.976
2014    8       20    20  55    3.27   497.0    3.8      37.932
2014    8       20    21   1    3.27   496.7    3.8      37.888
2014    8       20    21   7    3.27   496.5    3.8      37.845
2014    8       20    21  13    3.27   496.2    3.8      37.801
2014    8       20    21  19    3.26   496.0    3.8      37.758
2014    8       20    21  24    3.26   495.7    3.8      37.715
2014    8       20    21  30    3.26   495.5    3.8      37.672
2014    8       20    21  36    3.26   495.2    3.8      37.629
2014    8       20    21  42    3.26   495.0    3.8      37.587
2014    8       20    21  48    3.26   494.7    3.8      37.545
2014    8       20    21  54    3.26   494.5    3.8      37.503
2014    8       20    22   0    3.25   494.2    3.8      37.461
2014    8       20    22   6    3.25   494.0    3.8      37.419
2014    8       20    22  11    3.25   493.7    3.8      37.378
2014    8       20    22  17    3.25   493.5    3.8      37.337
2014    8       20    22  23    3.25   493.2    3.8      37.296
2014    8       20    22  29    3.25   493.0    3.8      37.255
2014    8       20    22  35    3.25   492.7    3.8      37.214
2014    8       20    22  41    3.25   492.5    3.8      37.173
2014    8       20    22  47    3.24   492.2    3.8      37.133
2014    8       20    22  52    3.24   492.0    3.8      37.092
2014    8       20    22  58    3.24   491.7    3.8      37.051
2014    8       20    23   4    3.24   491.5    3.8      37.010
2014    8       20    23  10    3.24   491.2    3.8      36.969
2014    8       20    23  16    3.24   491.0    3.8      36.928
2014    8       20    23  22    3.24   490.7    3.8      36.887
2014    8       20    23  28    3.23   490.4    3.8      36.846
2014    8       20    23  34    3.23   490.2    3.8      36.804
2014    8       20    23  39    3.23   489.9    3.8      36.763
2014    8       20    23  45    3.23   489.7    3.8      36.721
2014    8       20    23  51    3.23   489.4    3.8      36.679
2014    8       20    23  57    3.23   489.1    3.8      36.637
2014    8       21     0   3    3.23   488.9    3.8      36.595
