year    month   day   hour  minute  B_enl V_enl   n_enl       T_enl
[year] [month] [day] [hour][minute] [nT]  [km/s]  [cm-3]      [kK]
2014    8       25     0   1    4.91   382.2    8.7      32.649
2014    8       25     0   7    4.91   382.2    8.7      32.664
2014    8       25     0  13    4.92   382.2    8.8      32.680
2014    8       25     0  19    4.92   382.3    8.8      32.697
2014    8       25     0  25    4.92   382.3    8.8      32.715
2014    8       25     0  31    4.93   382.3    8.8      32.735
2014    8       25     0  37    4.93   382.4    8.8      32.755
2014    8       25     0  43    4.94   382.4    8.8      32.777
2014    8       25     0  49    4.94   382.4    8.8      32.800
2014    8       25     0  55    4.95   382.5    8.8      32.825
2014    8       25     1   1    4.95   382.5    8.8      32.852
2014    8       25     1   7    4.95   382.6    8.9      32.882
2014    8       25     1  13    4.96   382.6    8.9      32.914
2014    8       25     1  19    4.96   382.7    8.9      32.948
2014    8       25     1  25    4.97   382.8    8.9      32.985
2014    8       25     1  31    4.97   382.8    8.9      33.026
2014    8       25     1  37    4.98   382.9    8.9      33.069
2014    8       25     1  43    4.98   383.0    8.9      33.113
2014    8       25     1  49    4.99   383.1    9.0      33.160
2014    8       25     1  55    4.99   383.1    9.0      33.207
2014    8       25     2   1    5.00   383.2    9.0      33.255
2014    8       25     2   7    5.00   383.3    9.0      33.303
2014    8       25     2  13    5.00   383.4    9.0      33.352
2014    8       25     2  19    5.01   383.4    9.0      33.399
2014    8       25     2  25    5.01   383.5    9.0      33.445
2014    8       25     2  31    5.02   383.6    9.0      33.491
2014    8       25     2  37    5.02   383.7    9.0      33.536
2014    8       25     2  43    5.03   383.8    9.1      33.580
2014    8       25     2  49    5.03   383.9    9.1      33.623
2014    8       25     2  55    5.03   383.9    9.1      33.665
2014    8       25     3   1    5.04   384.0    9.1      33.706
2014    8       25     3   7    5.04   384.1    9.1      33.747
2014    8       25     3  13    5.05   384.2    9.1      33.786
2014    8       25     3  19    5.05   384.3    9.1      33.825
2014    8       25     3  25    5.05   384.4    9.1      33.863
2014    8       25     3  31    5.06   384.5    9.1      33.900
2014    8       25     3  37    5.06   384.5    9.1      33.936
2014    8       25     3  43    5.07   384.6    9.1      33.972
2014    8       25     3  49    5.07   384.7    9.1      34.007
2014    8       25     3  55    5.07   384.8    9.1      34.041
2014    8       25     4   1    5.08   384.9    9.1      34.075
2014    8       25     4   7    5.08   385.0    9.1      34.108
2014    8       25     4  13    5.08   385.1    9.1      34.141
2014    8       25     4  19    5.09   385.2    9.1      34.172
2014    8       25     4  25    5.09   385.3    9.1      34.204
2014    8       25     4  31    5.10   385.4    9.2      34.235
2014    8       25     4  37    5.10   385.5    9.2      34.265
2014    8       25     4  43    5.10   385.6    9.2      34.295
2014    8       25     4  49    5.11   385.7    9.2      34.324
2014    8       25     4  55    5.11   385.8    9.2      34.353
2014    8       25     5   1    5.11   385.9    9.2      34.381
2014    8       25     5   7    5.12   386.0    9.2      34.409
2014    8       25     5  13    5.12   386.1    9.2      34.437
2014    8       25     5  19    5.13   386.1    9.2      34.464
2014    8       25     5  25    5.13   386.2    9.2      34.490
2014    8       25     5  31    5.13   386.3    9.2      34.516
2014    8       25     5  37    5.14   386.4    9.2      34.542
2014    8       25     5  43    5.14   386.5    9.2      34.567
2014    8       25     5  49    5.14   386.6    9.2      34.592
2014    8       25     5  55    5.15   386.7    9.2      34.617
2014    8       25     6   1    5.15   386.8    9.2      34.641
2014    8       25     6   7    5.15   386.9    9.2      34.665
2014    8       25     6  13    5.16   387.0    9.2      34.689
2014    8       25     6  19    5.16   387.1    9.2      34.712
2014    8       25     6  25    5.16   387.2    9.2      34.736
2014    8       25     6  31    5.17   387.3    9.2      34.759
2014    8       25     6  37    5.17   387.4    9.2      34.782
2014    8       25     6  43    5.17   387.5    9.2      34.805
2014    8       25     6  49    5.18   387.6    9.2      34.828
2014    8       25     6  55    5.18   387.7    9.2      34.850
2014    8       25     7   1    5.18   387.8    9.2      34.873
2014    8       25     7   7    5.19   387.9    9.2      34.896
2014    8       25     7  13    5.19   388.0    9.2      34.919
2014    8       25     7  19    5.19   388.1    9.2      34.942
2014    8       25     7  25    5.20   388.2    9.2      34.965
2014    8       25     7  31    5.20   388.3    9.2      34.989
2014    8       25     7  37    5.20   388.4    9.2      35.013
2014    8       25     7  43    5.21   388.5    9.2      35.036
2014    8       25     7  49    5.21   388.6    9.2      35.060
2014    8       25     7  55    5.22   388.7    9.2      35.085
2014    8       25     8   1    5.22   388.8    9.2      35.109
2014    8       25     8   7    5.22   388.9    9.2      35.135
2014    8       25     8  13    5.23   389.0    9.2      35.161
2014    8       25     8  19    5.23   389.1    9.2      35.187
2014    8       25     8  25    5.23   389.2    9.2      35.214
2014    8       25     8  31    5.24   389.3    9.2      35.242
2014    8       25     8  36    5.24   389.4    9.3      35.271
2014    8       25     8  42    5.24   389.5    9.3      35.301
2014    8       25     8  48    5.25   389.6    9.3      35.332
2014    8       25     8  54    5.25   389.8    9.3      35.365
2014    8       25     9   0    5.25   389.9    9.3      35.399
2014    8       25     9   6    5.26   390.0    9.3      35.434
2014    8       25     9  12    5.26   390.1    9.3      35.471
2014    8       25     9  18    5.27   390.2    9.3      35.508
2014    8       25     9  24    5.27   390.3    9.3      35.546
2014    8       25     9  30    5.27   390.4    9.3      35.584
2014    8       25     9  36    5.28   390.6    9.3      35.623
2014    8       25     9  42    5.28   390.7    9.3      35.660
2014    8       25     9  48    5.28   390.8    9.3      35.697
2014    8       25     9  54    5.29   390.9    9.3      35.734
2014    8       25    10   0    5.29   391.0    9.3      35.771
2014    8       25    10   6    5.29   391.1    9.3      35.807
2014    8       25    10  12    5.30   391.3    9.3      35.844
2014    8       25    10  18    5.30   391.4    9.3      35.880
2014    8       25    10  24    5.30   391.5    9.3      35.915
2014    8       25    10  30    5.31   391.6    9.3      35.951
2014    8       25    10  36    5.31   391.7    9.3      35.986
2014    8       25    10  42    5.31   391.9    9.3      36.020
2014    8       25    10  48    5.32   392.0    9.3      36.055
2014    8       25    10  54    5.32   392.1    9.3      36.089
2014    8       25    11   0    5.32   392.2    9.3      36.124
2014    8       25    11   6    5.33   392.3    9.3      36.158
2014    8       25    11  12    5.33   392.5    9.3      36.192
2014    8       25    11  18    5.33   392.6    9.4      36.226
2014    8       25    11  24    5.34   392.7    9.4      36.260
2014    8       25    11  30    5.34   392.8    9.4      36.294
2014    8       25    11  36    5.34   392.9    9.4      36.328
2014    8       25    11  42    5.35   393.1    9.4      36.362
2014    8       25    11  48    5.35   393.2    9.4      36.396
2014    8       25    11  54    5.35   393.3    9.4      36.431
2014    8       25    12   0    5.36   393.5    9.4      36.466
2014    8       25    12   6    5.36   393.6    9.4      36.501
2014    8       25    12  12    5.36   393.7    9.4      36.537
2014    8       25    12  18    5.37   393.9    9.4      36.573
2014    8       25    12  24    5.37   394.0    9.4      36.610
2014    8       25    12  30    5.37   394.1    9.4      36.646
2014    8       25    12  36    5.38   394.3    9.4      36.682
2014    8       25    12  42    5.38   394.4    9.4      36.718
2014    8       25    12  48    5.38   394.6    9.4      36.755
2014    8       25    12  54    5.39   394.7    9.4      36.792
2014    8       25    13   0    5.39   394.8    9.4      36.830
2014    8       25    13   6    5.40   395.0    9.4      36.868
2014    8       25    13  12    5.40   395.1    9.4      36.907
2014    8       25    13  18    5.40   395.3    9.4      36.946
2014    8       25    13  24    5.40   395.5    9.4      36.985
2014    8       25    13  30    5.41   395.6    9.4      37.023
2014    8       25    13  36    5.41   395.8    9.4      37.061
2014    8       25    13  42    5.41   395.9    9.4      37.098
2014    8       25    13  48    5.42   396.1    9.4      37.135
2014    8       25    13  54    5.42   396.2    9.4      37.170
2014    8       25    14   0    5.42   396.4    9.4      37.205
2014    8       25    14   6    5.42   396.5    9.4      37.239
2014    8       25    14  12    5.43   396.7    9.4      37.272
2014    8       25    14  18    5.43   396.8    9.4      37.304
2014    8       25    14  24    5.43   397.0    9.4      37.336
2014    8       25    14  30    5.43   397.1    9.4      37.366
2014    8       25    14  36    5.44   397.3    9.4      37.396
2014    8       25    14  42    5.44   397.4    9.4      37.425
2014    8       25    14  48    5.44   397.6    9.4      37.454
2014    8       25    14  54    5.44   397.7    9.4      37.481
2014    8       25    15   0    5.45   397.9    9.4      37.508
2014    8       25    15   6    5.45   398.0    9.4      37.535
2014    8       25    15  12    5.45   398.2    9.4      37.561
2014    8       25    15  18    5.45   398.3    9.4      37.586
2014    8       25    15  24    5.46   398.5    9.4      37.610
2014    8       25    15  30    5.46   398.6    9.4      37.634
2014    8       25    15  36    5.46   398.8    9.4      37.658
2014    8       25    15  42    5.46   398.9    9.4      37.681
2014    8       25    15  48    5.46   399.1    9.4      37.703
2014    8       25    15  54    5.47   399.2    9.3      37.725
2014    8       25    16   0    5.47   399.4    9.3      37.747
2014    8       25    16   6    5.47   399.5    9.3      37.768
2014    8       25    16  12    5.47   399.6    9.3      37.789
2014    8       25    16  18    5.47   399.8    9.3      37.809
2014    8       25    16  24    5.48   399.9    9.3      37.829
2014    8       25    16  30    5.48   400.1    9.3      37.849
2014    8       25    16  36    5.48   400.2    9.3      37.868
2014    8       25    16  42    5.48   400.3    9.3      37.887
2014    8       25    16  48    5.48   400.5    9.3      37.906
2014    8       25    16  54    5.49   400.6    9.3      37.924
2014    8       25    17   0    5.49   400.8    9.3      37.942
2014    8       25    17   6    5.49   400.9    9.3      37.960
2014    8       25    17  12    5.49   401.0    9.3      37.978
2014    8       25    17  18    5.49   401.2    9.3      37.996
2014    8       25    17  24    5.50   401.3    9.3      38.013
2014    8       25    17  30    5.50   401.5    9.3      38.031
2014    8       25    17  36    5.50   401.6    9.3      38.048
2014    8       25    17  42    5.50   401.7    9.3      38.065
2014    8       25    17  48    5.50   401.9    9.3      38.082
2014    8       25    17  54    5.51   402.0    9.3      38.099
2014    8       25    18   0    5.51   402.1    9.3      38.115
2014    8       25    18   6    5.51   402.3    9.3      38.132
2014    8       25    18  12    5.51   402.4    9.2      38.149
2014    8       25    18  18    5.51   402.5    9.2      38.166
2014    8       25    18  24    5.52   402.7    9.2      38.182
2014    8       25    18  30    5.52   402.8    9.2      38.199
2014    8       25    18  36    5.52   402.9    9.2      38.216
2014    8       25    18  42    5.52   403.1    9.2      38.233
2014    8       25    18  48    5.53   403.2    9.2      38.249
2014    8       25    18  53    5.53   403.3    9.2      38.266
2014    8       25    18  59    5.53   403.4    9.2      38.284
2014    8       25    19   5    5.53   403.6    9.2      38.301
2014    8       25    19  11    5.53   403.7    9.2      38.319
2014    8       25    19  17    5.54   403.8    9.2      38.338
2014    8       25    19  23    5.54   404.0    9.2      38.357
2014    8       25    19  29    5.54   404.1    9.2      38.377
2014    8       25    19  35    5.54   404.2    9.2      38.397
2014    8       25    19  41    5.55   404.4    9.2      38.417
2014    8       25    19  47    5.55   404.5    9.2      38.438
2014    8       25    19  53    5.55   404.6    9.2      38.459
2014    8       25    19  59    5.55   404.8    9.2      38.479
2014    8       25    20   5    5.56   404.9    9.2      38.501
2014    8       25    20  11    5.56   405.0    9.2      38.524
2014    8       25    20  17    5.56   405.2    9.2      38.547
2014    8       25    20  23    5.56   405.3    9.2      38.571
2014    8       25    20  29    5.57   405.4    9.2      38.596
2014    8       25    20  35    5.57   405.6    9.2      38.622
2014    8       25    20  41    5.57   405.7    9.2      38.648
2014    8       25    20  47    5.57   405.9    9.2      38.674
2014    8       25    20  53    5.58   406.0    9.2      38.700
2014    8       25    20  59    5.58   406.1    9.2      38.725
2014    8       25    21   5    5.58   406.3    9.2      38.751
2014    8       25    21  11    5.58   406.4    9.2      38.776
2014    8       25    21  17    5.59   406.6    9.2      38.800
2014    8       25    21  23    5.59   406.7    9.2      38.825
2014    8       25    21  29    5.59   406.9    9.2      38.848
2014    8       25    21  35    5.59   407.0    9.2      38.871
2014    8       25    21  41    5.59   407.2    9.2      38.893
2014    8       25    21  47    5.60   407.3    9.2      38.914
2014    8       25    21  53    5.60   407.5    9.2      38.935
2014    8       25    21  59    5.60   407.6    9.2      38.955
2014    8       25    22   5    5.60   407.8    9.2      38.973
2014    8       25    22  11    5.60   407.9    9.2      38.992
2014    8       25    22  17    5.61   408.1    9.2      39.009
2014    8       25    22  23    5.61   408.2    9.2      39.026
2014    8       25    22  29    5.61   408.4    9.1      39.042
2014    8       25    22  35    5.61   408.5    9.1      39.057
2014    8       25    22  41    5.61   408.7    9.1      39.072
2014    8       25    22  47    5.61   408.8    9.1      39.086
2014    8       25    22  53    5.62   408.9    9.1      39.099
2014    8       25    22  59    5.62   409.1    9.1      39.112
2014    8       25    23   5    5.62   409.2    9.1      39.125
2014    8       25    23  11    5.62   409.4    9.1      39.136
2014    8       25    23  17    5.62   409.5    9.1      39.148
2014    8       25    23  23    5.62   409.7    9.1      39.158
2014    8       25    23  29    5.63   409.8    9.1      39.169
2014    8       25    23  35    5.63   410.0    9.1      39.179
2014    8       25    23  41    5.63   410.1    9.1      39.188
2014    8       25    23  47    5.63   410.2    9.1      39.197
2014    8       25    23  53    5.63   410.4    9.0      39.206
2014    8       25    23  59    5.63   410.5    9.0      39.214
2014    8       26     0   5    5.63   410.7    9.0      39.222
2014    8       26     0  11    5.64   410.8    9.0      39.229
2014    8       26     0  17    5.64   410.9    9.0      39.237
2014    8       26     0  23    5.64   411.1    9.0      39.244
2014    8       26     0  29    5.64   411.2    9.0      39.250
2014    8       26     0  35    5.64   411.3    9.0      39.257
2014    8       26     0  41    5.64   411.5    9.0      39.263
2014    8       26     0  47    5.64   411.6    9.0      39.269
2014    8       26     0  53    5.65   411.7    9.0      39.274
2014    8       26     0  59    5.65   411.9    9.0      39.280
2014    8       26     1   5    5.65   412.0    9.0      39.285
2014    8       26     1  11    5.65   412.1    8.9      39.290
2014    8       26     1  17    5.65   412.3    8.9      39.294
2014    8       26     1  23    5.65   412.4    8.9      39.299
2014    8       26     1  29    5.66   412.5    8.9      39.303
2014    8       26     1  35    5.66   412.7    8.9      39.307
2014    8       26     1  41    5.66   412.8    8.9      39.311
2014    8       26     1  47    5.66   412.9    8.9      39.314
2014    8       26     1  53    5.66   413.1    8.9      39.318
2014    8       26     1  59    5.66   413.2    8.9      39.321
2014    8       26     2   5    5.66   413.3    8.9      39.324
2014    8       26     2  11    5.67   413.4    8.9      39.327
2014    8       26     2  17    5.67   413.6    8.9      39.329
2014    8       26     2  23    5.67   413.7    8.9      39.331
2014    8       26     2  29    5.67   413.8    8.8      39.333
2014    8       26     2  35    5.67   413.9    8.8      39.335
2014    8       26     2  41    5.67   414.0    8.8      39.337
2014    8       26     2  47    5.68   414.2    8.8      39.338
2014    8       26     2  53    5.68   414.3    8.8      39.340
2014    8       26     2  59    5.68   414.4    8.8      39.341
2014    8       26     3   5    5.68   414.5    8.8      39.342
2014    8       26     3  11    5.68   414.6    8.8      39.342
2014    8       26     3  17    5.68   414.7    8.8      39.343
2014    8       26     3  23    5.68   414.9    8.8      39.343
2014    8       26     3  29    5.69   415.0    8.8      39.344
2014    8       26     3  35    5.69   415.1    8.8      39.345
2014    8       26     3  41    5.69   415.2    8.8      39.345
2014    8       26     3  47    5.69   415.3    8.8      39.346
2014    8       26     3  53    5.69   415.4    8.7      39.346
2014    8       26     3  59    5.69   415.5    8.7      39.347
2014    8       26     4   5    5.70   415.6    8.7      39.348
2014    8       26     4  11    5.70   415.7    8.7      39.350
2014    8       26     4  17    5.70   415.8    8.7      39.352
2014    8       26     4  23    5.70   415.9    8.7      39.354
2014    8       26     4  28    5.70   416.0    8.7      39.357
2014    8       26     4  34    5.71   416.1    8.7      39.360
2014    8       26     4  40    5.71   416.2    8.7      39.363
2014    8       26     4  46    5.71   416.3    8.7      39.367
2014    8       26     4  52    5.71   416.4    8.7      39.371
2014    8       26     4  58    5.71   416.5    8.7      39.375
2014    8       26     5   4    5.72   416.6    8.7      39.380
2014    8       26     5  10    5.72   416.7    8.7      39.384
2014    8       26     5  16    5.72   416.8    8.7      39.389
2014    8       26     5  22    5.72   416.9    8.7      39.395
2014    8       26     5  28    5.73   417.0    8.7      39.401
2014    8       26     5  34    5.73   417.1    8.7      39.407
2014    8       26     5  40    5.73   417.2    8.7      39.413
2014    8       26     5  46    5.73   417.3    8.7      39.420
2014    8       26     5  52    5.73   417.4    8.7      39.428
2014    8       26     5  58    5.74   417.5    8.7      39.435
2014    8       26     6   4    5.74   417.6    8.7      39.444
2014    8       26     6  10    5.74   417.7    8.7      39.453
2014    8       26     6  16    5.74   417.8    8.7      39.463
2014    8       26     6  22    5.75   417.9    8.7      39.474
2014    8       26     6  28    5.75   418.0    8.7      39.487
2014    8       26     6  34    5.75   418.2    8.7      39.502
2014    8       26     6  40    5.75   418.3    8.7      39.518
2014    8       26     6  46    5.76   418.4    8.7      39.535
2014    8       26     6  52    5.76   418.5    8.7      39.552
2014    8       26     6  58    5.76   418.6    8.7      39.570
2014    8       26     7   4    5.76   418.7    8.7      39.588
2014    8       26     7  10    5.77   418.8    8.7      39.606
2014    8       26     7  16    5.77   418.9    8.7      39.623
2014    8       26     7  22    5.77   419.0    8.7      39.640
2014    8       26     7  28    5.77   419.1    8.7      39.657
2014    8       26     7  34    5.78   419.2    8.7      39.673
2014    8       26     7  40    5.78   419.3    8.7      39.690
2014    8       26     7  46    5.78   419.4    8.6      39.705
2014    8       26     7  52    5.79   419.5    8.6      39.721
2014    8       26     7  58    5.79   419.6    8.6      39.736
2014    8       26     8   4    5.79   419.7    8.6      39.751
2014    8       26     8  10    5.79   419.8    8.6      39.765
2014    8       26     8  16    5.80   419.9    8.6      39.779
2014    8       26     8  22    5.80   420.0    8.6      39.793
2014    8       26     8  28    5.80   420.1    8.6      39.806
2014    8       26     8  34    5.80   420.2    8.6      39.820
2014    8       26     8  40    5.81   420.3    8.6      39.833
2014    8       26     8  46    5.81   420.4    8.6      39.846
2014    8       26     8  52    5.81   420.5    8.6      39.859
2014    8       26     8  58    5.81   420.6    8.6      39.872
2014    8       26     9   4    5.82   420.7    8.6      39.884
2014    8       26     9  10    5.82   420.8    8.6      39.897
2014    8       26     9  16    5.82   420.9    8.6      39.909
2014    8       26     9  22    5.83   421.0    8.6      39.921
2014    8       26     9  28    5.83   421.1    8.6      39.933
2014    8       26     9  34    5.83   421.2    8.6      39.946
2014    8       26     9  40    5.83   421.3    8.6      39.958
2014    8       26     9  46    5.84   421.4    8.6      39.970
2014    8       26     9  52    5.84   421.5    8.6      39.982
2014    8       26     9  58    5.84   421.6    8.6      39.995
2014    8       26    10   4    5.85   421.7    8.6      40.007
2014    8       26    10  10    5.85   421.8    8.6      40.020
2014    8       26    10  16    5.85   421.9    8.6      40.033
2014    8       26    10  22    5.86   422.0    8.6      40.046
2014    8       26    10  28    5.86   422.1    8.6      40.059
2014    8       26    10  34    5.86   422.2    8.6      40.073
2014    8       26    10  40    5.87   422.3    8.6      40.087
2014    8       26    10  46    5.87   422.4    8.6      40.102
2014    8       26    10  52    5.87   422.5    8.6      40.117
2014    8       26    10  58    5.88   422.6    8.6      40.132
2014    8       26    11   4    5.88   422.7    8.5      40.148
2014    8       26    11  10    5.88   422.8    8.5      40.165
2014    8       26    11  16    5.89   422.9    8.5      40.182
2014    8       26    11  22    5.89   423.0    8.5      40.200
2014    8       26    11  28    5.89   423.1    8.5      40.219
2014    8       26    11  34    5.90   423.2    8.5      40.239
2014    8       26    11  39    5.90   423.3    8.6      40.259
2014    8       26    11  45    5.90   423.4    8.6      40.281
2014    8       26    11  51    5.91   423.5    8.6      40.304
2014    8       26    11  57    5.91   423.6    8.6      40.327
2014    8       26    12   3    5.91   423.7    8.6      40.351
2014    8       26    12   9    5.92   423.8    8.6      40.377
2014    8       26    12  15    5.92   423.9    8.6      40.404
2014    8       26    12  21    5.93   424.0    8.6      40.433
2014    8       26    12  27    5.93   424.1    8.6      40.465
2014    8       26    12  33    5.93   424.2    8.6      40.499
2014    8       26    12  39    5.94   424.3    8.6      40.536
2014    8       26    12  45    5.94   424.5    8.6      40.575
2014    8       26    12  51    5.95   424.6    8.6      40.616
2014    8       26    12  57    5.95   424.7    8.6      40.658
2014    8       26    13   3    5.96   424.9    8.6      40.701
2014    8       26    13   9    5.96   425.0    8.6      40.744
2014    8       26    13  15    5.96   425.1    8.6      40.788
2014    8       26    13  21    5.97   425.2    8.6      40.832
2014    8       26    13  27    5.97   425.4    8.6      40.877
2014    8       26    13  33    5.98   425.5    8.7      40.923
2014    8       26    13  39    5.98   425.6    8.7      40.971
2014    8       26    13  45    5.99   425.8    8.7      41.020
2014    8       26    13  51    5.99   425.9    8.7      41.070
2014    8       26    13  57    5.99   426.1    8.7      41.122
2014    8       26    14   3    6.00   426.2    8.7      41.173
2014    8       26    14   9    6.00   426.4    8.7      41.226
2014    8       26    14  15    6.01   426.5    8.7      41.279
2014    8       26    14  21    6.01   426.6    8.7      41.331
2014    8       26    14  27    6.02   426.8    8.7      41.384
2014    8       26    14  33    6.02   426.9    8.7      41.436
2014    8       26    14  39    6.02   427.1    8.7      41.488
2014    8       26    14  45    6.03   427.2    8.7      41.540
2014    8       26    14  51    6.03   427.4    8.7      41.592
2014    8       26    14  57    6.04   427.6    8.7      41.643
2014    8       26    15   3    6.04   427.7    8.7      41.694
2014    8       26    15   9    6.05   427.9    8.7      41.744
2014    8       26    15  15    6.05   428.0    8.7      41.793
2014    8       26    15  21    6.05   428.2    8.7      41.842
2014    8       26    15  27    6.06   428.3    8.7      41.891
2014    8       26    15  33    6.06   428.5    8.7      41.939
2014    8       26    15  39    6.07   428.6    8.7      41.986
2014    8       26    15  45    6.07   428.8    8.7      42.033
2014    8       26    15  51    6.08   429.0    8.7      42.080
2014    8       26    15  57    6.08   429.1    8.7      42.126
2014    8       26    16   3    6.08   429.3    8.7      42.172
2014    8       26    16   9    6.09   429.4    8.7      42.218
2014    8       26    16  15    6.09   429.6    8.7      42.263
2014    8       26    16  21    6.10   429.8    8.7      42.308
2014    8       26    16  27    6.10   429.9    8.7      42.353
2014    8       26    16  33    6.11   430.1    8.7      42.398
2014    8       26    16  39    6.11   430.2    8.7      42.443
2014    8       26    16  45    6.12   430.4    8.7      42.487
2014    8       26    16  51    6.12   430.6    8.7      42.531
2014    8       26    16  57    6.12   430.7    8.7      42.575
2014    8       26    17   3    6.13   430.9    8.7      42.620
2014    8       26    17   9    6.13   431.0    8.7      42.664
2014    8       26    17  15    6.14   431.2    8.7      42.708
2014    8       26    17  21    6.14   431.4    8.7      42.752
2014    8       26    17  27    6.15   431.5    8.7      42.796
2014    8       26    17  33    6.15   431.7    8.7      42.840
2014    8       26    17  39    6.16   431.9    8.7      42.884
2014    8       26    17  45    6.16   432.0    8.7      42.929
2014    8       26    17  51    6.17   432.2    8.7      42.973
2014    8       26    17  57    6.17   432.4    8.7      43.018
2014    8       26    18   3    6.18   432.6    8.7      43.063
2014    8       26    18   9    6.18   432.7    8.7      43.108
2014    8       26    18  15    6.19   432.9    8.7      43.154
2014    8       26    18  21    6.19   433.1    8.7      43.199
2014    8       26    18  27    6.20   433.3    8.7      43.245
2014    8       26    18  33    6.20   433.4    8.7      43.292
2014    8       26    18  39    6.21   433.6    8.7      43.339
2014    8       26    18  45    6.21   433.8    8.7      43.386
2014    8       26    18  50    6.21   434.0    8.7      43.433
2014    8       26    18  56    6.22   434.1    8.7      43.481
2014    8       26    19   2    6.22   434.3    8.7      43.530
2014    8       26    19   8    6.23   434.5    8.8      43.579
2014    8       26    19  14    6.23   434.7    8.8      43.628
2014    8       26    19  20    6.24   434.9    8.8      43.677
2014    8       26    19  26    6.24   435.1    8.8      43.727
2014    8       26    19  32    6.25   435.2    8.8      43.777
2014    8       26    19  38    6.25   435.4    8.8      43.830
2014    8       26    19  44    6.26   435.6    8.8      43.884
2014    8       26    19  50    6.26   435.8    8.8      43.939
2014    8       26    19  56    6.27   436.0    8.8      43.997
2014    8       26    20   2    6.27   436.2    8.8      44.056
2014    8       26    20   8    6.28   436.4    8.8      44.116
2014    8       26    20  14    6.28   436.6    8.8      44.177
2014    8       26    20  20    6.28   436.8    8.8      44.239
2014    8       26    20  26    6.29   437.0    8.8      44.299
2014    8       26    20  32    6.29   437.2    8.8      44.360
2014    8       26    20  38    6.30   437.4    8.8      44.421
2014    8       26    20  44    6.30   437.6    8.8      44.483
2014    8       26    20  50    6.31   437.8    8.8      44.544
2014    8       26    20  56    6.31   438.0    8.8      44.605
2014    8       26    21   2    6.32   438.2    8.8      44.667
2014    8       26    21   8    6.32   438.4    8.8      44.729
2014    8       26    21  14    6.32   438.6    8.8      44.791
2014    8       26    21  20    6.33   438.8    8.8      44.854
2014    8       26    21  26    6.33   439.0    8.8      44.918
2014    8       26    21  32    6.34   439.2    8.8      44.982
2014    8       26    21  38    6.34   439.4    8.8      45.047
2014    8       26    21  44    6.35   439.6    8.8      45.113
2014    8       26    21  50    6.35   439.9    8.8      45.179
2014    8       26    21  56    6.35   440.1    8.8      45.248
2014    8       26    22   2    6.36   440.3    8.8      45.317
2014    8       26    22   8    6.36   440.5    8.8      45.386
2014    8       26    22  14    6.37   440.7    8.8      45.456
2014    8       26    22  20    6.37   441.0    8.8      45.526
2014    8       26    22  26    6.38   441.2    8.8      45.597
2014    8       26    22  32    6.38   441.5    8.8      45.668
2014    8       26    22  38    6.39   441.7    8.8      45.738
2014    8       26    22  44    6.39   441.9    8.8      45.808
2014    8       26    22  50    6.40   442.2    8.8      45.877
2014    8       26    22  56    6.40   442.4    8.8      45.946
2014    8       26    23   2    6.40   442.7    8.9      46.014
2014    8       26    23   8    6.41   442.9    8.9      46.082
2014    8       26    23  14    6.41   443.1    8.9      46.150
2014    8       26    23  20    6.42   443.4    8.9      46.217
2014    8       26    23  26    6.42   443.6    8.9      46.285
2014    8       26    23  32    6.43   443.9    8.9      46.352
2014    8       26    23  38    6.43   444.1    8.9      46.418
2014    8       26    23  44    6.44   444.4    8.9      46.485
2014    8       26    23  50    6.44   444.6    8.9      46.552
2014    8       26    23  56    6.44   444.8    8.9      46.619
2014    8       27     0   2    6.45   445.1    8.9      46.688
2014    8       27     0   8    6.45   445.4    8.9      46.760
2014    8       27     0  14    6.46   445.6    8.9      46.834
2014    8       27     0  20    6.46   445.9    8.9      46.911
2014    8       27     0  26    6.47   446.2    8.9      46.989
2014    8       27     0  32    6.47   446.5    8.9      47.069
2014    8       27     0  38    6.48   446.8    8.9      47.150
2014    8       27     0  44    6.48   447.1    8.9      47.230
2014    8       27     0  50    6.49   447.4    8.9      47.310
2014    8       27     0  56    6.49   447.7    8.9      47.391
2014    8       27     1   2    6.50   447.9    8.9      47.471
2014    8       27     1   8    6.50   448.2    8.9      47.550
2014    8       27     1  14    6.51   448.5    8.9      47.629
2014    8       27     1  20    6.51   448.8    8.9      47.708
2014    8       27     1  26    6.51   449.1    8.9      47.786
2014    8       27     1  32    6.52   449.4    8.9      47.865
2014    8       27     1  38    6.52   449.7    8.9      47.943
2014    8       27     1  44    6.53   450.1    8.9      48.022
2014    8       27     1  50    6.53   450.4    8.9      48.101
2014    8       27     1  56    6.54   450.7    8.9      48.180
2014    8       27     2   2    6.54   451.0    8.9      48.258
2014    8       27     2   8    6.54   451.3    8.9      48.336
2014    8       27     2  14    6.55   451.7    8.9      48.413
2014    8       27     2  20    6.55   452.0    8.8      48.489
2014    8       27     2  26    6.55   452.3    8.8      48.563
2014    8       27     2  32    6.56   452.6    8.8      48.637
2014    8       27     2  38    6.56   453.0    8.8      48.710
2014    8       27     2  44    6.56   453.3    8.8      48.782
2014    8       27     2  50    6.57   453.6    8.8      48.853
2014    8       27     2  56    6.57   453.9    8.8      48.923
2014    8       27     3   2    6.57   454.3    8.8      48.993
2014    8       27     3   8    6.58   454.6    8.8      49.062
2014    8       27     3  14    6.58   454.9    8.8      49.130
2014    8       27     3  20    6.58   455.2    8.8      49.197
2014    8       27     3  25    6.59   455.6    8.8      49.264
2014    8       27     3  31    6.59   455.9    8.8      49.331
2014    8       27     3  37    6.59   456.2    8.8      49.397
2014    8       27     3  43    6.59   456.5    8.8      49.463
2014    8       27     3  49    6.60   456.8    8.7      49.529
2014    8       27     3  55    6.60   457.1    8.7      49.594
2014    8       27     4   1    6.60   457.4    8.7      49.660
2014    8       27     4   7    6.60   457.8    8.7      49.726
2014    8       27     4  13    6.61   458.1    8.7      49.791
2014    8       27     4  19    6.61   458.4    8.7      49.857
2014    8       27     4  25    6.61   458.7    8.7      49.923
2014    8       27     4  31    6.62   459.0    8.7      49.990
2014    8       27     4  37    6.62   459.3    8.7      50.056
2014    8       27     4  43    6.62   459.6    8.7      50.123
2014    8       27     4  49    6.62   459.9    8.7      50.190
2014    8       27     4  55    6.63   460.2    8.7      50.256
2014    8       27     5   1    6.63   460.6    8.7      50.323
2014    8       27     5   7    6.63   460.9    8.7      50.391
2014    8       27     5  13    6.63   461.2    8.7      50.459
2014    8       27     5  19    6.64   461.5    8.7      50.527
2014    8       27     5  25    6.64   461.8    8.6      50.596
2014    8       27     5  31    6.64   462.1    8.6      50.664
2014    8       27     5  37    6.64   462.5    8.6      50.733
2014    8       27     5  43    6.65   462.8    8.6      50.801
2014    8       27     5  49    6.65   463.1    8.6      50.870
2014    8       27     5  55    6.65   463.5    8.6      50.937
2014    8       27     6   1    6.65   463.8    8.6      51.003
2014    8       27     6   7    6.66   464.1    8.6      51.069
2014    8       27     6  13    6.66   464.5    8.6      51.133
2014    8       27     6  19    6.66   464.8    8.6      51.198
2014    8       27     6  25    6.66   465.1    8.6      51.261
2014    8       27     6  31    6.67   465.5    8.6      51.323
2014    8       27     6  37    6.67   465.8    8.6      51.385
2014    8       27     6  43    6.67   466.1    8.6      51.447
2014    8       27     6  49    6.67   466.5    8.6      51.507
2014    8       27     6  55    6.68   466.8    8.6      51.568
2014    8       27     7   1    6.68   467.1    8.5      51.627
2014    8       27     7   7    6.68   467.5    8.5      51.687
2014    8       27     7  13    6.68   467.8    8.5      51.748
2014    8       27     7  19    6.68   468.1    8.5      51.812
2014    8       27     7  25    6.69   468.5    8.5      51.877
2014    8       27     7  31    6.69   468.9    8.5      51.945
2014    8       27     7  37    6.69   469.2    8.5      52.014
2014    8       27     7  43    6.69   469.6    8.5      52.085
2014    8       27     7  49    6.70   469.9    8.5      52.157
2014    8       27     7  55    6.70   470.3    8.5      52.229
2014    8       27     8   1    6.70   470.7    8.5      52.300
2014    8       27     8   7    6.70   471.0    8.5      52.371
2014    8       27     8  13    6.70   471.4    8.5      52.442
2014    8       27     8  19    6.71   471.8    8.5      52.513
2014    8       27     8  25    6.71   472.2    8.5      52.582
2014    8       27     8  31    6.71   472.5    8.4      52.651
2014    8       27     8  37    6.71   472.9    8.4      52.719
2014    8       27     8  43    6.71   473.3    8.4      52.787
2014    8       27     8  49    6.71   473.7    8.4      52.855
2014    8       27     8  55    6.71   474.1    8.4      52.923
2014    8       27     9   1    6.72   474.4    8.4      52.990
2014    8       27     9   7    6.72   474.8    8.4      53.059
2014    8       27     9  13    6.72   475.2    8.4      53.127
2014    8       27     9  19    6.72   475.7    8.4      53.195
2014    8       27     9  25    6.72   476.1    8.4      53.262
2014    8       27     9  31    6.72   476.5    8.3      53.328
2014    8       27     9  37    6.72   476.9    8.3      53.393
2014    8       27     9  43    6.72   477.3    8.3      53.457
2014    8       27     9  49    6.72   477.7    8.3      53.520
2014    8       27     9  55    6.72   478.1    8.3      53.582
2014    8       27    10   1    6.72   478.6    8.3      53.643
2014    8       27    10   7    6.72   479.0    8.3      53.704
2014    8       27    10  13    6.73   479.4    8.3      53.763
2014    8       27    10  19    6.73   479.8    8.2      53.822
2014    8       27    10  25    6.73   480.3    8.2      53.880
2014    8       27    10  31    6.73   480.7    8.2      53.937
2014    8       27    10  37    6.73   481.1    8.2      53.994
2014    8       27    10  43    6.73   481.6    8.2      54.050
2014    8       27    10  49    6.73   482.0    8.2      54.106
2014    8       27    10  55    6.73   482.4    8.2      54.162
2014    8       27    11   1    6.73   482.9    8.1      54.218
2014    8       27    11   7    6.73   483.3    8.1      54.274
2014    8       27    11  13    6.73   483.8    8.1      54.330
2014    8       27    11  19    6.73   484.2    8.1      54.387
2014    8       27    11  25    6.72   484.7    8.1      54.444
2014    8       27    11  31    6.72   485.1    8.1      54.500
2014    8       27    11  37    6.72   485.6    8.0      54.556
2014    8       27    11  43    6.72   486.1    8.0      54.612
2014    8       27    11  49    6.72   486.5    8.0      54.666
2014    8       27    11  55    6.72   487.0    8.0      54.718
2014    8       27    12   0    6.72   487.4    8.0      54.767
2014    8       27    12   6    6.72   487.9    8.0      54.814
2014    8       27    12  12    6.72   488.4    7.9      54.860
2014    8       27    12  18    6.71   488.8    7.9      54.901
2014    8       27    12  24    6.71   489.3    7.9      54.936
2014    8       27    12  30    6.71   489.7    7.9      54.966
2014    8       27    12  36    6.70   490.2    7.8      54.993
2014    8       27    12  42    6.70   490.6    7.8      55.017
2014    8       27    12  48    6.70   491.0    7.8      55.037
2014    8       27    12  54    6.70   491.4    7.8      55.054
2014    8       27    13   0    6.69   491.8    7.7      55.071
2014    8       27    13   6    6.69   492.3    7.7      55.089
2014    8       27    13  12    6.69   492.7    7.7      55.106
2014    8       27    13  18    6.68   493.1    7.7      55.124
2014    8       27    13  24    6.68   493.5    7.7      55.141
2014    8       27    13  30    6.68   493.9    7.6      55.157
2014    8       27    13  36    6.67   494.3    7.6      55.174
2014    8       27    13  42    6.67   494.8    7.6      55.192
2014    8       27    13  48    6.67   495.2    7.6      55.209
2014    8       27    13  54    6.66   495.6    7.6      55.227
2014    8       27    14   0    6.66   496.0    7.5      55.245
2014    8       27    14   6    6.66   496.4    7.5      55.264
2014    8       27    14  12    6.65   496.8    7.5      55.284
2014    8       27    14  18    6.65   497.3    7.5      55.303
2014    8       27    14  24    6.65   497.7    7.4      55.322
2014    8       27    14  30    6.64   498.1    7.4      55.341
2014    8       27    14  36    6.64   498.5    7.4      55.361
2014    8       27    14  42    6.64   498.9    7.4      55.379
2014    8       27    14  48    6.63   499.4    7.4      55.395
2014    8       27    14  54    6.63   499.8    7.3      55.410
2014    8       27    15   0    6.63   500.2    7.3      55.423
2014    8       27    15   6    6.62   500.6    7.3      55.434
2014    8       27    15  12    6.62   500.9    7.3      55.443
2014    8       27    15  18    6.61   501.3    7.3      55.452
2014    8       27    15  24    6.61   501.7    7.2      55.461
2014    8       27    15  30    6.61   502.1    7.2      55.469
2014    8       27    15  36    6.60   502.4    7.2      55.478
2014    8       27    15  42    6.60   502.8    7.2      55.486
2014    8       27    15  48    6.60   503.2    7.2      55.495
2014    8       27    15  54    6.59   503.5    7.2      55.504
2014    8       27    16   0    6.59   503.9    7.1      55.512
2014    8       27    16   6    6.59   504.2    7.1      55.520
2014    8       27    16  12    6.58   504.5    7.1      55.529
2014    8       27    16  18    6.58   504.9    7.1      55.537
2014    8       27    16  24    6.58   505.2    7.1      55.545
2014    8       27    16  30    6.57   505.5    7.1      55.553
2014    8       27    16  36    6.57   505.8    7.0      55.562
2014    8       27    16  42    6.57   506.2    7.0      55.573
2014    8       27    16  48    6.56   506.5    7.0      55.586
2014    8       27    16  54    6.56   506.9    7.0      55.601
2014    8       27    17   0    6.56   507.3    7.0      55.617
2014    8       27    17   6    6.55   507.6    7.0      55.636
2014    8       27    17  12    6.55   508.0    6.9      55.656
2014    8       27    17  18    6.55   508.4    6.9      55.675
2014    8       27    17  24    6.55   508.8    6.9      55.694
2014    8       27    17  30    6.54   509.2    6.9      55.711
2014    8       27    17  36    6.54   509.6    6.9      55.726
2014    8       27    17  42    6.54   510.0    6.9      55.739
2014    8       27    17  48    6.53   510.4    6.9      55.752
2014    8       27    17  54    6.53   510.8    6.8      55.764
2014    8       27    18   0    6.53   511.1    6.8      55.776
2014    8       27    18   6    6.52   511.5    6.8      55.787
2014    8       27    18  12    6.52   512.0    6.8      55.799
2014    8       27    18  18    6.51   512.4    6.8      55.812
2014    8       27    18  24    6.51   512.8    6.8      55.825
2014    8       27    18  30    6.51   513.2    6.8      55.838
2014    8       27    18  36    6.50   513.6    6.7      55.851
2014    8       27    18  42    6.50   514.0    6.7      55.864
2014    8       27    18  48    6.49   514.4    6.7      55.876
2014    8       27    18  54    6.49   514.9    6.7      55.888
2014    8       27    19   0    6.48   515.3    6.7      55.899
2014    8       27    19   6    6.48   515.7    6.7      55.908
2014    8       27    19  12    6.47   516.1    6.6      55.914
2014    8       27    19  18    6.47   516.5    6.6      55.918
2014    8       27    19  24    6.46   517.0    6.6      55.921
2014    8       27    19  30    6.46   517.4    6.6      55.921
2014    8       27    19  36    6.45   517.8    6.6      55.914
2014    8       27    19  42    6.44   518.2    6.5      55.901
2014    8       27    19  48    6.44   518.6    6.5      55.885
2014    8       27    19  54    6.43   519.0    6.5      55.864
2014    8       27    20   0    6.42   519.4    6.5      55.842
2014    8       27    20   5    6.42   519.7    6.4      55.815
2014    8       27    20  11    6.41   520.1    6.4      55.789
2014    8       27    20  17    6.40   520.5    6.4      55.765
2014    8       27    20  23    6.40   520.9    6.4      55.741
2014    8       27    20  29    6.39   521.2    6.4      55.719
2014    8       27    20  35    6.39   521.6    6.3      55.697
2014    8       27    20  41    6.38   522.0    6.3      55.675
2014    8       27    20  47    6.37   522.3    6.3      55.653
2014    8       27    20  53    6.37   522.7    6.3      55.632
2014    8       27    20  59    6.36   523.0    6.3      55.612
2014    8       27    21   5    6.36   523.4    6.3      55.592
2014    8       27    21  11    6.35   523.7    6.2      55.574
2014    8       27    21  17    6.35   524.1    6.2      55.557
2014    8       27    21  23    6.34   524.4    6.2      55.543
2014    8       27    21  29    6.33   524.8    6.2      55.529
2014    8       27    21  35    6.33   525.1    6.2      55.516
2014    8       27    21  41    6.32   525.5    6.1      55.503
2014    8       27    21  47    6.32   525.8    6.1      55.492
2014    8       27    21  53    6.31   526.2    6.1      55.482
2014    8       27    21  59    6.31   526.5    6.1      55.469
2014    8       27    22   5    6.30   526.9    6.1      55.455
2014    8       27    22  11    6.30   527.2    6.1      55.438
2014    8       27    22  17    6.29   527.5    6.1      55.420
2014    8       27    22  23    6.29   527.9    6.0      55.400
2014    8       27    22  29    6.28   528.2    6.0      55.380
2014    8       27    22  35    6.27   528.5    6.0      55.359
2014    8       27    22  41    6.27   528.7    6.0      55.340
2014    8       27    22  47    6.26   529.0    6.0      55.321
2014    8       27    22  53    6.26   529.3    6.0      55.303
2014    8       27    22  59    6.25   529.6    5.9      55.287
2014    8       27    23   5    6.25   529.8    5.9      55.271
2014    8       27    23  11    6.25   530.1    5.9      55.256
2014    8       27    23  17    6.24   530.3    5.9      55.241
2014    8       27    23  23    6.24   530.5    5.9      55.228
2014    8       27    23  29    6.23   530.8    5.9      55.217
2014    8       27    23  35    6.23   531.0    5.9      55.207
2014    8       27    23  41    6.22   531.2    5.9      55.197
2014    8       27    23  47    6.22   531.4    5.9      55.191
2014    8       27    23  53    6.22   531.7    5.8      55.188
2014    8       27    23  59    6.21   531.9    5.8      55.188
2014    8       28     0   5    6.21   532.2    5.8      55.192
2014    8       28     0  11    6.20   532.4    5.8      55.198
2014    8       28     0  17    6.20   532.7    5.8      55.207
2014    8       28     0  23    6.20   533.0    5.8      55.219
2014    8       28     0  29    6.19   533.3    5.8      55.229
2014    8       28     0  35    6.19   533.6    5.8      55.238
2014    8       28     0  41    6.18   533.9    5.8      55.246
2014    8       28     0  47    6.18   534.2    5.8      55.253
2014    8       28     0  53    6.18   534.5    5.8      55.258
2014    8       28     0  59    6.17   534.7    5.7      55.263
2014    8       28     1   5    6.17   535.0    5.7      55.266
2014    8       28     1  11    6.16   535.3    5.7      55.269
2014    8       28     1  17    6.16   535.6    5.7      55.271
2014    8       28     1  23    6.15   535.9    5.7      55.273
2014    8       28     1  29    6.15   536.2    5.7      55.276
2014    8       28     1  35    6.14   536.5    5.7      55.278
2014    8       28     1  41    6.14   536.8    5.7      55.280
2014    8       28     1  47    6.13   537.1    5.7      55.281
2014    8       28     1  53    6.13   537.4    5.7      55.281
2014    8       28     1  59    6.12   537.7    5.6      55.281
2014    8       28     2   5    6.12   537.9    5.6      55.281
2014    8       28     2  11    6.11   538.2    5.6      55.280
2014    8       28     2  17    6.11   538.5    5.6      55.279
2014    8       28     2  23    6.10   538.8    5.6      55.277
2014    8       28     2  29    6.10   539.0    5.6      55.276
2014    8       28     2  35    6.09   539.3    5.6      55.274
2014    8       28     2  41    6.09   539.6    5.6      55.271
2014    8       28     2  47    6.08   539.8    5.6      55.268
2014    8       28     2  53    6.08   540.1    5.6      55.265
2014    8       28     2  59    6.07   540.4    5.5      55.262
2014    8       28     3   5    6.07   540.6    5.5      55.258
2014    8       28     3  11    6.07   540.9    5.5      55.255
2014    8       28     3  17    6.06   541.1    5.5      55.253
2014    8       28     3  23    6.06   541.4    5.5      55.252
2014    8       28     3  29    6.05   541.7    5.5      55.251
2014    8       28     3  35    6.05   542.0    5.5      55.251
2014    8       28     3  41    6.04   542.2    5.5      55.251
2014    8       28     3  47    6.04   542.5    5.5      55.252
2014    8       28     3  53    6.04   542.8    5.5      55.253
2014    8       28     3  59    6.03   543.0    5.4      55.254
2014    8       28     4   5    6.03   543.3    5.4      55.255
2014    8       28     4  10    6.02   543.6    5.4      55.256
2014    8       28     4  16    6.02   543.8    5.4      55.257
2014    8       28     4  22    6.02   544.1    5.4      55.259
2014    8       28     4  28    6.01   544.3    5.4      55.261
2014    8       28     4  34    6.01   544.6    5.4      55.264
2014    8       28     4  40    6.00   544.9    5.4      55.268
2014    8       28     4  46    6.00   545.1    5.4      55.273
2014    8       28     4  52    6.00   545.4    5.4      55.279
2014    8       28     4  58    5.99   545.7    5.4      55.286
2014    8       28     5   4    5.99   545.9    5.4      55.294
2014    8       28     5  10    5.99   546.2    5.3      55.302
2014    8       28     5  16    5.98   546.5    5.3      55.312
2014    8       28     5  22    5.98   546.7    5.3      55.322
2014    8       28     5  28    5.98   547.0    5.3      55.333
2014    8       28     5  34    5.97   547.3    5.3      55.344
2014    8       28     5  40    5.97   547.5    5.3      55.355
2014    8       28     5  46    5.97   547.8    5.3      55.368
2014    8       28     5  52    5.97   548.1    5.3      55.382
2014    8       28     5  58    5.96   548.4    5.3      55.398
2014    8       28     6   4    5.96   548.6    5.3      55.416
2014    8       28     6  10    5.96   548.9    5.3      55.436
2014    8       28     6  16    5.95   549.2    5.3      55.458
2014    8       28     6  22    5.95   549.4    5.3      55.480
2014    8       28     6  28    5.95   549.7    5.3      55.502
2014    8       28     6  34    5.94   550.0    5.3      55.525
2014    8       28     6  40    5.94   550.2    5.2      55.547
2014    8       28     6  46    5.94   550.5    5.2      55.569
2014    8       28     6  52    5.94   550.8    5.2      55.592
2014    8       28     6  58    5.93   551.0    5.2      55.615
2014    8       28     7   4    5.93   551.3    5.2      55.638
2014    8       28     7  10    5.93   551.6    5.2      55.661
2014    8       28     7  16    5.92   551.8    5.2      55.684
2014    8       28     7  22    5.92   552.1    5.2      55.706
2014    8       28     7  28    5.92   552.3    5.2      55.728
2014    8       28     7  34    5.91   552.6    5.2      55.750
2014    8       28     7  40    5.91   552.9    5.2      55.771
2014    8       28     7  46    5.91   553.1    5.2      55.790
2014    8       28     7  52    5.90   553.4    5.2      55.809
2014    8       28     7  58    5.90   553.7    5.2      55.827
2014    8       28     8   4    5.90   553.9    5.2      55.844
2014    8       28     8  10    5.89   554.2    5.1      55.860
2014    8       28     8  16    5.89   554.5    5.1      55.875
2014    8       28     8  22    5.88   554.7    5.1      55.890
2014    8       28     8  28    5.88   555.0    5.1      55.903
2014    8       28     8  34    5.88   555.2    5.1      55.915
2014    8       28     8  40    5.87   555.5    5.1      55.927
2014    8       28     8  46    5.87   555.8    5.1      55.938
2014    8       28     8  52    5.86   556.0    5.1      55.947
2014    8       28     8  58    5.86   556.3    5.1      55.956
2014    8       28     9   4    5.86   556.5    5.1      55.965
2014    8       28     9  10    5.85   556.8    5.1      55.972
2014    8       28     9  16    5.85   557.0    5.1      55.979
2014    8       28     9  22    5.84   557.3    5.0      55.985
2014    8       28     9  28    5.84   557.5    5.0      55.990
2014    8       28     9  34    5.83   557.8    5.0      55.995
2014    8       28     9  40    5.83   558.0    5.0      55.999
2014    8       28     9  46    5.82   558.3    5.0      56.002
2014    8       28     9  52    5.82   558.5    5.0      56.005
2014    8       28     9  58    5.81   558.8    5.0      56.007
2014    8       28    10   4    5.81   559.0    5.0      56.008
2014    8       28    10  10    5.80   559.2    5.0      56.008
2014    8       28    10  16    5.79   559.5    5.0      56.008
2014    8       28    10  22    5.79   559.7    5.0      56.008
2014    8       28    10  28    5.78   560.0    5.0      56.007
2014    8       28    10  34    5.78   560.2    4.9      56.006
2014    8       28    10  40    5.77   560.4    4.9      56.004
2014    8       28    10  46    5.76   560.7    4.9      56.001
2014    8       28    10  52    5.76   560.9    4.9      55.998
2014    8       28    10  58    5.75   561.1    4.9      55.995
2014    8       28    11   4    5.74   561.4    4.9      55.992
2014    8       28    11  10    5.74   561.6    4.9      55.988
2014    8       28    11  16    5.73   561.8    4.9      55.984
2014    8       28    11  22    5.72   562.1    4.9      55.980
2014    8       28    11  28    5.71   562.3    4.9      55.977
2014    8       28    11  34    5.71   562.5    4.9      55.974
2014    8       28    11  40    5.70   562.8    4.8      55.971
2014    8       28    11  46    5.69   563.0    4.8      55.970
2014    8       28    11  52    5.68   563.2    4.8      55.969
2014    8       28    11  57    5.67   563.4    4.8      55.969
2014    8       28    12   3    5.67   563.7    4.8      55.970
2014    8       28    12   9    5.66   563.9    4.8      55.974
2014    8       28    12  15    5.65   564.1    4.8      55.978
2014    8       28    12  21    5.64   564.3    4.8      55.985
2014    8       28    12  27    5.63   564.6    4.8      55.994
2014    8       28    12  33    5.63   564.8    4.8      56.006
2014    8       28    12  39    5.62   565.0    4.8      56.020
2014    8       28    12  45    5.61   565.3    4.8      56.036
2014    8       28    12  51    5.61   565.5    4.8      56.056
2014    8       28    12  57    5.60   565.8    4.8      56.078
2014    8       28    13   3    5.59   566.0    4.8      56.104
2014    8       28    13   9    5.59   566.3    4.8      56.133
2014    8       28    13  15    5.58   566.5    4.7      56.165
2014    8       28    13  21    5.58   566.8    4.7      56.200
2014    8       28    13  27    5.57   567.1    4.7      56.239
2014    8       28    13  33    5.57   567.3    4.7      56.281
2014    8       28    13  39    5.56   567.6    4.7      56.327
2014    8       28    13  45    5.56   567.9    4.7      56.377
2014    8       28    13  51    5.55   568.2    4.7      56.430
2014    8       28    13  57    5.55   568.5    4.7      56.486
2014    8       28    14   3    5.55   568.7    4.7      56.545
2014    8       28    14   9    5.54   569.0    4.7      56.606
2014    8       28    14  15    5.54   569.3    4.7      56.669
2014    8       28    14  21    5.53   569.6    4.7      56.733
2014    8       28    14  27    5.53   569.9    4.7      56.800
2014    8       28    14  33    5.53   570.2    4.7      56.868
2014    8       28    14  39    5.52   570.5    4.7      56.939
2014    8       28    14  45    5.52   570.8    4.7      57.010
2014    8       28    14  51    5.52   571.1    4.7      57.084
2014    8       28    14  57    5.52   571.5    4.7      57.158
2014    8       28    15   3    5.51   571.8    4.7      57.234
2014    8       28    15   9    5.51   572.1    4.7      57.311
2014    8       28    15  15    5.51   572.4    4.7      57.388
2014    8       28    15  21    5.51   572.7    4.7      57.468
2014    8       28    15  27    5.50   573.0    4.7      57.549
2014    8       28    15  33    5.50   573.3    4.7      57.632
2014    8       28    15  39    5.50   573.6    4.7      57.716
2014    8       28    15  45    5.50   574.0    4.8      57.802
2014    8       28    15  51    5.49   574.3    4.8      57.889
2014    8       28    15  57    5.49   574.6    4.8      57.976
2014    8       28    16   3    5.49   574.9    4.8      58.063
2014    8       28    16   9    5.49   575.3    4.8      58.150
2014    8       28    16  15    5.49   575.6    4.8      58.236
2014    8       28    16  21    5.48   575.9    4.8      58.321
2014    8       28    16  27    5.48   576.3    4.8      58.405
2014    8       28    16  33    5.48   576.6    4.8      58.487
2014    8       28    16  39    5.48   576.9    4.8      58.566
2014    8       28    16  45    5.48   577.3    4.8      58.642
2014    8       28    16  51    5.48   577.6    4.8      58.713
2014    8       28    16  57    5.47   577.9    4.8      58.781
2014    8       28    17   3    5.47   578.2    4.8      58.846
2014    8       28    17   9    5.47   578.6    4.8      58.906
2014    8       28    17  15    5.47   578.9    4.8      58.963
2014    8       28    17  21    5.47   579.2    4.8      59.016
2014    8       28    17  27    5.47   579.5    4.8      59.066
2014    8       28    17  33    5.47   579.8    4.8      59.112
2014    8       28    17  39    5.47   580.1    4.8      59.154
2014    8       28    17  45    5.47   580.4    4.8      59.192
2014    8       28    17  51    5.47   580.7    4.8      59.227
2014    8       28    17  57    5.47   581.0    4.7      59.259
2014    8       28    18   3    5.47   581.3    4.7      59.288
2014    8       28    18   9    5.47   581.6    4.7      59.313
2014    8       28    18  15    5.47   581.8    4.7      59.334
2014    8       28    18  21    5.47   582.1    4.7      59.354
2014    8       28    18  27    5.47   582.4    4.7      59.370
2014    8       28    18  33    5.47   582.7    4.7      59.383
2014    8       28    18  39    5.47   583.0    4.7      59.394
2014    8       28    18  45    5.47   583.2    4.7      59.403
2014    8       28    18  51    5.47   583.5    4.7      59.409
2014    8       28    18  57    5.47   583.8    4.7      59.413
2014    8       28    19   3    5.47   584.0    4.7      59.414
2014    8       28    19   9    5.47   584.3    4.7      59.413
2014    8       28    19  15    5.47   584.6    4.7      59.410
2014    8       28    19  21    5.48   584.8    4.6      59.405
2014    8       28    19  27    5.48   585.1    4.6      59.397
2014    8       28    19  32    5.48   585.3    4.6      59.388
2014    8       28    19  38    5.48   585.6    4.6      59.376
2014    8       28    19  44    5.48   585.8    4.6      59.363
2014    8       28    19  50    5.48   586.1    4.6      59.349
2014    8       28    19  56    5.49   586.3    4.6      59.333
2014    8       28    20   2    5.49   586.5    4.6      59.317
2014    8       28    20   8    5.49   586.8    4.6      59.300
2014    8       28    20  14    5.49   587.0    4.6      59.283
2014    8       28    20  20    5.49   587.2    4.5      59.266
2014    8       28    20  26    5.49   587.5    4.5      59.248
2014    8       28    20  32    5.50   587.7    4.5      59.229
2014    8       28    20  38    5.50   587.9    4.5      59.211
2014    8       28    20  44    5.50   588.2    4.5      59.192
2014    8       28    20  50    5.50   588.4    4.5      59.173
2014    8       28    20  56    5.50   588.6    4.5      59.154
2014    8       28    21   2    5.50   588.8    4.5      59.135
2014    8       28    21   8    5.51   589.1    4.5      59.116
2014    8       28    21  14    5.51   589.3    4.4      59.097
2014    8       28    21  20    5.51   589.5    4.4      59.078
2014    8       28    21  26    5.51   589.8    4.4      59.058
2014    8       28    21  32    5.51   590.0    4.4      59.038
2014    8       28    21  38    5.51   590.2    4.4      59.018
2014    8       28    21  44    5.51   590.5    4.4      58.997
2014    8       28    21  50    5.52   590.7    4.4      58.975
2014    8       28    21  56    5.52   591.0    4.4      58.953
2014    8       28    22   2    5.52   591.2    4.4      58.932
2014    8       28    22   8    5.52   591.5    4.4      58.911
2014    8       28    22  14    5.52   591.7    4.3      58.890
2014    8       28    22  20    5.52   592.0    4.3      58.871
2014    8       28    22  26    5.52   592.3    4.3      58.851
2014    8       28    22  32    5.52   592.5    4.3      58.830
2014    8       28    22  38    5.52   592.8    4.3      58.806
2014    8       28    22  44    5.52   593.0    4.3      58.781
2014    8       28    22  50    5.52   593.2    4.3      58.753
2014    8       28    22  56    5.52   593.5    4.3      58.724
2014    8       28    23   2    5.52   593.7    4.3      58.696
2014    8       28    23   8    5.52   593.9    4.3      58.667
2014    8       28    23  14    5.52   594.1    4.2      58.638
2014    8       28    23  20    5.52   594.3    4.2      58.608
2014    8       28    23  26    5.52   594.5    4.2      58.578
2014    8       28    23  32    5.52   594.7    4.2      58.547
2014    8       28    23  38    5.52   594.9    4.2      58.516
2014    8       28    23  44    5.52   595.0    4.2      58.485
2014    8       28    23  50    5.51   595.2    4.2      58.457
2014    8       28    23  56    5.51   595.3    4.2      58.430
2014    8       29     0   2    5.51   595.5    4.2      58.407
2014    8       29     0   8    5.51   595.7    4.2      58.387
2014    8       29     0  14    5.51   595.8    4.2      58.372
2014    8       29     0  20    5.51   596.0    4.1      58.362
2014    8       29     0  26    5.51   596.2    4.1      58.356
2014    8       29     0  32    5.51   596.4    4.1      58.355
2014    8       29     0  38    5.51   596.6    4.1      58.360
2014    8       29     0  44    5.51   596.8    4.1      58.367
2014    8       29     0  50    5.51   597.1    4.1      58.376
2014    8       29     0  56    5.51   597.3    4.1      58.386
2014    8       29     1   2    5.51   597.6    4.1      58.394
2014    8       29     1   8    5.51   597.9    4.1      58.401
2014    8       29     1  14    5.51   598.1    4.1      58.405
2014    8       29     1  20    5.51   598.4    4.1      58.408
2014    8       29     1  26    5.51   598.6    4.1      58.408
2014    8       29     1  32    5.50   598.9    4.1      58.407
2014    8       29     1  38    5.50   599.1    4.1      58.404
2014    8       29     1  44    5.50   599.4    4.1      58.399
2014    8       29     1  50    5.50   599.7    4.1      58.394
2014    8       29     1  56    5.50   599.9    4.0      58.387
2014    8       29     2   2    5.50   600.2    4.0      58.379
2014    8       29     2   8    5.50   600.4    4.0      58.371
2014    8       29     2  14    5.49   600.7    4.0      58.362
2014    8       29     2  20    5.49   600.9    4.0      58.354
2014    8       29     2  26    5.49   601.1    4.0      58.345
2014    8       29     2  32    5.49   601.4    4.0      58.337
2014    8       29     2  38    5.49   601.6    4.0      58.330
2014    8       29     2  44    5.48   601.9    4.0      58.323
2014    8       29     2  50    5.48   602.1    4.0      58.317
2014    8       29     2  56    5.48   602.3    4.0      58.312
2014    8       29     3   1    5.48   602.6    4.0      58.308
2014    8       29     3   7    5.48   602.8    4.0      58.306
2014    8       29     3  13    5.48   603.0    4.0      58.304
2014    8       29     3  19    5.47   603.3    4.0      58.304
2014    8       29     3  25    5.47   603.5    4.0      58.305
2014    8       29     3  31    5.47   603.7    4.0      58.307
2014    8       29     3  37    5.47   604.0    4.0      58.311
2014    8       29     3  43    5.47   604.2    3.9      58.316
2014    8       29     3  49    5.46   604.4    3.9      58.320
2014    8       29     3  55    5.46   604.6    3.9      58.326
2014    8       29     4   1    5.46   604.9    3.9      58.333
2014    8       29     4   7    5.46   605.1    3.9      58.339
2014    8       29     4  13    5.45   605.3    3.9      58.345
2014    8       29     4  19    5.45   605.5    3.9      58.352
2014    8       29     4  25    5.45   605.7    3.9      58.359
2014    8       29     4  31    5.45   606.0    3.9      58.365
2014    8       29     4  37    5.45   606.2    3.9      58.372
2014    8       29     4  43    5.44   606.4    3.9      58.379
2014    8       29     4  49    5.44   606.6    3.9      58.386
2014    8       29     4  55    5.44   606.8    3.9      58.393
2014    8       29     5   1    5.44   607.0    3.9      58.401
2014    8       29     5   7    5.44   607.2    3.9      58.410
2014    8       29     5  13    5.43   607.4    3.9      58.419
2014    8       29     5  19    5.43   607.6    3.9      58.431
2014    8       29     5  25    5.43   607.8    3.9      58.444
2014    8       29     5  31    5.43   608.0    3.9      58.458
2014    8       29     5  37    5.42   608.2    3.9      58.475
2014    8       29     5  43    5.42   608.4    3.9      58.494
2014    8       29     5  49    5.42   608.6    3.9      58.516
2014    8       29     5  55    5.42   608.8    3.9      58.541
2014    8       29     6   1    5.42   609.0    3.9      58.570
2014    8       29     6   7    5.42   609.2    3.9      58.601
2014    8       29     6  13    5.41   609.3    3.9      58.636
2014    8       29     6  19    5.41   609.5    3.8      58.672
2014    8       29     6  25    5.41   609.7    3.8      58.710
2014    8       29     6  31    5.41   609.9    3.8      58.749
2014    8       29     6  37    5.41   610.1    3.8      58.788
2014    8       29     6  43    5.40   610.3    3.8      58.827
2014    8       29     6  49    5.40   610.4    3.8      58.866
2014    8       29     6  55    5.40   610.6    3.8      58.904
2014    8       29     7   1    5.40   610.8    3.8      58.943
2014    8       29     7   7    5.40   611.0    3.8      58.980
2014    8       29     7  13    5.40   611.2    3.8      59.018
2014    8       29     7  19    5.40   611.3    3.8      59.054
2014    8       29     7  25    5.40   611.5    3.8      59.090
2014    8       29     7  31    5.39   611.7    3.8      59.125
2014    8       29     7  37    5.39   611.9    3.8      59.159
2014    8       29     7  43    5.39   612.0    3.8      59.190
2014    8       29     7  49    5.39   612.2    3.8      59.220
2014    8       29     7  55    5.39   612.4    3.8      59.248
2014    8       29     8   1    5.39   612.6    3.8      59.274
2014    8       29     8   7    5.39   612.7    3.8      59.297
2014    8       29     8  13    5.39   612.9    3.8      59.319
2014    8       29     8  19    5.38   613.1    3.8      59.339
2014    8       29     8  25    5.38   613.3    3.8      59.358
2014    8       29     8  31    5.38   613.5    3.8      59.374
2014    8       29     8  37    5.38   613.6    3.8      59.389
2014    8       29     8  43    5.38   613.8    3.8      59.402
2014    8       29     8  49    5.38   614.0    3.7      59.413
2014    8       29     8  55    5.37   614.2    3.7      59.423
2014    8       29     9   1    5.37   614.4    3.7      59.431
2014    8       29     9   7    5.37   614.6    3.7      59.438
2014    8       29     9  13    5.37   614.7    3.7      59.444
2014    8       29     9  19    5.36   614.9    3.7      59.448
2014    8       29     9  25    5.36   615.1    3.7      59.451
2014    8       29     9  31    5.36   615.3    3.7      59.453
2014    8       29     9  37    5.36   615.5    3.7      59.454
2014    8       29     9  43    5.35   615.6    3.7      59.454
2014    8       29     9  49    5.35   615.8    3.7      59.453
2014    8       29     9  55    5.35   616.0    3.7      59.451
2014    8       29    10   1    5.34   616.2    3.7      59.449
2014    8       29    10   7    5.34   616.4    3.7      59.446
2014    8       29    10  13    5.34   616.5    3.7      59.442
2014    8       29    10  18    5.33   616.7    3.7      59.437
2014    8       29    10  24    5.33   616.9    3.7      59.432
2014    8       29    10  30    5.33   617.1    3.7      59.426
2014    8       29    10  36    5.32   617.2    3.6      59.419
2014    8       29    10  42    5.32   617.4    3.6      59.413
2014    8       29    10  48    5.31   617.6    3.6      59.405
2014    8       29    10  54    5.31   617.8    3.6      59.397
2014    8       29    11   0    5.31   617.9    3.6      59.389
2014    8       29    11   6    5.30   618.1    3.6      59.380
2014    8       29    11  12    5.30   618.3    3.6      59.370
2014    8       29    11  18    5.29   618.5    3.6      59.361
2014    8       29    11  24    5.29   618.6    3.6      59.350
2014    8       29    11  30    5.29   618.8    3.6      59.340
2014    8       29    11  36    5.28   619.0    3.6      59.329
2014    8       29    11  42    5.28   619.1    3.6      59.319
2014    8       29    11  48    5.27   619.3    3.6      59.308
2014    8       29    11  54    5.27   619.4    3.6      59.298
2014    8       29    12   0    5.26   619.6    3.6      59.287
2014    8       29    12   6    5.26   619.8    3.6      59.278
2014    8       29    12  12    5.26   619.9    3.6      59.269
2014    8       29    12  18    5.25   620.1    3.6      59.260
2014    8       29    12  24    5.25   620.2    3.6      59.252
2014    8       29    12  30    5.24   620.4    3.5      59.246
2014    8       29    12  36    5.24   620.5    3.5      59.241
2014    8       29    12  42    5.23   620.7    3.5      59.237
2014    8       29    12  48    5.23   620.8    3.5      59.233
2014    8       29    12  54    5.22   620.9    3.5      59.232
2014    8       29    13   0    5.22   621.1    3.5      59.233
2014    8       29    13   6    5.22   621.3    3.5      59.235
2014    8       29    13  12    5.21   621.4    3.5      59.238
2014    8       29    13  18    5.21   621.6    3.5      59.242
2014    8       29    13  24    5.20   621.7    3.5      59.246
2014    8       29    13  30    5.20   621.9    3.5      59.250
2014    8       29    13  36    5.19   622.0    3.5      59.252
2014    8       29    13  42    5.19   622.2    3.5      59.254
2014    8       29    13  48    5.18   622.4    3.5      59.255
2014    8       29    13  54    5.18   622.5    3.5      59.255
2014    8       29    14   0    5.17   622.7    3.5      59.254
2014    8       29    14   6    5.17   622.8    3.5      59.253
2014    8       29    14  12    5.16   623.0    3.5      59.251
2014    8       29    14  18    5.16   623.1    3.5      59.248
2014    8       29    14  24    5.15   623.3    3.5      59.245
2014    8       29    14  30    5.15   623.4    3.5      59.241
2014    8       29    14  36    5.14   623.6    3.5      59.236
2014    8       29    14  42    5.14   623.8    3.5      59.231
2014    8       29    14  48    5.13   623.9    3.5      59.226
2014    8       29    14  54    5.13   624.1    3.5      59.220
2014    8       29    15   0    5.12   624.2    3.5      59.213
2014    8       29    15   6    5.12   624.4    3.4      59.206
2014    8       29    15  12    5.11   624.5    3.4      59.199
2014    8       29    15  18    5.11   624.6    3.4      59.192
2014    8       29    15  24    5.10   624.8    3.4      59.184
2014    8       29    15  30    5.10   624.9    3.4      59.177
2014    8       29    15  36    5.09   625.1    3.4      59.169
2014    8       29    15  42    5.09   625.2    3.4      59.162
2014    8       29    15  48    5.08   625.4    3.4      59.155
2014    8       29    15  54    5.08   625.5    3.4      59.148
2014    8       29    16   0    5.07   625.7    3.4      59.140
2014    8       29    16   6    5.07   625.8    3.4      59.133
2014    8       29    16  12    5.06   625.9    3.4      59.125
2014    8       29    16  18    5.06   626.1    3.4      59.117
2014    8       29    16  24    5.05   626.2    3.4      59.109
2014    8       29    16  30    5.05   626.4    3.4      59.100
2014    8       29    16  36    5.04   626.5    3.4      59.091
2014    8       29    16  42    5.04   626.7    3.4      59.080
2014    8       29    16  48    5.03   626.8    3.4      59.069
2014    8       29    16  54    5.03   626.9    3.4      59.057
2014    8       29    17   0    5.02   627.1    3.4      59.045
2014    8       29    17   6    5.02   627.2    3.4      59.031
2014    8       29    17  12    5.01   627.3    3.4      59.017
2014    8       29    17  18    5.01   627.5    3.4      59.003
2014    8       29    17  23    5.00   627.6    3.4      58.988
2014    8       29    17  29    5.00   627.7    3.4      58.972
2014    8       29    17  35    4.99   627.9    3.3      58.956
2014    8       29    17  41    4.99   628.0    3.3      58.939
2014    8       29    17  47    4.98   628.1    3.3      58.922
2014    8       29    17  53    4.97   628.2    3.3      58.905
2014    8       29    17  59    4.97   628.4    3.3      58.887
2014    8       29    18   5    4.96   628.5    3.3      58.869
2014    8       29    18  11    4.96   628.6    3.3      58.851
2014    8       29    18  17    4.95   628.7    3.3      58.833
2014    8       29    18  23    4.95   628.9    3.3      58.815
2014    8       29    18  29    4.95   629.0    3.3      58.797
2014    8       29    18  35    4.94   629.1    3.3      58.780
2014    8       29    18  41    4.94   629.2    3.3      58.762
2014    8       29    18  47    4.93   629.3    3.3      58.745
2014    8       29    18  53    4.93   629.5    3.3      58.728
2014    8       29    18  59    4.92   629.6    3.3      58.712
2014    8       29    19   5    4.92   629.7    3.3      58.696
2014    8       29    19  11    4.91   629.8    3.3      58.680
2014    8       29    19  17    4.91   629.9    3.3      58.664
2014    8       29    19  23    4.90   630.0    3.3      58.649
2014    8       29    19  29    4.90   630.1    3.3      58.633
2014    8       29    19  35    4.89   630.3    3.3      58.618
2014    8       29    19  41    4.89   630.4    3.3      58.603
2014    8       29    19  47    4.88   630.5    3.3      58.588
2014    8       29    19  53    4.88   630.6    3.3      58.574
2014    8       29    19  59    4.88   630.7    3.3      58.559
2014    8       29    20   5    4.87   630.8    3.2      58.544
2014    8       29    20  11    4.87   630.9    3.2      58.529
2014    8       29    20  17    4.86   631.0    3.2      58.515
2014    8       29    20  23    4.86   631.1    3.2      58.500
2014    8       29    20  29    4.85   631.2    3.2      58.486
2014    8       29    20  35    4.85   631.3    3.2      58.471
2014    8       29    20  41    4.85   631.4    3.2      58.457
2014    8       29    20  47    4.84   631.5    3.2      58.444
2014    8       29    20  53    4.84   631.6    3.2      58.430
2014    8       29    20  59    4.83   631.7    3.2      58.416
2014    8       29    21   5    4.83   631.8    3.2      58.403
2014    8       29    21  11    4.83   631.9    3.2      58.390
2014    8       29    21  17    4.82   632.0    3.2      58.378
2014    8       29    21  23    4.82   632.1    3.2      58.366
2014    8       29    21  29    4.81   632.2    3.2      58.354
2014    8       29    21  35    4.81   632.3    3.2      58.343
2014    8       29    21  41    4.81   632.4    3.2      58.332
2014    8       29    21  47    4.80   632.4    3.2      58.322
2014    8       29    21  53    4.80   632.5    3.2      58.312
2014    8       29    21  59    4.80   632.6    3.2      58.303
2014    8       29    22   5    4.79   632.7    3.2      58.294
2014    8       29    22  11    4.79   632.8    3.2      58.286
2014    8       29    22  17    4.79   632.8    3.2      58.279
2014    8       29    22  23    4.78   632.9    3.2      58.272
2014    8       29    22  29    4.78   633.0    3.2      58.266
2014    8       29    22  35    4.78   633.1    3.2      58.260
2014    8       29    22  41    4.77   633.2    3.2      58.255
2014    8       29    22  47    4.77   633.2    3.2      58.250
2014    8       29    22  53    4.77   633.3    3.2      58.245
2014    8       29    22  59    4.76   633.4    3.2      58.241
2014    8       29    23   5    4.76   633.4    3.2      58.238
2014    8       29    23  11    4.76   633.5    3.2      58.235
2014    8       29    23  17    4.76   633.6    3.2      58.232
2014    8       29    23  23    4.75   633.6    3.2      58.229
2014    8       29    23  29    4.75   633.7    3.2      58.227
2014    8       29    23  35    4.75   633.8    3.1      58.225
2014    8       29    23  41    4.74   633.8    3.1      58.223
2014    8       29    23  47    4.74   633.9    3.1      58.221
2014    8       29    23  53    4.74   633.9    3.1      58.219
2014    8       29    23  59    4.74   634.0    3.1      58.218
2014    8       30     0   5    4.73   634.1    3.1      58.216
2014    8       30     0  11    4.73   634.1    3.1      58.215
2014    8       30     0  17    4.73   634.2    3.1      58.214
2014    8       30     0  22    4.73   634.2    3.1      58.213
2014    8       30     0  28    4.72   634.3    3.1      58.212
2014    8       30     0  34    4.72   634.3    3.1      58.211
2014    8       30     0  40    4.72   634.4    3.1      58.210
2014    8       30     0  46    4.72   634.5    3.1      58.209
2014    8       30     0  52    4.72   634.5    3.1      58.208
2014    8       30     0  58    4.71   634.6    3.1      58.208
2014    8       30     1   4    4.71   634.6    3.1      58.207
2014    8       30     1  10    4.71   634.7    3.1      58.207
2014    8       30     1  16    4.71   634.7    3.1      58.206
2014    8       30     1  22    4.71   634.7    3.1      58.206
2014    8       30     1  28    4.70   634.8    3.1      58.206
2014    8       30     1  34    4.70   634.8    3.1      58.206
2014    8       30     1  40    4.70   634.9    3.1      58.206
2014    8       30     1  46    4.70   634.9    3.1      58.206
2014    8       30     1  52    4.70   635.0    3.1      58.206
2014    8       30     1  58    4.69   635.0    3.1      58.206
2014    8       30     2   4    4.69   635.1    3.1      58.207
2014    8       30     2  10    4.69   635.1    3.1      58.208
2014    8       30     2  16    4.69   635.1    3.1      58.208
2014    8       30     2  22    4.69   635.2    3.1      58.209
2014    8       30     2  28    4.68   635.2    3.1      58.210
2014    8       30     2  34    4.68   635.3    3.1      58.211
2014    8       30     2  40    4.68   635.3    3.1      58.212
2014    8       30     2  46    4.68   635.3    3.1      58.214
2014    8       30     2  52    4.68   635.4    3.1      58.215
2014    8       30     2  58    4.67   635.4    3.1      58.216
2014    8       30     3   4    4.67   635.5    3.1      58.218
2014    8       30     3  10    4.67   635.5    3.1      58.219
2014    8       30     3  16    4.67   635.5    3.1      58.221
2014    8       30     3  22    4.67   635.6    3.1      58.222
2014    8       30     3  28    4.67   635.6    3.1      58.224
2014    8       30     3  34    4.66   635.6    3.1      58.225
2014    8       30     3  40    4.66   635.7    3.1      58.227
2014    8       30     3  46    4.66   635.7    3.1      58.228
2014    8       30     3  52    4.66   635.7    3.1      58.230
2014    8       30     3  58    4.66   635.7    3.1      58.231
2014    8       30     4   4    4.66   635.8    3.1      58.233
2014    8       30     4  10    4.66   635.8    3.1      58.234
2014    8       30     4  16    4.65   635.8    3.1      58.236
2014    8       30     4  22    4.65   635.9    3.1      58.237
2014    8       30     4  28    4.65   635.9    3.1      58.238
2014    8       30     4  34    4.65   635.9    3.1      58.240
2014    8       30     4  40    4.65   635.9    3.1      58.241
2014    8       30     4  46    4.65   636.0    3.1      58.242
2014    8       30     4  52    4.64   636.0    3.1      58.243
2014    8       30     4  58    4.64   636.0    3.1      58.245
2014    8       30     5   4    4.64   636.0    3.1      58.246
2014    8       30     5  10    4.64   636.1    3.1      58.247
2014    8       30     5  16    4.64   636.1    3.1      58.248
2014    8       30     5  22    4.64   636.1    3.1      58.249
2014    8       30     5  28    4.64   636.1    3.1      58.250
2014    8       30     5  34    4.63   636.1    3.1      58.252
2014    8       30     5  40    4.63   636.2    3.1      58.253
2014    8       30     5  46    4.63   636.2    3.1      58.254
2014    8       30     5  52    4.63   636.2    3.1      58.255
2014    8       30     5  58    4.63   636.2    3.1      58.257
2014    8       30     6   4    4.63   636.2    3.1      58.258
2014    8       30     6  10    4.63   636.3    3.1      58.260
2014    8       30     6  16    4.62   636.3    3.1      58.262
2014    8       30     6  22    4.62   636.3    3.1      58.263
2014    8       30     6  28    4.62   636.3    3.1      58.265
2014    8       30     6  34    4.62   636.3    3.1      58.267
2014    8       30     6  40    4.62   636.3    3.1      58.269
2014    8       30     6  46    4.62   636.4    3.1      58.271
2014    8       30     6  52    4.62   636.4    3.1      58.274
2014    8       30     6  58    4.61   636.4    3.1      58.276
2014    8       30     7   4    4.61   636.4    3.1      58.279
2014    8       30     7   9    4.61   636.4    3.1      58.281
2014    8       30     7  15    4.61   636.4    3.0      58.284
2014    8       30     7  21    4.61   636.5    3.0      58.287
2014    8       30     7  27    4.61   636.5    3.0      58.290
2014    8       30     7  33    4.61   636.5    3.0      58.293
2014    8       30     7  39    4.61   636.5    3.0      58.296
2014    8       30     7  45    4.60   636.5    3.0      58.300
2014    8       30     7  51    4.60   636.5    3.0      58.303
2014    8       30     7  57    4.60   636.5    3.0      58.307
2014    8       30     8   3    4.60   636.6    3.0      58.310
2014    8       30     8   9    4.60   636.6    3.0      58.314
2014    8       30     8  15    4.60   636.6    3.0      58.318
2014    8       30     8  21    4.60   636.6    3.0      58.321
2014    8       30     8  27    4.60   636.6    3.0      58.325
2014    8       30     8  33    4.59   636.6    3.0      58.329
2014    8       30     8  39    4.59   636.6    3.0      58.333
2014    8       30     8  45    4.59   636.6    3.0      58.336
2014    8       30     8  51    4.59   636.7    3.0      58.340
2014    8       30     8  57    4.59   636.7    3.0      58.344
2014    8       30     9   3    4.59   636.7    3.0      58.347
2014    8       30     9   9    4.59   636.7    3.0      58.351
2014    8       30     9  15    4.59   636.7    3.0      58.354
2014    8       30     9  21    4.58   636.7    3.0      58.358
2014    8       30     9  27    4.58   636.7    3.0      58.361
2014    8       30     9  33    4.58   636.7    3.0      58.364
2014    8       30     9  39    4.58   636.7    3.0      58.367
2014    8       30     9  45    4.58   636.7    3.0      58.370
2014    8       30     9  51    4.58   636.7    3.0      58.373
2014    8       30     9  57    4.58   636.7    3.0      58.376
2014    8       30    10   3    4.58   636.8    3.0      58.379
2014    8       30    10   9    4.57   636.8    3.0      58.381
2014    8       30    10  15    4.57   636.8    3.0      58.384
2014    8       30    10  21    4.57   636.8    3.0      58.386
2014    8       30    10  27    4.57   636.8    3.0      58.388
2014    8       30    10  33    4.57   636.8    3.0      58.391
2014    8       30    10  39    4.57   636.8    3.0      58.393
2014    8       30    10  45    4.57   636.8    3.0      58.395
2014    8       30    10  51    4.57   636.8    3.0      58.397
2014    8       30    10  57    4.56   636.8    3.0      58.399
2014    8       30    11   3    4.56   636.8    3.0      58.401
2014    8       30    11   9    4.56   636.8    3.0      58.403
2014    8       30    11  15    4.56   636.8    3.0      58.404
2014    8       30    11  21    4.56   636.8    3.0      58.406
2014    8       30    11  27    4.56   636.8    3.0      58.407
2014    8       30    11  33    4.56   636.8    3.0      58.409
2014    8       30    11  39    4.56   636.8    3.0      58.410
2014    8       30    11  45    4.56   636.8    3.0      58.411
2014    8       30    11  51    4.55   636.8    3.0      58.413
2014    8       30    11  57    4.55   636.8    3.0      58.414
2014    8       30    12   3    4.55   636.8    3.0      58.415
2014    8       30    12   9    4.55   636.8    3.0      58.416
2014    8       30    12  15    4.55   636.8    3.0      58.416
2014    8       30    12  21    4.55   636.8    3.0      58.417
2014    8       30    12  27    4.55   636.8    3.0      58.417
2014    8       30    12  33    4.55   636.8    3.0      58.418
2014    8       30    12  39    4.54   636.8    3.0      58.418
2014    8       30    12  45    4.54   636.7    3.0      58.418
2014    8       30    12  51    4.54   636.7    3.0      58.418
2014    8       30    12  57    4.54   636.7    3.0      58.418
2014    8       30    13   3    4.54   636.7    3.0      58.417
2014    8       30    13   9    4.54   636.7    3.0      58.417
2014    8       30    13  15    4.54   636.7    3.0      58.417
2014    8       30    13  21    4.54   636.7    3.0      58.416
2014    8       30    13  27    4.54   636.7    3.0      58.416
2014    8       30    13  33    4.53   636.7    3.0      58.415
2014    8       30    13  39    4.53   636.7    3.0      58.414
2014    8       30    13  45    4.53   636.7    3.0      58.414
2014    8       30    13  51    4.53   636.7    3.0      58.413
2014    8       30    13  56    4.53   636.6    3.0      58.413
2014    8       30    14   2    4.53   636.6    3.0      58.412
2014    8       30    14   8    4.53   636.6    3.0      58.412
2014    8       30    14  14    4.53   636.6    3.0      58.412
2014    8       30    14  20    4.53   636.6    3.0      58.411
2014    8       30    14  26    4.52   636.6    3.0      58.412
2014    8       30    14  32    4.52   636.6    3.0      58.412
2014    8       30    14  38    4.52   636.6    3.0      58.412
2014    8       30    14  44    4.52   636.6    3.0      58.413
2014    8       30    14  50    4.52   636.6    3.0      58.414
2014    8       30    14  56    4.52   636.6    3.0      58.415
2014    8       30    15   2    4.52   636.5    3.0      58.416
2014    8       30    15   8    4.52   636.5    3.0      58.418
2014    8       30    15  14    4.52   636.5    3.0      58.420
2014    8       30    15  20    4.52   636.5    3.0      58.422
2014    8       30    15  26    4.51   636.5    3.0      58.424
2014    8       30    15  32    4.51   636.5    3.0      58.427
2014    8       30    15  38    4.51   636.5    3.0      58.429
2014    8       30    15  44    4.51   636.5    3.0      58.432
2014    8       30    15  50    4.51   636.5    3.0      58.435
2014    8       30    15  56    4.51   636.5    3.0      58.439
2014    8       30    16   2    4.51   636.5    3.0      58.442
2014    8       30    16   8    4.51   636.5    3.0      58.445
2014    8       30    16  14    4.51   636.5    3.0      58.449
2014    8       30    16  20    4.51   636.4    3.0      58.452
2014    8       30    16  26    4.50   636.4    3.0      58.455
2014    8       30    16  32    4.50   636.4    3.0      58.458
2014    8       30    16  38    4.50   636.4    3.0      58.461
2014    8       30    16  44    4.50   636.4    3.0      58.464
2014    8       30    16  50    4.50   636.4    3.0      58.467
2014    8       30    16  56    4.50   636.4    3.0      58.469
2014    8       30    17   2    4.50   636.4    3.0      58.471
2014    8       30    17   8    4.50   636.4    3.0      58.473
2014    8       30    17  14    4.50   636.4    3.0      58.474
2014    8       30    17  20    4.50   636.3    3.0      58.476
2014    8       30    17  26    4.49   636.3    3.0      58.477
2014    8       30    17  32    4.49   636.3    3.0      58.477
2014    8       30    17  38    4.49   636.3    3.0      58.478
2014    8       30    17  44    4.49   636.3    3.0      58.478
2014    8       30    17  50    4.49   636.3    3.0      58.478
2014    8       30    17  56    4.49   636.2    3.0      58.478
2014    8       30    18   2    4.49   636.2    3.0      58.478
2014    8       30    18   8    4.49   636.2    3.0      58.477
2014    8       30    18  14    4.49   636.2    3.0      58.477
2014    8       30    18  20    4.48   636.2    3.0      58.476
2014    8       30    18  26    4.48   636.1    3.0      58.476
2014    8       30    18  32    4.48   636.1    3.0      58.475
2014    8       30    18  38    4.48   636.1    3.0      58.475
2014    8       30    18  44    4.48   636.1    3.0      58.475
2014    8       30    18  50    4.48   636.1    3.0      58.475
2014    8       30    18  56    4.48   636.0    3.0      58.475
2014    8       30    19   2    4.48   636.0    3.0      58.476
2014    8       30    19   8    4.48   636.0    3.0      58.477
2014    8       30    19  14    4.48   636.0    3.0      58.478
2014    8       30    19  20    4.47   636.0    3.0      58.479
2014    8       30    19  26    4.47   635.9    3.0      58.480
2014    8       30    19  32    4.47   635.9    3.0      58.482
2014    8       30    19  38    4.47   635.9    3.0      58.484
2014    8       30    19  44    4.47   635.9    3.0      58.486
2014    8       30    19  50    4.47   635.9    3.0      58.488
2014    8       30    19  56    4.47   635.8    3.0      58.489
2014    8       30    20   2    4.47   635.8    3.0      58.491
2014    8       30    20   8    4.47   635.8    3.0      58.493
2014    8       30    20  14    4.47   635.8    3.0      58.495
2014    8       30    20  19    4.47   635.8    3.0      58.497
2014    8       30    20  25    4.46   635.7    3.0      58.499
2014    8       30    20  31    4.46   635.7    3.0      58.502
2014    8       30    20  37    4.46   635.7    3.0      58.503
2014    8       30    20  43    4.46   635.7    3.0      58.505
2014    8       30    20  49    4.46   635.7    3.0      58.506
2014    8       30    20  55    4.46   635.6    3.0      58.507
2014    8       30    21   1    4.46   635.6    3.0      58.507
2014    8       30    21   7    4.46   635.6    3.0      58.507
2014    8       30    21  13    4.46   635.6    3.0      58.506
2014    8       30    21  19    4.45   635.5    3.0      58.505
2014    8       30    21  25    4.45   635.5    3.0      58.504
2014    8       30    21  31    4.45   635.5    3.0      58.501
2014    8       30    21  37    4.45   635.4    3.0      58.499
2014    8       30    21  43    4.45   635.4    3.0      58.496
2014    8       30    21  49    4.45   635.4    3.0      58.492
2014    8       30    21  55    4.45   635.4    3.0      58.489
2014    8       30    22   1    4.45   635.3    3.0      58.484
2014    8       30    22   7    4.45   635.3    3.0      58.480
2014    8       30    22  13    4.45   635.3    3.0      58.476
2014    8       30    22  19    4.44   635.2    3.0      58.471
2014    8       30    22  25    4.44   635.2    3.0      58.466
2014    8       30    22  31    4.44   635.2    3.0      58.461
2014    8       30    22  37    4.44   635.1    3.0      58.455
2014    8       30    22  43    4.44   635.1    3.0      58.450
2014    8       30    22  49    4.44   635.1    3.0      58.444
2014    8       30    22  55    4.44   635.0    3.0      58.439
2014    8       30    23   1    4.44   635.0    3.0      58.433
2014    8       30    23   7    4.44   635.0    3.0      58.428
2014    8       30    23  13    4.43   634.9    3.0      58.423
2014    8       30    23  19    4.43   634.9    3.0      58.418
2014    8       30    23  25    4.43   634.9    3.0      58.413
2014    8       30    23  31    4.43   634.8    3.0      58.408
2014    8       30    23  37    4.43   634.8    3.0      58.404
2014    8       30    23  43    4.43   634.7    3.0      58.400
2014    8       30    23  49    4.43   634.7    3.0      58.396
2014    8       30    23  55    4.43   634.7    3.0      58.393
2014    8       31     0   1    4.43   634.6    3.0      58.390
2014    8       31     0   7    4.43   634.6    3.0      58.387
2014    8       31     0  13    4.42   634.6    3.0      58.385
2014    8       31     0  19    4.42   634.5    3.0      58.383
2014    8       31     0  25    4.42   634.5    3.0      58.382
2014    8       31     0  31    4.42   634.5    3.0      58.381
2014    8       31     0  37    4.42   634.4    3.0      58.380
2014    8       31     0  43    4.42   634.4    3.0      58.379
2014    8       31     0  49    4.42   634.3    3.0      58.379
2014    8       31     0  55    4.42   634.3    3.0      58.379
2014    8       31     1   1    4.42   634.3    3.0      58.379
2014    8       31     1   7    4.42   634.2    3.0      58.379
2014    8       31     1  13    4.41   634.2    3.0      58.379
2014    8       31     1  19    4.41   634.2    3.0      58.379
2014    8       31     1  25    4.41   634.1    3.0      58.379
2014    8       31     1  31    4.41   634.1    3.0      58.379
2014    8       31     1  37    4.41   634.0    3.0      58.378
2014    8       31     1  43    4.41   634.0    3.0      58.377
2014    8       31     1  49    4.41   634.0    3.0      58.376
2014    8       31     1  55    4.41   633.9    3.0      58.374
2014    8       31     2   1    4.41   633.9    3.0      58.371
2014    8       31     2   7    4.41   633.8    3.0      58.368
2014    8       31     2  13    4.40   633.8    3.0      58.365
2014    8       31     2  19    4.40   633.8    3.0      58.361
2014    8       31     2  25    4.40   633.7    3.0      58.356
2014    8       31     2  31    4.40   633.7    3.0      58.352
2014    8       31     2  37    4.40   633.6    3.0      58.347
2014    8       31     2  43    4.40   633.6    3.0      58.341
2014    8       31     2  48    4.40   633.5    3.0      58.336
2014    8       31     2  54    4.40   633.5    3.0      58.330
2014    8       31     3   0    4.40   633.5    3.0      58.324
2014    8       31     3   6    4.39   633.4    3.0      58.318
2014    8       31     3  12    4.39   633.4    3.0      58.311
2014    8       31     3  18    4.39   633.3    3.0      58.305
2014    8       31     3  24    4.39   633.3    3.0      58.298
2014    8       31     3  30    4.39   633.3    3.0      58.291
2014    8       31     3  36    4.39   633.2    3.0      58.284
2014    8       31     3  42    4.39   633.2    3.0      58.277
2014    8       31     3  48    4.39   633.1    3.0      58.270
2014    8       31     3  54    4.39   633.1    3.0      58.262
2014    8       31     4   0    4.38   633.0    3.0      58.255
2014    8       31     4   6    4.38   633.0    3.0      58.247
2014    8       31     4  12    4.38   633.0    3.0      58.240
2014    8       31     4  18    4.38   632.9    3.0      58.233
2014    8       31     4  24    4.38   632.9    3.0      58.226
2014    8       31     4  30    4.38   632.8    3.0      58.219
2014    8       31     4  36    4.38   632.8    3.0      58.212
2014    8       31     4  42    4.38   632.7    3.0      58.204
2014    8       31     4  48    4.37   632.7    3.0      58.197
2014    8       31     4  54    4.37   632.6    3.0      58.188
2014    8       31     5   0    4.37   632.6    3.0      58.180
2014    8       31     5   6    4.37   632.5    3.0      58.171
2014    8       31     5  12    4.37   632.5    3.0      58.162
2014    8       31     5  18    4.37   632.4    3.0      58.153
2014    8       31     5  24    4.37   632.4    3.0      58.143
2014    8       31     5  30    4.37   632.3    3.0      58.134
2014    8       31     5  36    4.36   632.3    3.0      58.124
2014    8       31     5  42    4.36   632.2    3.0      58.114
2014    8       31     5  48    4.36   632.1    3.0      58.104
2014    8       31     5  54    4.36   632.1    3.0      58.093
2014    8       31     6   0    4.36   632.0    3.0      58.083
2014    8       31     6   6    4.36   631.9    3.0      58.072
2014    8       31     6  12    4.36   631.9    3.0      58.061
2014    8       31     6  18    4.36   631.8    3.0      58.050
2014    8       31     6  24    4.35   631.7    3.0      58.039
2014    8       31     6  30    4.35   631.7    3.0      58.027
2014    8       31     6  36    4.35   631.6    3.0      58.016
2014    8       31     6  42    4.35   631.5    3.0      58.003
2014    8       31     6  48    4.35   631.5    3.0      57.991
2014    8       31     6  54    4.35   631.4    3.0      57.979
2014    8       31     7   0    4.35   631.3    3.0      57.966
2014    8       31     7   6    4.35   631.3    3.0      57.954
2014    8       31     7  12    4.34   631.2    3.0      57.941
2014    8       31     7  18    4.34   631.1    3.0      57.929
2014    8       31     7  24    4.34   631.0    3.0      57.917
2014    8       31     7  30    4.34   631.0    3.0      57.905
2014    8       31     7  36    4.34   630.9    3.0      57.893
2014    8       31     7  42    4.34   630.8    3.0      57.882
2014    8       31     7  48    4.34   630.7    3.0      57.871
2014    8       31     7  54    4.34   630.7    3.0      57.860
2014    8       31     8   0    4.34   630.6    3.0      57.850
2014    8       31     8   6    4.33   630.5    3.0      57.841
2014    8       31     8  12    4.33   630.4    3.0      57.833
2014    8       31     8  18    4.33   630.4    3.0      57.825
2014    8       31     8  24    4.33   630.3    3.0      57.817
2014    8       31     8  30    4.33   630.2    3.0      57.810
2014    8       31     8  36    4.33   630.1    3.0      57.804
2014    8       31     8  42    4.33   630.1    3.0      57.799
2014    8       31     8  48    4.33   630.0    3.0      57.794
2014    8       31     8  54    4.33   629.9    3.0      57.789
2014    8       31     9   0    4.32   629.8    3.0      57.785
2014    8       31     9   6    4.32   629.8    3.0      57.782
2014    8       31     9  12    4.32   629.7    3.0      57.779
2014    8       31     9  18    4.32   629.6    3.0      57.777
2014    8       31     9  23    4.32   629.6    3.0      57.774
2014    8       31     9  29    4.32   629.5    3.0      57.771
2014    8       31     9  35    4.32   629.4    3.0      57.768
2014    8       31     9  41    4.32   629.3    3.0      57.764
2014    8       31     9  47    4.32   629.3    3.0      57.758
2014    8       31     9  53    4.31   629.2    3.0      57.752
2014    8       31     9  59    4.31   629.1    3.0      57.744
2014    8       31    10   5    4.31   629.0    3.0      57.736
2014    8       31    10  11    4.31   629.0    3.0      57.727
2014    8       31    10  17    4.31   628.9    3.0      57.716
2014    8       31    10  23    4.31   628.8    3.0      57.705
2014    8       31    10  29    4.31   628.7    3.0      57.693
2014    8       31    10  35    4.31   628.7    3.0      57.680
2014    8       31    10  41    4.30   628.6    3.0      57.666
2014    8       31    10  47    4.30   628.5    3.0      57.652
2014    8       31    10  53    4.30   628.4    3.0      57.636
2014    8       31    10  59    4.30   628.3    3.0      57.620
2014    8       31    11   5    4.30   628.3    3.0      57.604
2014    8       31    11  11    4.30   628.2    3.0      57.586
2014    8       31    11  17    4.30   628.1    3.0      57.568
2014    8       31    11  23    4.29   628.0    3.0      57.549
2014    8       31    11  29    4.29   627.9    3.0      57.530
2014    8       31    11  35    4.29   627.8    3.0      57.510
2014    8       31    11  41    4.29   627.8    3.0      57.489
2014    8       31    11  47    4.29   627.7    3.0      57.468
2014    8       31    11  53    4.29   627.6    3.0      57.447
2014    8       31    11  59    4.29   627.5    3.0      57.425
2014    8       31    12   5    4.28   627.4    3.0      57.403
2014    8       31    12  11    4.28   627.3    3.0      57.380
2014    8       31    12  17    4.28   627.2    3.0      57.358
2014    8       31    12  23    4.28   627.1    3.0      57.335
2014    8       31    12  29    4.28   627.0    3.0      57.313
2014    8       31    12  35    4.28   627.0    3.0      57.291
2014    8       31    12  41    4.28   626.9    3.0      57.269
2014    8       31    12  47    4.27   626.8    3.0      57.247
2014    8       31    12  53    4.27   626.7    3.0      57.226
2014    8       31    12  59    4.27   626.6    3.0      57.205
2014    8       31    13   5    4.27   626.5    3.0      57.185
2014    8       31    13  11    4.27   626.4    3.0      57.165
2014    8       31    13  17    4.27   626.3    3.0      57.145
2014    8       31    13  23    4.27   626.2    3.0      57.126
2014    8       31    13  29    4.27   626.1    3.0      57.108
2014    8       31    13  35    4.26   626.0    3.0      57.089
2014    8       31    13  41    4.26   625.9    3.0      57.071
2014    8       31    13  47    4.26   625.8    3.0      57.054
2014    8       31    13  53    4.26   625.7    3.0      57.036
2014    8       31    13  59    4.26   625.6    3.0      57.019
2014    8       31    14   5    4.26   625.5    3.0      57.002
2014    8       31    14  11    4.26   625.4    3.0      56.986
2014    8       31    14  17    4.25   625.3    3.0      56.969
2014    8       31    14  23    4.25   625.2    3.0      56.952
2014    8       31    14  29    4.25   625.1    3.0      56.935
2014    8       31    14  35    4.25   625.0    3.0      56.919
2014    8       31    14  41    4.25   624.9    3.0      56.902
2014    8       31    14  47    4.25   624.7    3.0      56.885
2014    8       31    14  53    4.25   624.6    3.0      56.868
2014    8       31    14  59    4.25   624.5    3.0      56.851
2014    8       31    15   5    4.24   624.4    3.0      56.834
2014    8       31    15  11    4.24   624.3    3.0      56.817
2014    8       31    15  17    4.24   624.2    3.0      56.799
2014    8       31    15  23    4.24   624.1    3.0      56.782
2014    8       31    15  29    4.24   624.0    3.0      56.765
2014    8       31    15  35    4.24   623.9    3.0      56.748
2014    8       31    15  41    4.24   623.7    3.0      56.731
2014    8       31    15  46    4.24   623.6    3.0      56.714
2014    8       31    15  52    4.23   623.5    3.0      56.697
2014    8       31    15  58    4.23   623.4    3.0      56.681
2014    8       31    16   4    4.23   623.3    3.0      56.665
2014    8       31    16  10    4.23   623.2    3.0      56.649
2014    8       31    16  16    4.23   623.1    3.0      56.633
2014    8       31    16  22    4.23   622.9    3.0      56.618
2014    8       31    16  28    4.23   622.8    3.0      56.602
2014    8       31    16  34    4.23   622.7    3.0      56.588
2014    8       31    16  40    4.22   622.6    3.0      56.574
2014    8       31    16  46    4.22   622.5    3.0      56.559
2014    8       31    16  52    4.22   622.4    3.0      56.546
2014    8       31    16  58    4.22   622.3    3.0      56.532
2014    8       31    17   4    4.22   622.2    3.0      56.519
2014    8       31    17  10    4.22   622.1    3.0      56.505
2014    8       31    17  16    4.22   621.9    3.0      56.492
2014    8       31    17  22    4.22   621.8    3.0      56.480
2014    8       31    17  28    4.21   621.7    3.0      56.467
2014    8       31    17  34    4.21   621.6    3.0      56.454
2014    8       31    17  40    4.21   621.5    3.0      56.441
2014    8       31    17  46    4.21   621.4    3.0      56.428
2014    8       31    17  52    4.21   621.3    3.0      56.415
2014    8       31    17  58    4.21   621.1    3.0      56.401
2014    8       31    18   4    4.21   621.0    3.0      56.387
2014    8       31    18  10    4.21   620.9    3.0      56.373
2014    8       31    18  16    4.20   620.8    3.0      56.358
2014    8       31    18  22    4.20   620.7    3.0      56.343
2014    8       31    18  28    4.20   620.5    3.0      56.328
2014    8       31    18  34    4.20   620.4    3.0      56.313
2014    8       31    18  40    4.20   620.3    3.0      56.298
2014    8       31    18  46    4.20   620.2    3.0      56.283
2014    8       31    18  52    4.20   620.1    3.0      56.267
2014    8       31    18  58    4.19   619.9    3.0      56.251
2014    8       31    19   4    4.19   619.8    3.0      56.235
2014    8       31    19  10    4.19   619.7    3.0      56.217
2014    8       31    19  16    4.19   619.6    3.0      56.199
2014    8       31    19  22    4.19   619.4    3.0      56.180
2014    8       31    19  28    4.19   619.3    3.0      56.160
2014    8       31    19  34    4.19   619.2    3.0      56.139
2014    8       31    19  40    4.19   619.1    3.0      56.118
2014    8       31    19  46    4.18   618.9    3.0      56.096
2014    8       31    19  52    4.18   618.8    3.0      56.073
2014    8       31    19  58    4.18   618.7    3.0      56.049
2014    8       31    20   4    4.18   618.6    3.0      56.026
2014    8       31    20  10    4.18   618.5    3.0      56.001
2014    8       31    20  16    4.18   618.3    3.0      55.977
2014    8       31    20  22    4.18   618.2    3.0      55.952
2014    8       31    20  28    4.18   618.1    3.0      55.926
2014    8       31    20  34    4.17   618.0    3.0      55.900
2014    8       31    20  40    4.17   617.8    3.0      55.874
2014    8       31    20  46    4.17   617.7    3.0      55.847
2014    8       31    20  52    4.17   617.6    3.0      55.820
2014    8       31    20  58    4.17   617.5    3.0      55.793
2014    8       31    21   4    4.17   617.3    3.0      55.766
2014    8       31    21  10    4.17   617.2    3.0      55.738
2014    8       31    21  16    4.16   617.1    3.0      55.710
2014    8       31    21  22    4.16   617.0    3.0      55.682
2014    8       31    21  28    4.16   616.8    3.0      55.653
2014    8       31    21  34    4.16   616.7    3.0      55.624
2014    8       31    21  40    4.16   616.6    3.0      55.595
2014    8       31    21  46    4.16   616.4    3.0      55.565
2014    8       31    21  52    4.16   616.3    3.0      55.535
2014    8       31    21  58    4.15   616.2    3.0      55.505
2014    8       31    22   4    4.15   616.0    3.0      55.474
2014    8       31    22  10    4.15   615.9    3.0      55.444
2014    8       31    22  16    4.15   615.8    3.0      55.413
2014    8       31    22  21    4.15   615.6    3.0      55.382
2014    8       31    22  27    4.15   615.5    3.0      55.351
2014    8       31    22  33    4.14   615.3    3.0      55.321
2014    8       31    22  39    4.14   615.2    3.0      55.291
2014    8       31    22  45    4.14   615.1    3.0      55.261
2014    8       31    22  51    4.14   614.9    3.0      55.232
2014    8       31    22  57    4.14   614.8    3.0      55.203
2014    8       31    23   3    4.14   614.6    3.0      55.175
2014    8       31    23   9    4.14   614.5    3.0      55.148
2014    8       31    23  15    4.14   614.3    3.0      55.122
2014    8       31    23  21    4.13   614.2    3.0      55.097
2014    8       31    23  27    4.13   614.0    3.0      55.073
2014    8       31    23  33    4.13   613.9    3.0      55.050
2014    8       31    23  39    4.13   613.7    3.0      55.028
2014    8       31    23  45    4.13   613.6    3.0      55.007
2014    8       31    23  51    4.13   613.4    3.0      54.987
2014    8       31    23  57    4.13   613.3    3.0      54.968
2014    9        1     0   3    4.13   613.2    3.0      54.950
2014    9        1     0   9    4.12   613.0    3.0      54.933
2014    9        1     0  15    4.12   612.9    3.0      54.916
2014    9        1     0  21    4.12   612.7    3.0      54.900
2014    9        1     0  27    4.12   612.6    3.0      54.884
2014    9        1     0  33    4.12   612.4    3.0      54.868
2014    9        1     0  39    4.12   612.3    3.0      54.851
2014    9        1     0  45    4.12   612.2    3.0      54.835
2014    9        1     0  51    4.12   612.0    3.0      54.818
2014    9        1     0  57    4.11   611.9    3.0      54.802
2014    9        1     1   3    4.11   611.7    3.0      54.786
2014    9        1     1   9    4.11   611.6    3.0      54.769
2014    9        1     1  15    4.11   611.5    3.0      54.753
2014    9        1     1  21    4.11   611.3    3.0      54.737
2014    9        1     1  27    4.11   611.2    3.0      54.722
2014    9        1     1  33    4.11   611.0    3.0      54.706
2014    9        1     1  39    4.11   610.9    3.0      54.692
2014    9        1     1  45    4.11   610.8    3.0      54.677
2014    9        1     1  51    4.10   610.6    3.0      54.661
2014    9        1     1  57    4.10   610.5    3.0      54.646
2014    9        1     2   3    4.10   610.4    3.0      54.630
2014    9        1     2   9    4.10   610.2    3.0      54.613
2014    9        1     2  15    4.10   610.1    3.0      54.596
2014    9        1     2  21    4.10   609.9    3.0      54.579
2014    9        1     2  27    4.10   609.8    3.0      54.561
2014    9        1     2  33    4.10   609.7    3.0      54.543
2014    9        1     2  39    4.09   609.5    3.0      54.524
2014    9        1     2  45    4.09   609.4    3.0      54.505
2014    9        1     2  51    4.09   609.3    3.0      54.485
2014    9        1     2  57    4.09   609.1    3.0      54.465
2014    9        1     3   3    4.09   609.0    3.0      54.445
2014    9        1     3   9    4.09   608.8    3.0      54.424
2014    9        1     3  15    4.09   608.7    3.0      54.403
2014    9        1     3  21    4.08   608.6    3.0      54.381
2014    9        1     3  27    4.08   608.4    3.0      54.359
2014    9        1     3  33    4.08   608.3    3.0      54.336
2014    9        1     3  39    4.08   608.1    3.0      54.313
2014    9        1     3  45    4.08   608.0    3.0      54.288
2014    9        1     3  51    4.08   607.8    3.0      54.264
2014    9        1     3  57    4.08   607.7    3.0      54.238
2014    9        1     4   3    4.07   607.5    3.0      54.212
2014    9        1     4   9    4.07   607.4    3.0      54.186
2014    9        1     4  15    4.07   607.2    3.0      54.159
2014    9        1     4  21    4.07   607.1    3.0      54.131
2014    9        1     4  27    4.07   607.0    3.0      54.103
2014    9        1     4  33    4.07   606.8    3.0      54.075
2014    9        1     4  39    4.07   606.6    3.0      54.046
2014    9        1     4  45    4.06   606.5    3.0      54.016
2014    9        1     4  50    4.06   606.3    3.0      53.986
2014    9        1     4  56    4.06   606.2    3.0      53.956
2014    9        1     5   2    4.06   606.0    3.0      53.925
2014    9        1     5   8    4.06   605.9    3.0      53.894
2014    9        1     5  14    4.06   605.7    3.0      53.863
2014    9        1     5  20    4.06   605.6    3.0      53.831
2014    9        1     5  26    4.05   605.4    3.0      53.799
2014    9        1     5  32    4.05   605.3    3.0      53.766
2014    9        1     5  38    4.05   605.1    3.0      53.732
2014    9        1     5  44    4.05   605.0    3.0      53.698
2014    9        1     5  50    4.05   604.8    3.0      53.662
2014    9        1     5  56    4.05   604.7    3.0      53.627
2014    9        1     6   2    4.05   604.5    3.0      53.590
2014    9        1     6   8    4.05   604.3    3.0      53.553
2014    9        1     6  14    4.04   604.2    3.0      53.517
2014    9        1     6  20    4.04   604.0    3.0      53.479
2014    9        1     6  26    4.04   603.9    3.0      53.442
2014    9        1     6  32    4.04   603.7    3.0      53.405
2014    9        1     6  38    4.04   603.5    3.0      53.368
2014    9        1     6  44    4.04   603.4    3.0      53.331
2014    9        1     6  50    4.04   603.2    3.0      53.295
2014    9        1     6  56    4.03   603.0    3.0      53.259
2014    9        1     7   2    4.03   602.9    3.0      53.224
2014    9        1     7   8    4.03   602.7    3.0      53.189
2014    9        1     7  14    4.03   602.5    3.0      53.155
2014    9        1     7  20    4.03   602.4    3.0      53.122
2014    9        1     7  26    4.03   602.2    3.0      53.089
2014    9        1     7  32    4.03   602.0    3.0      53.057
2014    9        1     7  38    4.03   601.9    3.0      53.025
2014    9        1     7  44    4.02   601.7    3.0      52.995
2014    9        1     7  50    4.02   601.5    3.0      52.966
2014    9        1     7  56    4.02   601.4    3.0      52.938
2014    9        1     8   2    4.02   601.2    3.0      52.910
2014    9        1     8   8    4.02   601.0    3.0      52.883
2014    9        1     8  14    4.02   600.8    3.0      52.858
2014    9        1     8  20    4.02   600.7    3.0      52.833
2014    9        1     8  26    4.02   600.5    3.0      52.808
2014    9        1     8  32    4.01   600.3    3.0      52.784
2014    9        1     8  38    4.01   600.2    3.0      52.762
2014    9        1     8  44    4.01   600.0    3.0      52.740
2014    9        1     8  50    4.01   599.8    3.0      52.720
2014    9        1     8  56    4.01   599.6    3.0      52.702
2014    9        1     9   2    4.01   599.5    3.0      52.684
2014    9        1     9   8    4.01   599.3    3.0      52.667
2014    9        1     9  14    4.01   599.1    3.0      52.651
2014    9        1     9  20    4.00   599.0    3.0      52.635
2014    9        1     9  26    4.00   598.8    3.0      52.619
2014    9        1     9  32    4.00   598.7    3.0      52.603
2014    9        1     9  38    4.00   598.5    3.0      52.587
2014    9        1     9  44    4.00   598.3    3.0      52.572
2014    9        1     9  50    4.00   598.2    3.0      52.556
2014    9        1     9  56    4.00   598.0    3.0      52.540
2014    9        1    10   2    4.00   597.9    3.0      52.523
2014    9        1    10   8    3.99   597.7    3.0      52.506
2014    9        1    10  14    3.99   597.5    3.0      52.488
2014    9        1    10  20    3.99   597.4    3.0      52.470
2014    9        1    10  26    3.99   597.2    3.0      52.451
2014    9        1    10  32    3.99   597.1    3.0      52.431
2014    9        1    10  38    3.99   596.9    3.0      52.410
2014    9        1    10  44    3.99   596.7    3.0      52.389
2014    9        1    10  50    3.99   596.6    3.0      52.367
2014    9        1    10  56    3.98   596.4    3.0      52.344
2014    9        1    11   2    3.98   596.2    3.0      52.320
2014    9        1    11   8    3.98   596.1    3.0      52.296
2014    9        1    11  14    3.98   595.9    3.0      52.272
2014    9        1    11  19    3.98   595.8    3.0      52.247
2014    9        1    11  25    3.98   595.6    3.0      52.221
2014    9        1    11  31    3.98   595.4    3.0      52.195
2014    9        1    11  37    3.97   595.3    3.0      52.168
2014    9        1    11  43    3.97   595.1    3.0      52.141
2014    9        1    11  49    3.97   594.9    3.0      52.113
2014    9        1    11  55    3.97   594.8    3.0      52.085
2014    9        1    12   1    3.97   594.6    3.0      52.057
2014    9        1    12   7    3.97   594.4    3.0      52.028
2014    9        1    12  13    3.97   594.3    3.0      51.999
2014    9        1    12  19    3.96   594.1    3.0      51.970
2014    9        1    12  25    3.96   593.9    3.0      51.941
2014    9        1    12  31    3.96   593.8    3.0      51.911
2014    9        1    12  37    3.96   593.6    3.0      51.882
2014    9        1    12  43    3.96   593.4    3.0      51.852
2014    9        1    12  49    3.96   593.2    3.0      51.823
2014    9        1    12  55    3.96   593.1    3.0      51.793
2014    9        1    13   1    3.95   592.9    3.0      51.764
2014    9        1    13   7    3.95   592.7    3.0      51.734
2014    9        1    13  13    3.95   592.5    3.0      51.705
2014    9        1    13  19    3.95   592.4    3.0      51.675
2014    9        1    13  25    3.95   592.2    3.0      51.646
2014    9        1    13  31    3.95   592.0    3.0      51.617
2014    9        1    13  37    3.95   591.8    3.0      51.587
2014    9        1    13  43    3.95   591.7    3.0      51.558
2014    9        1    13  49    3.94   591.5    3.0      51.528
2014    9        1    13  55    3.94   591.3    3.0      51.498
2014    9        1    14   1    3.94   591.1    3.0      51.468
2014    9        1    14   7    3.94   590.9    3.0      51.437
2014    9        1    14  13    3.94   590.8    3.0      51.406
2014    9        1    14  19    3.94   590.6    3.0      51.374
2014    9        1    14  25    3.94   590.4    3.0      51.342
2014    9        1    14  31    3.94   590.2    3.0      51.310
2014    9        1    14  37    3.93   590.1    3.0      51.276
2014    9        1    14  43    3.93   589.9    3.0      51.243
2014    9        1    14  49    3.93   589.7    3.0      51.209
2014    9        1    14  55    3.93   589.5    3.0      51.175
2014    9        1    15   1    3.93   589.3    3.0      51.140
2014    9        1    15   7    3.93   589.1    3.0      51.105
2014    9        1    15  13    3.93   589.0    3.0      51.071
2014    9        1    15  19    3.93   588.8    3.0      51.036
2014    9        1    15  25    3.92   588.6    3.0      51.002
2014    9        1    15  31    3.92   588.4    3.0      50.967
2014    9        1    15  37    3.92   588.2    3.0      50.933
2014    9        1    15  43    3.92   588.0    3.0      50.899
2014    9        1    15  49    3.92   587.9    3.0      50.866
2014    9        1    15  55    3.92   587.7    3.0      50.833
2014    9        1    16   1    3.92   587.5    3.0      50.800
2014    9        1    16   7    3.92   587.3    3.0      50.769
2014    9        1    16  13    3.91   587.1    3.0      50.737
2014    9        1    16  19    3.91   587.0    3.0      50.707
2014    9        1    16  25    3.91   586.8    3.0      50.676
2014    9        1    16  31    3.91   586.6    3.0      50.646
2014    9        1    16  37    3.91   586.4    3.0      50.617
2014    9        1    16  43    3.91   586.2    3.0      50.588
2014    9        1    16  49    3.91   586.0    3.0      50.559
2014    9        1    16  55    3.91   585.9    3.0      50.531
2014    9        1    17   1    3.90   585.7    3.0      50.502
2014    9        1    17   7    3.90   585.5    3.0      50.474
2014    9        1    17  13    3.90   585.3    3.0      50.445
2014    9        1    17  19    3.90   585.1    3.0      50.417
2014    9        1    17  25    3.90   584.9    3.0      50.389
2014    9        1    17  31    3.90   584.7    3.0      50.360
2014    9        1    17  37    3.90   584.5    3.0      50.332
2014    9        1    17  43    3.90   584.4    3.0      50.304
2014    9        1    17  48    3.89   584.2    3.0      50.275
2014    9        1    17  54    3.89   584.0    3.1      50.247
2014    9        1    18   0    3.89   583.8    3.1      50.219
2014    9        1    18   6    3.89   583.6    3.1      50.192
2014    9        1    18  12    3.89   583.4    3.1      50.164
2014    9        1    18  18    3.89   583.2    3.1      50.137
2014    9        1    18  24    3.89   583.0    3.1      50.110
2014    9        1    18  30    3.88   582.8    3.1      50.084
2014    9        1    18  36    3.88   582.6    3.1      50.057
2014    9        1    18  42    3.88   582.4    3.1      50.031
2014    9        1    18  48    3.88   582.2    3.1      50.006
2014    9        1    18  54    3.88   582.0    3.1      49.981
2014    9        1    19   0    3.88   581.8    3.1      49.956
2014    9        1    19   6    3.88   581.6    3.1      49.931
2014    9        1    19  12    3.88   581.4    3.1      49.907
2014    9        1    19  18    3.88   581.2    3.1      49.883
2014    9        1    19  24    3.87   581.0    3.1      49.859
2014    9        1    19  30    3.87   580.8    3.1      49.835
2014    9        1    19  36    3.87   580.6    3.1      49.811
2014    9        1    19  42    3.87   580.5    3.1      49.788
2014    9        1    19  48    3.87   580.3    3.1      49.764
2014    9        1    19  54    3.87   580.1    3.1      49.741
2014    9        1    20   0    3.87   579.9    3.1      49.718
2014    9        1    20   6    3.87   579.7    3.1      49.694
2014    9        1    20  12    3.86   579.5    3.1      49.670
2014    9        1    20  18    3.86   579.3    3.1      49.647
2014    9        1    20  24    3.86   579.1    3.1      49.623
2014    9        1    20  30    3.86   578.9    3.1      49.599
2014    9        1    20  36    3.86   578.7    3.1      49.575
2014    9        1    20  42    3.86   578.5    3.1      49.551
2014    9        1    20  48    3.86   578.3    3.1      49.526
2014    9        1    20  54    3.86   578.2    3.1      49.502
2014    9        1    21   0    3.86   578.0    3.1      49.476
2014    9        1    21   6    3.85   577.8    3.1      49.451
2014    9        1    21  12    3.85   577.6    3.1      49.425
2014    9        1    21  18    3.85   577.4    3.1      49.399
2014    9        1    21  24    3.85   577.2    3.1      49.372
2014    9        1    21  30    3.85   577.0    3.1      49.345
2014    9        1    21  36    3.85   576.8    3.1      49.318
2014    9        1    21  42    3.85   576.6    3.1      49.291
2014    9        1    21  48    3.85   576.4    3.1      49.263
2014    9        1    21  54    3.84   576.2    3.1      49.235
2014    9        1    22   0    3.84   576.0    3.1      49.207
2014    9        1    22   6    3.84   575.9    3.1      49.178
2014    9        1    22  12    3.84   575.7    3.1      49.150
2014    9        1    22  18    3.84   575.5    3.1      49.121
2014    9        1    22  24    3.84   575.3    3.1      49.091
2014    9        1    22  30    3.84   575.1    3.1      49.062
2014    9        1    22  36    3.84   574.9    3.1      49.032
2014    9        1    22  42    3.84   574.7    3.1      49.002
2014    9        1    22  48    3.83   574.5    3.1      48.971
2014    9        1    22  54    3.83   574.3    3.1      48.941
2014    9        1    23   0    3.83   574.1    3.1      48.910
2014    9        1    23   6    3.83   573.9    3.1      48.879
2014    9        1    23  12    3.83   573.7    3.1      48.848
2014    9        1    23  18    3.83   573.5    3.1      48.816
2014    9        1    23  24    3.83   573.3    3.1      48.784
2014    9        1    23  30    3.83   573.2    3.1      48.752
2014    9        1    23  36    3.83   573.0    3.1      48.719
2014    9        1    23  42    3.82   572.8    3.1      48.687
2014    9        1    23  48    3.82   572.6    3.1      48.654
2014    9        1    23  54    3.82   572.4    3.1      48.621
2014    9        2     0   0    3.82   572.2    3.1      48.588
2014    9        2     0   6    3.82   572.0    3.1      48.554
2014    9        2     0  12    3.82   571.8    3.1      48.520
2014    9        2     0  17    3.82   571.6    3.1      48.486
2014    9        2     0  23    3.82   571.4    3.1      48.452
2014    9        2     0  29    3.81   571.2    3.1      48.418
2014    9        2     0  35    3.81   571.0    3.1      48.384
2014    9        2     0  41    3.81   570.8    3.1      48.349
2014    9        2     0  47    3.81   570.6    3.1      48.315
2014    9        2     0  53    3.81   570.4    3.1      48.280
2014    9        2     0  59    3.81   570.2    3.1      48.246
2014    9        2     1   5    3.81   570.0    3.1      48.212
2014    9        2     1  11    3.81   569.8    3.1      48.177
2014    9        2     1  17    3.81   569.6    3.1      48.143
2014    9        2     1  23    3.80   569.4    3.1      48.109
2014    9        2     1  29    3.80   569.2    3.1      48.075
2014    9        2     1  35    3.80   569.0    3.1      48.041
2014    9        2     1  41    3.80   568.8    3.1      48.008
2014    9        2     1  47    3.80   568.6    3.1      47.975
2014    9        2     1  53    3.80   568.4    3.1      47.942
2014    9        2     1  59    3.80   568.2    3.1      47.910
2014    9        2     2   5    3.80   568.0    3.1      47.878
2014    9        2     2  11    3.79   567.8    3.1      47.846
2014    9        2     2  17    3.79   567.6    3.1      47.815
2014    9        2     2  23    3.79   567.4    3.1      47.784
2014    9        2     2  29    3.79   567.2    3.1      47.753
2014    9        2     2  35    3.79   567.0    3.1      47.723
2014    9        2     2  41    3.79   566.8    3.1      47.694
2014    9        2     2  47    3.79   566.6    3.1      47.664
2014    9        2     2  53    3.79   566.4    3.1      47.635
2014    9        2     2  59    3.79   566.1    3.1      47.607
2014    9        2     3   5    3.79   565.9    3.1      47.578
2014    9        2     3  11    3.78   565.7    3.1      47.550
2014    9        2     3  17    3.78   565.5    3.1      47.522
2014    9        2     3  23    3.78   565.3    3.1      47.494
2014    9        2     3  29    3.78   565.1    3.1      47.467
2014    9        2     3  35    3.78   564.9    3.1      47.439
2014    9        2     3  41    3.78   564.7    3.1      47.411
2014    9        2     3  47    3.78   564.5    3.1      47.384
2014    9        2     3  53    3.78   564.3    3.1      47.356
2014    9        2     3  59    3.78   564.1    3.1      47.328
2014    9        2     4   5    3.77   563.9    3.1      47.300
2014    9        2     4  11    3.77   563.7    3.1      47.273
2014    9        2     4  17    3.77   563.5    3.1      47.245
2014    9        2     4  23    3.77   563.2    3.1      47.217
2014    9        2     4  29    3.77   563.0    3.1      47.188
2014    9        2     4  35    3.77   562.8    3.1      47.160
2014    9        2     4  41    3.77   562.6    3.2      47.132
2014    9        2     4  47    3.77   562.4    3.2      47.103
2014    9        2     4  53    3.77   562.2    3.2      47.074
2014    9        2     4  59    3.76   562.0    3.2      47.046
2014    9        2     5   5    3.76   561.8    3.2      47.017
2014    9        2     5  11    3.76   561.5    3.2      46.988
2014    9        2     5  17    3.76   561.3    3.2      46.959
2014    9        2     5  23    3.76   561.1    3.2      46.931
2014    9        2     5  29    3.76   560.9    3.2      46.902
2014    9        2     5  35    3.76   560.7    3.2      46.874
2014    9        2     5  41    3.76   560.5    3.2      46.845
2014    9        2     5  47    3.76   560.3    3.2      46.817
2014    9        2     5  53    3.76   560.1    3.2      46.789
2014    9        2     5  59    3.75   559.9    3.2      46.761
2014    9        2     6   5    3.75   559.7    3.2      46.733
2014    9        2     6  11    3.75   559.4    3.2      46.705
2014    9        2     6  17    3.75   559.2    3.2      46.678
2014    9        2     6  23    3.75   559.0    3.2      46.651
2014    9        2     6  29    3.75   558.8    3.2      46.623
2014    9        2     6  35    3.75   558.6    3.2      46.596
2014    9        2     6  41    3.75   558.4    3.2      46.569
2014    9        2     6  47    3.75   558.2    3.2      46.542
2014    9        2     6  52    3.75   558.0    3.2      46.515
2014    9        2     6  58    3.74   557.8    3.2      46.488
2014    9        2     7   4    3.74   557.6    3.2      46.461
2014    9        2     7  10    3.74   557.4    3.2      46.434
2014    9        2     7  16    3.74   557.2    3.2      46.407
2014    9        2     7  22    3.74   557.0    3.2      46.380
2014    9        2     7  28    3.74   556.8    3.2      46.353
2014    9        2     7  34    3.74   556.6    3.2      46.325
2014    9        2     7  40    3.74   556.4    3.2      46.298
2014    9        2     7  46    3.74   556.2    3.2      46.270
2014    9        2     7  52    3.74   556.0    3.2      46.242
2014    9        2     7  58    3.74   555.8    3.2      46.214
2014    9        2     8   4    3.73   555.5    3.2      46.186
2014    9        2     8  10    3.73   555.3    3.2      46.157
2014    9        2     8  16    3.73   555.1    3.2      46.129
2014    9        2     8  22    3.73   554.9    3.2      46.100
2014    9        2     8  28    3.73   554.7    3.2      46.070
2014    9        2     8  34    3.73   554.5    3.2      46.041
2014    9        2     8  40    3.73   554.3    3.2      46.011
2014    9        2     8  46    3.73   554.1    3.2      45.981
2014    9        2     8  52    3.73   553.9    3.2      45.950
2014    9        2     8  58    3.73   553.7    3.2      45.920
2014    9        2     9   4    3.72   553.5    3.2      45.889
2014    9        2     9  10    3.72   553.3    3.2      45.857
2014    9        2     9  16    3.72   553.1    3.2      45.826
2014    9        2     9  22    3.72   552.9    3.2      45.794
2014    9        2     9  28    3.72   552.7    3.2      45.762
2014    9        2     9  34    3.72   552.5    3.2      45.730
2014    9        2     9  40    3.72   552.3    3.2      45.697
2014    9        2     9  46    3.72   552.0    3.2      45.664
2014    9        2     9  52    3.72   551.8    3.2      45.631
2014    9        2     9  58    3.72   551.6    3.2      45.598
2014    9        2    10   4    3.71   551.4    3.2      45.565
2014    9        2    10  10    3.71   551.2    3.2      45.532
2014    9        2    10  16    3.71   551.0    3.2      45.498
2014    9        2    10  22    3.71   550.8    3.2      45.465
2014    9        2    10  28    3.71   550.6    3.2      45.431
2014    9        2    10  34    3.71   550.4    3.2      45.398
2014    9        2    10  40    3.71   550.2    3.2      45.364
2014    9        2    10  46    3.71   549.9    3.2      45.331
2014    9        2    10  52    3.71   549.7    3.2      45.297
2014    9        2    10  58    3.71   549.5    3.2      45.264
2014    9        2    11   4    3.70   549.3    3.2      45.231
2014    9        2    11  10    3.70   549.1    3.2      45.198
2014    9        2    11  16    3.70   548.9    3.2      45.165
2014    9        2    11  22    3.70   548.7    3.2      45.132
2014    9        2    11  28    3.70   548.4    3.2      45.099
2014    9        2    11  34    3.70   548.2    3.2      45.067
2014    9        2    11  40    3.70   548.0    3.2      45.035
2014    9        2    11  46    3.70   547.8    3.2      45.002
2014    9        2    11  52    3.70   547.6    3.2      44.971
2014    9        2    11  58    3.70   547.3    3.2      44.939
2014    9        2    12   4    3.70   547.1    3.2      44.908
2014    9        2    12  10    3.69   546.9    3.2      44.877
2014    9        2    12  16    3.69   546.7    3.2      44.846
2014    9        2    12  22    3.69   546.5    3.2      44.815
2014    9        2    12  28    3.69   546.3    3.2      44.785
2014    9        2    12  34    3.69   546.0    3.2      44.755
2014    9        2    12  40    3.69   545.8    3.2      44.725
2014    9        2    12  46    3.69   545.6    3.2      44.696
2014    9        2    12  52    3.69   545.4    3.2      44.667
2014    9        2    12  58    3.69   545.2    3.2      44.638
2014    9        2    13   4    3.69   544.9    3.2      44.610
2014    9        2    13  10    3.69   544.7    3.3      44.581
2014    9        2    13  16    3.69   544.5    3.3      44.553
2014    9        2    13  21    3.68   544.3    3.3      44.525
2014    9        2    13  27    3.68   544.1    3.3      44.498
2014    9        2    13  33    3.68   543.9    3.3      44.470
2014    9        2    13  39    3.68   543.6    3.3      44.443
2014    9        2    13  45    3.68   543.4    3.3      44.415
2014    9        2    13  51    3.68   543.2    3.3      44.388
2014    9        2    13  57    3.68   543.0    3.3      44.360
2014    9        2    14   3    3.68   542.8    3.3      44.333
2014    9        2    14   9    3.68   542.6    3.3      44.306
2014    9        2    14  15    3.68   542.3    3.3      44.278
2014    9        2    14  21    3.68   542.1    3.3      44.250
2014    9        2    14  27    3.68   541.9    3.3      44.223
2014    9        2    14  33    3.67   541.7    3.3      44.195
2014    9        2    14  39    3.67   541.5    3.3      44.167
2014    9        2    14  45    3.67   541.3    3.3      44.139
2014    9        2    14  51    3.67   541.0    3.3      44.111
2014    9        2    14  57    3.67   540.8    3.3      44.083
2014    9        2    15   3    3.67   540.6    3.3      44.055
2014    9        2    15   9    3.67   540.4    3.3      44.026
2014    9        2    15  15    3.67   540.2    3.3      43.998
2014    9        2    15  21    3.67   539.9    3.3      43.969
2014    9        2    15  27    3.67   539.7    3.3      43.941
2014    9        2    15  33    3.67   539.5    3.3      43.912
2014    9        2    15  39    3.67   539.3    3.3      43.883
2014    9        2    15  45    3.66   539.1    3.3      43.855
2014    9        2    15  51    3.66   538.8    3.3      43.826
2014    9        2    15  57    3.66   538.6    3.3      43.798
2014    9        2    16   3    3.66   538.4    3.3      43.769
2014    9        2    16   9    3.66   538.2    3.3      43.741
2014    9        2    16  15    3.66   537.9    3.3      43.712
2014    9        2    16  21    3.66   537.7    3.3      43.684
2014    9        2    16  27    3.66   537.5    3.3      43.656
2014    9        2    16  33    3.66   537.3    3.3      43.627
2014    9        2    16  39    3.66   537.1    3.3      43.599
2014    9        2    16  45    3.66   536.8    3.3      43.571
2014    9        2    16  51    3.66   536.6    3.3      43.543
2014    9        2    16  57    3.66   536.4    3.3      43.514
2014    9        2    17   3    3.65   536.2    3.3      43.486
2014    9        2    17   9    3.65   536.0    3.3      43.458
2014    9        2    17  15    3.65   535.8    3.3      43.429
2014    9        2    17  21    3.65   535.5    3.3      43.401
2014    9        2    17  27    3.65   535.3    3.3      43.373
2014    9        2    17  33    3.65   535.1    3.3      43.344
2014    9        2    17  39    3.65   534.9    3.3      43.315
2014    9        2    17  45    3.65   534.7    3.3      43.286
2014    9        2    17  51    3.65   534.5    3.3      43.257
2014    9        2    17  57    3.65   534.2    3.3      43.228
2014    9        2    18   3    3.65   534.0    3.3      43.199
2014    9        2    18   9    3.65   533.8    3.3      43.169
2014    9        2    18  15    3.65   533.6    3.3      43.140
2014    9        2    18  21    3.65   533.4    3.3      43.110
2014    9        2    18  27    3.64   533.2    3.3      43.080
2014    9        2    18  33    3.64   532.9    3.3      43.050
2014    9        2    18  39    3.64   532.7    3.3      43.020
2014    9        2    18  45    3.64   532.5    3.3      42.989
2014    9        2    18  51    3.64   532.3    3.3      42.959
2014    9        2    18  57    3.64   532.1    3.3      42.928
2014    9        2    19   3    3.64   531.9    3.3      42.898
2014    9        2    19   9    3.64   531.7    3.3      42.867
2014    9        2    19  15    3.64   531.4    3.4      42.836
2014    9        2    19  21    3.64   531.2    3.4      42.805
2014    9        2    19  27    3.64   531.0    3.4      42.774
2014    9        2    19  33    3.64   530.8    3.4      42.743
2014    9        2    19  39    3.64   530.6    3.4      42.712
2014    9        2    19  45    3.64   530.4    3.4      42.681
2014    9        2    19  50    3.63   530.1    3.4      42.651
2014    9        2    19  56    3.63   529.9    3.4      42.620
2014    9        2    20   2    3.63   529.7    3.4      42.589
2014    9        2    20   8    3.63   529.5    3.4      42.558
2014    9        2    20  14    3.63   529.3    3.4      42.527
2014    9        2    20  20    3.63   529.1    3.4      42.496
2014    9        2    20  26    3.63   528.8    3.4      42.465
2014    9        2    20  32    3.63   528.6    3.4      42.435
2014    9        2    20  38    3.63   528.4    3.4      42.404
2014    9        2    20  44    3.63   528.2    3.4      42.373
2014    9        2    20  50    3.63   528.0    3.4      42.343
2014    9        2    20  56    3.63   527.7    3.4      42.313
2014    9        2    21   2    3.63   527.5    3.4      42.282
2014    9        2    21   8    3.63   527.3    3.4      42.252
2014    9        2    21  14    3.62   527.1    3.4      42.222
2014    9        2    21  20    3.62   526.9    3.4      42.192
2014    9        2    21  26    3.62   526.6    3.4      42.162
2014    9        2    21  32    3.62   526.4    3.4      42.132
2014    9        2    21  38    3.62   526.2    3.4      42.102
2014    9        2    21  44    3.62   526.0    3.4      42.072
2014    9        2    21  50    3.62   525.8    3.4      42.043
2014    9        2    21  56    3.62   525.5    3.4      42.013
2014    9        2    22   2    3.62   525.3    3.4      41.984
2014    9        2    22   8    3.62   525.1    3.4      41.955
2014    9        2    22  14    3.62   524.9    3.4      41.926
2014    9        2    22  20    3.62   524.7    3.4      41.897
2014    9        2    22  26    3.62   524.4    3.4      41.868
2014    9        2    22  32    3.62   524.2    3.4      41.840
2014    9        2    22  38    3.62   524.0    3.4      41.811
2014    9        2    22  44    3.61   523.8    3.4      41.783
2014    9        2    22  50    3.61   523.6    3.4      41.754
2014    9        2    22  56    3.61   523.3    3.4      41.726
2014    9        2    23   2    3.61   523.1    3.4      41.698
2014    9        2    23   8    3.61   522.9    3.4      41.670
2014    9        2    23  14    3.61   522.7    3.4      41.642
2014    9        2    23  20    3.61   522.4    3.4      41.615
2014    9        2    23  26    3.61   522.2    3.4      41.587
2014    9        2    23  32    3.61   522.0    3.4      41.559
2014    9        2    23  38    3.61   521.8    3.4      41.532
2014    9        2    23  44    3.61   521.6    3.4      41.504
2014    9        2    23  50    3.61   521.3    3.4      41.477
2014    9        2    23  56    3.61   521.1    3.4      41.449
2014    9        3     0   2    3.61   520.9    3.4      41.422
2014    9        3     0   8    3.61   520.7    3.4      41.394
2014    9        3     0  14    3.61   520.5    3.4      41.367
2014    9        3     0  20    3.61   520.3    3.4      41.339
2014    9        3     0  26    3.60   520.0    3.4      41.312
2014    9        3     0  32    3.60   519.8    3.4      41.284
2014    9        3     0  38    3.60   519.6    3.4      41.256
2014    9        3     0  44    3.60   519.4    3.5      41.228
2014    9        3     0  50    3.60   519.2    3.5      41.200
2014    9        3     0  56    3.60   518.9    3.5      41.172
2014    9        3     1   2    3.60   518.7    3.5      41.144
2014    9        3     1   8    3.60   518.5    3.5      41.115
2014    9        3     1  14    3.60   518.3    3.5      41.087
2014    9        3     1  20    3.60   518.1    3.5      41.059
2014    9        3     1  26    3.60   517.8    3.5      41.030
2014    9        3     1  32    3.60   517.6    3.5      41.001
2014    9        3     1  38    3.60   517.4    3.5      40.972
2014    9        3     1  44    3.60   517.2    3.5      40.943
2014    9        3     1  50    3.60   517.0    3.5      40.913
2014    9        3     1  56    3.60   516.7    3.5      40.884
2014    9        3     2   2    3.60   516.5    3.5      40.855
2014    9        3     2   8    3.60   516.3    3.5      40.825
2014    9        3     2  14    3.59   516.1    3.5      40.795
2014    9        3     2  19    3.59   515.9    3.5      40.766
2014    9        3     2  25    3.59   515.6    3.5      40.736
2014    9        3     2  31    3.59   515.4    3.5      40.706
2014    9        3     2  37    3.59   515.2    3.5      40.676
2014    9        3     2  43    3.59   515.0    3.5      40.646
2014    9        3     2  49    3.59   514.8    3.5      40.616
2014    9        3     2  55    3.59   514.6    3.5      40.586
2014    9        3     3   1    3.59   514.3    3.5      40.556
2014    9        3     3   7    3.59   514.1    3.5      40.526
2014    9        3     3  13    3.59   513.9    3.5      40.495
2014    9        3     3  19    3.59   513.7    3.5      40.465
2014    9        3     3  25    3.59   513.5    3.5      40.435
2014    9        3     3  31    3.59   513.2    3.5      40.405
2014    9        3     3  37    3.59   513.0    3.5      40.375
2014    9        3     3  43    3.59   512.8    3.5      40.345
2014    9        3     3  49    3.59   512.6    3.5      40.315
2014    9        3     3  55    3.59   512.4    3.5      40.285
2014    9        3     4   1    3.59   512.1    3.5      40.255
2014    9        3     4   7    3.58   511.9    3.5      40.225
2014    9        3     4  13    3.58   511.7    3.5      40.196
2014    9        3     4  19    3.58   511.5    3.5      40.166
2014    9        3     4  25    3.58   511.3    3.5      40.136
2014    9        3     4  31    3.58   511.1    3.5      40.106
2014    9        3     4  37    3.58   510.8    3.5      40.077
2014    9        3     4  43    3.58   510.6    3.5      40.048
2014    9        3     4  49    3.58   510.4    3.5      40.018
2014    9        3     4  55    3.58   510.2    3.5      39.989
2014    9        3     5   1    3.58   510.0    3.5      39.960
2014    9        3     5   7    3.58   509.7    3.5      39.931
2014    9        3     5  13    3.58   509.5    3.5      39.902
2014    9        3     5  19    3.58   509.3    3.5      39.873
2014    9        3     5  25    3.58   509.1    3.5      39.844
2014    9        3     5  31    3.58   508.9    3.5      39.815
2014    9        3     5  37    3.58   508.7    3.5      39.787
2014    9        3     5  43    3.58   508.4    3.6      39.758
2014    9        3     5  49    3.58   508.2    3.6      39.730
2014    9        3     5  55    3.58   508.0    3.6      39.701
2014    9        3     6   1    3.58   507.8    3.6      39.673
2014    9        3     6   7    3.58   507.6    3.6      39.645
2014    9        3     6  13    3.58   507.3    3.6      39.617
2014    9        3     6  19    3.57   507.1    3.6      39.589
2014    9        3     6  25    3.57   506.9    3.6      39.561
2014    9        3     6  31    3.57   506.7    3.6      39.533
2014    9        3     6  37    3.57   506.5    3.6      39.505
2014    9        3     6  43    3.57   506.3    3.6      39.477
2014    9        3     6  49    3.57   506.0    3.6      39.449
2014    9        3     6  55    3.57   505.8    3.6      39.421
2014    9        3     7   1    3.57   505.6    3.6      39.393
2014    9        3     7   7    3.57   505.4    3.6      39.365
2014    9        3     7  13    3.57   505.2    3.6      39.338
2014    9        3     7  19    3.57   505.0    3.6      39.310
2014    9        3     7  25    3.57   504.7    3.6      39.282
2014    9        3     7  31    3.57   504.5    3.6      39.254
2014    9        3     7  37    3.57   504.3    3.6      39.227
2014    9        3     7  43    3.57   504.1    3.6      39.199
2014    9        3     7  49    3.57   503.9    3.6      39.171
2014    9        3     7  55    3.57   503.7    3.6      39.143
2014    9        3     8   1    3.57   503.4    3.6      39.115
2014    9        3     8   7    3.57   503.2    3.6      39.087
2014    9        3     8  13    3.57   503.0    3.6      39.059
2014    9        3     8  19    3.57   502.8    3.6      39.032
2014    9        3     8  25    3.57   502.6    3.6      39.004
2014    9        3     8  31    3.57   502.4    3.6      38.975
2014    9        3     8  37    3.57   502.1    3.6      38.947
2014    9        3     8  43    3.57   501.9    3.6      38.919
2014    9        3     8  48    3.57   501.7    3.6      38.891
2014    9        3     8  54    3.57   501.5    3.6      38.863
2014    9        3     9   0    3.56   501.3    3.6      38.835
2014    9        3     9   6    3.56   501.1    3.6      38.806
2014    9        3     9  12    3.56   500.8    3.6      38.778
2014    9        3     9  18    3.56   500.6    3.6      38.749
2014    9        3     9  24    3.56   500.4    3.6      38.721
2014    9        3     9  30    3.56   500.2    3.6      38.693
2014    9        3     9  36    3.56   500.0    3.6      38.664
2014    9        3     9  42    3.56   499.8    3.6      38.636
2014    9        3     9  48    3.56   499.5    3.7      38.607
2014    9        3     9  54    3.56   499.3    3.7      38.578
2014    9        3    10   0    3.56   499.1    3.7      38.550
2014    9        3    10   6    3.56   498.9    3.7      38.521
2014    9        3    10  12    3.56   498.7    3.7      38.492
2014    9        3    10  18    3.56   498.5    3.7      38.464
2014    9        3    10  24    3.56   498.2    3.7      38.435
2014    9        3    10  30    3.56   498.0    3.7      38.406
2014    9        3    10  36    3.56   497.8    3.7      38.377
2014    9        3    10  42    3.56   497.6    3.7      38.348
2014    9        3    10  48    3.56   497.4    3.7      38.320
2014    9        3    10  54    3.56   497.2    3.7      38.291
2014    9        3    11   0    3.56   497.0    3.7      38.262
2014    9        3    11   6    3.56   496.7    3.7      38.233
2014    9        3    11  12    3.56   496.5    3.7      38.205
2014    9        3    11  18    3.56   496.3    3.7      38.176
2014    9        3    11  24    3.56   496.1    3.7      38.147
2014    9        3    11  30    3.56   495.9    3.7      38.118
2014    9        3    11  36    3.56   495.7    3.7      38.090
2014    9        3    11  42    3.56   495.4    3.7      38.061
2014    9        3    11  48    3.56   495.2    3.7      38.032
2014    9        3    11  54    3.56   495.0    3.7      38.003
2014    9        3    12   0    3.56   494.8    3.7      37.975
2014    9        3    12   6    3.56   494.6    3.7      37.946
2014    9        3    12  12    3.55   494.4    3.7      37.917
2014    9        3    12  18    3.55   494.1    3.7      37.889
2014    9        3    12  24    3.55   493.9    3.7      37.860
2014    9        3    12  30    3.55   493.7    3.7      37.831
2014    9        3    12  36    3.55   493.5    3.7      37.803
2014    9        3    12  42    3.55   493.3    3.7      37.774
2014    9        3    12  48    3.55   493.1    3.7      37.745
2014    9        3    12  54    3.55   492.9    3.7      37.717
2014    9        3    13   0    3.55   492.6    3.7      37.688
2014    9        3    13   6    3.55   492.4    3.7      37.659
2014    9        3    13  12    3.55   492.2    3.7      37.631
2014    9        3    13  18    3.55   492.0    3.7      37.602
2014    9        3    13  24    3.55   491.8    3.7      37.573
2014    9        3    13  30    3.55   491.6    3.7      37.545
2014    9        3    13  36    3.55   491.4    3.7      37.516
2014    9        3    13  42    3.55   491.1    3.8      37.487
2014    9        3    13  48    3.55   490.9    3.8      37.459
2014    9        3    13  54    3.55   490.7    3.8      37.430
2014    9        3    14   0    3.55   490.5    3.8      37.402
2014    9        3    14   6    3.55   490.3    3.8      37.373
2014    9        3    14  12    3.55   490.1    3.8      37.345
2014    9        3    14  18    3.55   489.8    3.8      37.317
2014    9        3    14  24    3.55   489.6    3.8      37.288
2014    9        3    14  30    3.55   489.4    3.8      37.260
2014    9        3    14  36    3.55   489.2    3.8      37.232
2014    9        3    14  42    3.55   489.0    3.8      37.203
2014    9        3    14  48    3.55   488.8    3.8      37.175
2014    9        3    14  54    3.55   488.6    3.8      37.147
2014    9        3    15   0    3.55   488.4    3.8      37.119
2014    9        3    15   6    3.55   488.1    3.8      37.091
2014    9        3    15  12    3.55   487.9    3.8      37.063
2014    9        3    15  17    3.55   487.7    3.8      37.035
2014    9        3    15  23    3.55   487.5    3.8      37.007
2014    9        3    15  29    3.55   487.3    3.8      36.980
2014    9        3    15  35    3.55   487.1    3.8      36.952
2014    9        3    15  41    3.55   486.9    3.8      36.924
2014    9        3    15  47    3.55   486.7    3.8      36.897
2014    9        3    15  53    3.55   486.4    3.8      36.869
2014    9        3    15  59    3.55   486.2    3.8      36.842
2014    9        3    16   5    3.55   486.0    3.8      36.814
2014    9        3    16  11    3.55   485.8    3.8      36.787
2014    9        3    16  17    3.55   485.6    3.8      36.760
2014    9        3    16  23    3.55   485.4    3.8      36.732
2014    9        3    16  29    3.55   485.2    3.8      36.705
2014    9        3    16  35    3.55   485.0    3.8      36.678
2014    9        3    16  41    3.55   484.7    3.8      36.651
2014    9        3    16  47    3.55   484.5    3.8      36.624
2014    9        3    16  53    3.55   484.3    3.8      36.597
2014    9        3    16  59    3.55   484.1    3.9      36.569
2014    9        3    17   5    3.55   483.9    3.9      36.542
2014    9        3    17  11    3.55   483.7    3.9      36.516
2014    9        3    17  17    3.55   483.5    3.9      36.489
2014    9        3    17  23    3.55   483.3    3.9      36.462
2014    9        3    17  29    3.55   483.1    3.9      36.435
2014    9        3    17  35    3.55   482.9    3.9      36.408
2014    9        3    17  41    3.55   482.6    3.9      36.381
2014    9        3    17  47    3.55   482.4    3.9      36.354
2014    9        3    17  53    3.55   482.2    3.9      36.327
2014    9        3    17  59    3.55   482.0    3.9      36.300
2014    9        3    18   5    3.55   481.8    3.9      36.273
2014    9        3    18  11    3.55   481.6    3.9      36.246
2014    9        3    18  17    3.55   481.4    3.9      36.219
2014    9        3    18  23    3.55   481.2    3.9      36.192
2014    9        3    18  29    3.55   481.0    3.9      36.166
2014    9        3    18  35    3.55   480.8    3.9      36.139
2014    9        3    18  41    3.55   480.6    3.9      36.112
2014    9        3    18  47    3.55   480.3    3.9      36.085
2014    9        3    18  53    3.55   480.1    3.9      36.058
2014    9        3    18  59    3.55   479.9    3.9      36.031
2014    9        3    19   5    3.55   479.7    3.9      36.004
2014    9        3    19  11    3.55   479.5    3.9      35.977
2014    9        3    19  17    3.55   479.3    3.9      35.950
2014    9        3    19  23    3.55   479.1    3.9      35.923
2014    9        3    19  29    3.55   478.9    3.9      35.897
2014    9        3    19  35    3.55   478.7    3.9      35.870
2014    9        3    19  41    3.55   478.5    3.9      35.843
2014    9        3    19  47    3.55   478.3    3.9      35.816
2014    9        3    19  53    3.55   478.1    3.9      35.789
2014    9        3    19  59    3.55   477.9    4.0      35.763
2014    9        3    20   5    3.55   477.6    4.0      35.736
2014    9        3    20  11    3.55   477.4    4.0      35.709
2014    9        3    20  17    3.55   477.2    4.0      35.682
2014    9        3    20  23    3.55   477.0    4.0      35.655
2014    9        3    20  29    3.55   476.8    4.0      35.628
2014    9        3    20  35    3.55   476.6    4.0      35.602
2014    9        3    20  41    3.55   476.4    4.0      35.575
2014    9        3    20  47    3.55   476.2    4.0      35.548
2014    9        3    20  53    3.55   476.0    4.0      35.521
2014    9        3    20  59    3.55   475.8    4.0      35.494
2014    9        3    21   5    3.55   475.6    4.0      35.467
2014    9        3    21  11    3.55   475.4    4.0      35.440
2014    9        3    21  17    3.55   475.2    4.0      35.413
2014    9        3    21  23    3.55   475.0    4.0      35.386
2014    9        3    21  29    3.55   474.8    4.0      35.359
2014    9        3    21  35    3.55   474.6    4.0      35.332
2014    9        3    21  41    3.55   474.4    4.0      35.305
2014    9        3    21  47    3.55   474.2    4.0      35.278
2014    9        3    21  52    3.55   474.0    4.0      35.250
2014    9        3    21  58    3.55   473.8    4.0      35.223
2014    9        3    22   4    3.55   473.6    4.0      35.196
2014    9        3    22  10    3.55   473.4    4.0      35.168
2014    9        3    22  16    3.55   473.2    4.0      35.141
2014    9        3    22  22    3.55   472.9    4.0      35.114
2014    9        3    22  28    3.56   472.7    4.0      35.086
2014    9        3    22  34    3.56   472.5    4.0      35.059
2014    9        3    22  40    3.56   472.3    4.0      35.032
2014    9        3    22  46    3.56   472.1    4.1      35.004
2014    9        3    22  52    3.56   471.9    4.1      34.977
2014    9        3    22  58    3.56   471.7    4.1      34.950
2014    9        3    23   4    3.56   471.5    4.1      34.922
2014    9        3    23  10    3.56   471.3    4.1      34.895
2014    9        3    23  16    3.56   471.1    4.1      34.868
2014    9        3    23  22    3.56   470.9    4.1      34.841
2014    9        3    23  28    3.56   470.7    4.1      34.813
2014    9        3    23  34    3.56   470.5    4.1      34.786
2014    9        3    23  40    3.56   470.3    4.1      34.759
2014    9        3    23  46    3.56   470.1    4.1      34.732
2014    9        3    23  52    3.56   469.9    4.1      34.705
2014    9        3    23  58    3.56   469.7    4.1      34.678
2014    9        4     0   4    3.56   469.5    4.1      34.651
