year    month   day   hour  minute  B_enl V_enl   n_enl       T_enl
[year] [month] [day] [hour][minute] [nT]  [km/s]  [cm-3]      [kK]
2014    8       12     0   5    6.43   424.6    9.5      50.821
2014    8       12     0  11    6.43   424.9    9.5      50.879
2014    8       12     0  17    6.43   425.1    9.5      50.938
2014    8       12     0  23    6.43   425.4    9.4      50.997
2014    8       12     0  29    6.44   425.7    9.4      51.056
2014    8       12     0  34    6.44   425.9    9.4      51.115
2014    8       12     0  40    6.44   426.2    9.4      51.175
2014    8       12     0  46    6.44   426.4    9.4      51.234
2014    8       12     0  52    6.45   426.7    9.4      51.295
2014    8       12     0  58    6.45   427.0    9.4      51.359
2014    8       12     1   4    6.45   427.2    9.4      51.426
2014    8       12     1  10    6.45   427.5    9.4      51.494
2014    8       12     1  16    6.45   427.8    9.4      51.565
2014    8       12     1  22    6.46   428.1    9.4      51.637
2014    8       12     1  28    6.46   428.4    9.4      51.712
2014    8       12     1  34    6.46   428.7    9.4      51.789
2014    8       12     1  40    6.46   429.0    9.4      51.865
2014    8       12     1  46    6.46   429.3    9.4      51.941
2014    8       12     1  52    6.46   429.6    9.4      52.016
2014    8       12     1  58    6.47   429.9    9.4      52.091
2014    8       12     2   4    6.47   430.2    9.4      52.166
2014    8       12     2  10    6.47   430.5    9.4      52.240
2014    8       12     2  15    6.47   430.9    9.4      52.314
2014    8       12     2  21    6.47   431.2    9.3      52.388
2014    8       12     2  27    6.47   431.5    9.3      52.461
2014    8       12     2  33    6.47   431.8    9.3      52.533
2014    8       12     2  39    6.47   432.1    9.3      52.606
2014    8       12     2  45    6.47   432.4    9.3      52.678
2014    8       12     2  51    6.47   432.7    9.3      52.750
2014    8       12     2  57    6.47   433.1    9.3      52.822
2014    8       12     3   3    6.47   433.4    9.3      52.894
2014    8       12     3   9    6.47   433.7    9.3      52.965
2014    8       12     3  15    6.47   434.0    9.3      53.037
2014    8       12     3  21    6.47   434.3    9.3      53.109
2014    8       12     3  27    6.47   434.7    9.2      53.181
2014    8       12     3  33    6.47   435.0    9.2      53.253
2014    8       12     3  39    6.47   435.3    9.2      53.325
2014    8       12     3  45    6.47   435.6    9.2      53.397
2014    8       12     3  50    6.47   435.9    9.2      53.469
2014    8       12     3  56    6.47   436.3    9.2      53.541
2014    8       12     4   2    6.47   436.6    9.2      53.613
2014    8       12     4   8    6.47   436.9    9.2      53.684
2014    8       12     4  14    6.47   437.3    9.2      53.756
2014    8       12     4  20    6.47   437.6    9.2      53.826
2014    8       12     4  26    6.47   437.9    9.1      53.897
2014    8       12     4  32    6.47   438.3    9.1      53.966
2014    8       12     4  38    6.47   438.6    9.1      54.035
2014    8       12     4  44    6.47   438.9    9.1      54.102
2014    8       12     4  50    6.47   439.3    9.1      54.169
2014    8       12     4  56    6.47   439.6    9.1      54.234
2014    8       12     5   2    6.47   440.0    9.1      54.297
2014    8       12     5   8    6.46   440.3    9.1      54.359
2014    8       12     5  14    6.46   440.6    9.0      54.419
2014    8       12     5  19    6.46   441.0    9.0      54.476
2014    8       12     5  25    6.46   441.3    9.0      54.532
2014    8       12     5  31    6.46   441.7    9.0      54.586
2014    8       12     5  37    6.46   442.0    9.0      54.637
2014    8       12     5  43    6.45   442.4    9.0      54.686
2014    8       12     5  49    6.45   442.7    8.9      54.733
2014    8       12     5  55    6.45   443.1    8.9      54.778
2014    8       12     6   1    6.45   443.4    8.9      54.820
2014    8       12     6   7    6.44   443.8    8.9      54.862
2014    8       12     6  13    6.44   444.1    8.9      54.902
2014    8       12     6  19    6.44   444.5    8.9      54.940
2014    8       12     6  25    6.44   444.8    8.8      54.979
2014    8       12     6  31    6.43   445.2    8.8      55.017
2014    8       12     6  37    6.43   445.5    8.8      55.055
2014    8       12     6  43    6.43   445.9    8.8      55.093
2014    8       12     6  49    6.42   446.3    8.8      55.131
2014    8       12     6  54    6.42   446.7    8.7      55.168
2014    8       12     7   0    6.42   447.0    8.7      55.205
2014    8       12     7   6    6.41   447.4    8.7      55.240
2014    8       12     7  12    6.41   447.8    8.7      55.273
2014    8       12     7  18    6.40   448.1    8.7      55.304
2014    8       12     7  24    6.40   448.5    8.6      55.335
2014    8       12     7  30    6.40   448.9    8.6      55.364
2014    8       12     7  36    6.39   449.3    8.6      55.388
2014    8       12     7  42    6.38   449.6    8.6      55.407
2014    8       12     7  48    6.38   450.0    8.5      55.421
2014    8       12     7  54    6.37   450.3    8.5      55.431
2014    8       12     8   0    6.37   450.7    8.5      55.438
2014    8       12     8   6    6.36   451.0    8.5      55.442
2014    8       12     8  12    6.35   451.3    8.4      55.441
2014    8       12     8  18    6.35   451.6    8.4      55.437
2014    8       12     8  24    6.34   451.9    8.4      55.434
2014    8       12     8  30    6.34   452.2    8.4      55.432
2014    8       12     8  35    6.33   452.5    8.3      55.430
2014    8       12     8  41    6.32   452.9    8.3      55.428
2014    8       12     8  47    6.32   453.2    8.3      55.427
2014    8       12     8  53    6.31   453.5    8.3      55.426
2014    8       12     8  59    6.30   453.8    8.3      55.425
2014    8       12     9   5    6.30   454.1    8.2      55.425
2014    8       12     9  11    6.29   454.4    8.2      55.425
2014    8       12     9  17    6.28   454.7    8.2      55.426
2014    8       12     9  23    6.28   455.0    8.2      55.428
2014    8       12     9  29    6.27   455.2    8.1      55.430
2014    8       12     9  35    6.26   455.5    8.1      55.433
2014    8       12     9  41    6.26   455.8    8.1      55.437
2014    8       12     9  47    6.25   456.1    8.1      55.441
2014    8       12     9  53    6.25   456.4    8.1      55.446
2014    8       12     9  59    6.24   456.7    8.0      55.451
2014    8       12    10   5    6.23   457.0    8.0      55.457
2014    8       12    10  10    6.23   457.2    8.0      55.463
2014    8       12    10  16    6.22   457.5    8.0      55.471
2014    8       12    10  22    6.21   457.8    8.0      55.478
2014    8       12    10  28    6.21   458.1    8.0      55.486
2014    8       12    10  34    6.20   458.3    7.9      55.495
2014    8       12    10  40    6.20   458.6    7.9      55.503
2014    8       12    10  46    6.19   458.9    7.9      55.512
2014    8       12    10  52    6.18   459.2    7.9      55.521
2014    8       12    10  58    6.18   459.4    7.9      55.530
2014    8       12    11   4    6.17   459.7    7.8      55.539
2014    8       12    11  10    6.16   460.0    7.8      55.548
2014    8       12    11  16    6.16   460.3    7.8      55.556
2014    8       12    11  22    6.15   460.6    7.8      55.565
2014    8       12    11  28    6.15   460.8    7.8      55.573
2014    8       12    11  34    6.14   461.1    7.8      55.580
2014    8       12    11  40    6.13   461.4    7.7      55.587
2014    8       12    11  45    6.13   461.7    7.7      55.593
2014    8       12    11  51    6.12   462.0    7.7      55.599
2014    8       12    11  57    6.11   462.3    7.7      55.603
2014    8       12    12   3    6.11   462.6    7.7      55.605
2014    8       12    12   9    6.10   462.8    7.7      55.603
2014    8       12    12  15    6.09   463.1    7.6      55.599
2014    8       12    12  21    6.08   463.4    7.6      55.592
2014    8       12    12  27    6.08   463.7    7.6      55.581
2014    8       12    12  33    6.07   463.9    7.6      55.567
2014    8       12    12  39    6.06   464.2    7.6      55.551
2014    8       12    12  45    6.05   464.4    7.5      55.535
2014    8       12    12  51    6.04   464.7    7.5      55.517
2014    8       12    12  57    6.04   465.0    7.5      55.498
2014    8       12    13   3    6.03   465.2    7.5      55.477
2014    8       12    13   9    6.02   465.5    7.5      55.455
2014    8       12    13  14    6.01   465.7    7.4      55.433
2014    8       12    13  20    6.00   465.9    7.4      55.410
2014    8       12    13  26    6.00   466.2    7.4      55.388
2014    8       12    13  32    5.99   466.4    7.4      55.366
2014    8       12    13  38    5.98   466.7    7.4      55.344
2014    8       12    13  44    5.97   466.9    7.3      55.323
2014    8       12    13  50    5.96   467.2    7.3      55.304
2014    8       12    13  56    5.96   467.4    7.3      55.286
2014    8       12    14   2    5.95   467.7    7.3      55.270
2014    8       12    14   8    5.94   467.9    7.3      55.254
2014    8       12    14  14    5.93   468.2    7.3      55.240
2014    8       12    14  20    5.92   468.4    7.2      55.225
2014    8       12    14  26    5.92   468.7    7.2      55.211
2014    8       12    14  32    5.91   469.0    7.2      55.194
2014    8       12    14  38    5.90   469.2    7.2      55.176
2014    8       12    14  43    5.89   469.5    7.2      55.158
2014    8       12    14  49    5.88   469.8    7.1      55.140
2014    8       12    14  55    5.87   470.1    7.1      55.117
2014    8       12    15   1    5.86   470.4    7.1      55.088
2014    8       12    15   7    5.85   470.7    7.1      55.053
2014    8       12    15  13    5.84   471.0    7.1      55.013
2014    8       12    15  19    5.83   471.3    7.0      54.968
2014    8       12    15  25    5.82   471.5    7.0      54.919
2014    8       12    15  31    5.81   471.8    7.0      54.862
2014    8       12    15  37    5.80   472.0    7.0      54.801
2014    8       12    15  43    5.79   472.2    6.9      54.740
2014    8       12    15  49    5.78   472.4    6.9      54.680
2014    8       12    15  55    5.77   472.6    6.9      54.620
2014    8       12    16   1    5.76   472.8    6.9      54.560
2014    8       12    16   7    5.75   473.1    6.9      54.500
2014    8       12    16  12    5.74   473.3    6.8      54.441
2014    8       12    16  18    5.73   473.4    6.8      54.380
2014    8       12    16  24    5.72   473.6    6.8      54.321
2014    8       12    16  30    5.71   473.8    6.8      54.263
2014    8       12    16  36    5.70   474.0    6.8      54.206
2014    8       12    16  42    5.69   474.2    6.8      54.150
2014    8       12    16  48    5.68   474.4    6.7      54.095
2014    8       12    16  54    5.67   474.5    6.7      54.041
2014    8       12    17   0    5.66   474.7    6.7      53.989
2014    8       12    17   6    5.65   474.9    6.7      53.937
2014    8       12    17  12    5.64   475.0    6.7      53.887
2014    8       12    17  18    5.63   475.2    6.7      53.839
2014    8       12    17  24    5.62   475.4    6.6      53.791
2014    8       12    17  30    5.61   475.5    6.6      53.745
2014    8       12    17  36    5.60   475.7    6.6      53.700
2014    8       12    17  41    5.60   475.8    6.6      53.657
2014    8       12    17  47    5.59   476.0    6.6      53.614
2014    8       12    17  53    5.58   476.1    6.6      53.572
2014    8       12    17  59    5.57   476.3    6.6      53.531
2014    8       12    18   5    5.56   476.4    6.5      53.491
2014    8       12    18  11    5.55   476.6    6.5      53.452
2014    8       12    18  17    5.54   476.7    6.5      53.413
2014    8       12    18  23    5.53   476.9    6.5      53.374
2014    8       12    18  29    5.52   477.0    6.5      53.336
2014    8       12    18  35    5.52   477.2    6.5      53.299
2014    8       12    18  41    5.51   477.3    6.5      53.261
2014    8       12    18  47    5.50   477.5    6.4      53.223
2014    8       12    18  53    5.49   477.6    6.4      53.185
2014    8       12    18  59    5.48   477.8    6.4      53.147
2014    8       12    19   5    5.47   478.0    6.4      53.108
2014    8       12    19  11    5.46   478.1    6.4      53.067
2014    8       12    19  16    5.45   478.3    6.4      53.023
2014    8       12    19  22    5.44   478.4    6.4      52.976
2014    8       12    19  28    5.43   478.6    6.3      52.926
2014    8       12    19  34    5.43   478.7    6.3      52.873
2014    8       12    19  40    5.42   478.8    6.3      52.816
2014    8       12    19  46    5.41   478.9    6.3      52.758
2014    8       12    19  52    5.40   479.0    6.3      52.699
2014    8       12    19  58    5.39   479.1    6.3      52.639
2014    8       12    20   4    5.38   479.2    6.3      52.580
2014    8       12    20  10    5.37   479.3    6.2      52.520
2014    8       12    20  16    5.36   479.4    6.2      52.460
2014    8       12    20  22    5.35   479.5    6.2      52.400
2014    8       12    20  28    5.34   479.6    6.2      52.341
2014    8       12    20  34    5.33   479.7    6.2      52.283
2014    8       12    20  40    5.32   479.7    6.2      52.225
2014    8       12    20  45    5.31   479.8    6.2      52.169
2014    8       12    20  51    5.30   479.9    6.1      52.112
2014    8       12    20  57    5.30   479.9    6.1      52.057
2014    8       12    21   3    5.29   480.0    6.1      52.003
2014    8       12    21   9    5.28   480.0    6.1      51.949
2014    8       12    21  15    5.27   480.1    6.1      51.896
2014    8       12    21  21    5.26   480.1    6.1      51.844
2014    8       12    21  27    5.25   480.2    6.1      51.792
2014    8       12    21  33    5.24   480.2    6.1      51.741
2014    8       12    21  39    5.24   480.2    6.1      51.691
2014    8       12    21  45    5.23   480.3    6.1      51.641
2014    8       12    21  51    5.22   480.3    6.0      51.592
2014    8       12    21  57    5.21   480.4    6.0      51.545
2014    8       12    22   3    5.20   480.4    6.0      51.498
2014    8       12    22   9    5.19   480.5    6.0      51.453
2014    8       12    22  15    5.19   480.6    6.0      51.408
2014    8       12    22  20    5.18   480.6    6.0      51.364
2014    8       12    22  26    5.17   480.7    6.0      51.318
2014    8       12    22  32    5.16   480.8    6.0      51.273
2014    8       12    22  38    5.16   480.9    6.0      51.225
2014    8       12    22  44    5.15   480.9    6.0      51.177
2014    8       12    22  50    5.14   481.0    6.0      51.127
2014    8       12    22  56    5.13   481.1    5.9      51.077
2014    8       12    23   2    5.12   481.1    5.9      51.026
2014    8       12    23   8    5.12   481.2    5.9      50.975
2014    8       12    23  14    5.11   481.3    5.9      50.923
2014    8       12    23  20    5.10   481.3    5.9      50.871
2014    8       12    23  26    5.09   481.4    5.9      50.819
2014    8       12    23  32    5.08   481.5    5.9      50.766
2014    8       12    23  38    5.08   481.5    5.9      50.714
2014    8       12    23  44    5.07   481.6    5.9      50.662
2014    8       12    23  50    5.06   481.6    5.9      50.610
2014    8       12    23  56    5.05   481.7    5.9      50.559
2014    8       13     0   1    5.05   481.7    5.8      50.507
2014    8       13     0   7    5.04   481.8    5.8      50.456
2014    8       13     0  13    5.03   481.8    5.8      50.406
2014    8       13     0  19    5.02   481.9    5.8      50.356
2014    8       13     0  25    5.02   481.9    5.8      50.306
2014    8       13     0  31    5.01   482.0    5.8      50.258
2014    8       13     0  37    5.00   482.0    5.8      50.209
2014    8       13     0  43    4.99   482.1    5.8      50.162
2014    8       13     0  49    4.99   482.1    5.8      50.116
2014    8       13     0  55    4.98   482.2    5.8      50.070
2014    8       13     1   1    4.97   482.2    5.8      50.025
2014    8       13     1   7    4.97   482.3    5.8      49.982
2014    8       13     1  13    4.96   482.3    5.7      49.939
2014    8       13     1  19    4.95   482.4    5.7      49.897
2014    8       13     1  25    4.94   482.4    5.7      49.856
2014    8       13     1  30    4.94   482.4    5.7      49.816
2014    8       13     1  36    4.93   482.5    5.7      49.776
2014    8       13     1  42    4.92   482.5    5.7      49.737
2014    8       13     1  48    4.92   482.6    5.7      49.699
2014    8       13     1  54    4.91   482.6    5.7      49.662
2014    8       13     2   0    4.90   482.6    5.7      49.625
2014    8       13     2   6    4.90   482.7    5.7      49.589
2014    8       13     2  12    4.89   482.7    5.7      49.552
2014    8       13     2  18    4.88   482.7    5.7      49.516
2014    8       13     2  24    4.87   482.7    5.7      49.480
2014    8       13     2  30    4.87   482.8    5.7      49.444
2014    8       13     2  36    4.86   482.8    5.7      49.407
2014    8       13     2  42    4.85   482.8    5.6      49.370
2014    8       13     2  48    4.85   482.8    5.6      49.332
2014    8       13     2  54    4.84   482.8    5.6      49.294
2014    8       13     3   0    4.83   482.8    5.6      49.255
2014    8       13     3   5    4.83   482.8    5.6      49.215
2014    8       13     3  11    4.82   482.8    5.6      49.175
2014    8       13     3  17    4.81   482.8    5.6      49.134
2014    8       13     3  23    4.81   482.8    5.6      49.092
2014    8       13     3  29    4.80   482.8    5.6      49.050
2014    8       13     3  35    4.79   482.8    5.6      49.007
2014    8       13     3  41    4.79   482.8    5.6      48.964
2014    8       13     3  47    4.78   482.8    5.6      48.920
2014    8       13     3  53    4.77   482.8    5.6      48.875
2014    8       13     3  59    4.77   482.8    5.6      48.830
2014    8       13     4   5    4.76   482.8    5.6      48.784
2014    8       13     4  11    4.75   482.8    5.5      48.737
2014    8       13     4  17    4.75   482.8    5.5      48.690
2014    8       13     4  23    4.74   482.8    5.5      48.643
2014    8       13     4  29    4.74   482.8    5.5      48.595
2014    8       13     4  34    4.73   482.8    5.5      48.547
2014    8       13     4  40    4.72   482.8    5.5      48.498
2014    8       13     4  46    4.72   482.7    5.5      48.449
2014    8       13     4  52    4.71   482.7    5.5      48.400
2014    8       13     4  58    4.71   482.7    5.5      48.351
2014    8       13     5   4    4.70   482.7    5.5      48.302
2014    8       13     5  10    4.69   482.7    5.5      48.252
2014    8       13     5  16    4.69   482.7    5.5      48.203
2014    8       13     5  22    4.68   482.6    5.5      48.153
2014    8       13     5  28    4.68   482.6    5.5      48.103
2014    8       13     5  34    4.67   482.6    5.5      48.053
2014    8       13     5  40    4.66   482.6    5.4      48.003
2014    8       13     5  46    4.66   482.6    5.4      47.953
2014    8       13     5  52    4.65   482.5    5.4      47.904
2014    8       13     5  58    4.65   482.5    5.4      47.854
2014    8       13     6   3    4.64   482.5    5.4      47.804
2014    8       13     6   9    4.64   482.5    5.4      47.754
2014    8       13     6  15    4.63   482.5    5.4      47.705
2014    8       13     6  21    4.63   482.4    5.4      47.655
2014    8       13     6  27    4.62   482.4    5.4      47.605
2014    8       13     6  33    4.61   482.4    5.4      47.555
2014    8       13     6  39    4.61   482.4    5.4      47.506
2014    8       13     6  45    4.60   482.3    5.4      47.456
2014    8       13     6  51    4.60   482.3    5.4      47.406
2014    8       13     6  57    4.59   482.3    5.4      47.357
2014    8       13     7   3    4.59   482.2    5.4      47.308
2014    8       13     7   9    4.58   482.2    5.3      47.259
2014    8       13     7  15    4.58   482.2    5.3      47.210
2014    8       13     7  21    4.57   482.1    5.3      47.162
2014    8       13     7  27    4.57   482.1    5.3      47.114
2014    8       13     7  32    4.56   482.1    5.3      47.066
2014    8       13     7  38    4.56   482.0    5.3      47.020
2014    8       13     7  44    4.55   482.0    5.3      46.973
2014    8       13     7  50    4.55   482.0    5.3      46.928
2014    8       13     7  56    4.54   481.9    5.3      46.883
2014    8       13     8   2    4.54   481.9    5.3      46.840
2014    8       13     8   8    4.53   481.8    5.3      46.797
2014    8       13     8  14    4.53   481.8    5.3      46.756
2014    8       13     8  20    4.52   481.8    5.3      46.716
2014    8       13     8  26    4.52   481.7    5.3      46.677
2014    8       13     8  32    4.51   481.7    5.3      46.639
2014    8       13     8  38    4.51   481.7    5.3      46.603
2014    8       13     8  44    4.50   481.6    5.3      46.568
2014    8       13     8  50    4.50   481.6    5.3      46.534
2014    8       13     8  56    4.49   481.5    5.3      46.502
2014    8       13     9   1    4.49   481.5    5.3      46.471
2014    8       13     9   7    4.49   481.5    5.3      46.441
2014    8       13     9  13    4.48   481.4    5.3      46.412
2014    8       13     9  19    4.48   481.4    5.3      46.385
2014    8       13     9  25    4.47   481.4    5.3      46.358
2014    8       13     9  31    4.47   481.3    5.3      46.332
2014    8       13     9  37    4.46   481.3    5.3      46.307
2014    8       13     9  43    4.46   481.3    5.3      46.282
2014    8       13     9  49    4.45   481.2    5.3      46.258
2014    8       13     9  55    4.45   481.2    5.3      46.234
2014    8       13    10   1    4.45   481.1    5.3      46.210
2014    8       13    10   7    4.44   481.1    5.3      46.186
2014    8       13    10  13    4.44   481.0    5.3      46.161
2014    8       13    10  19    4.43   481.0    5.3      46.137
2014    8       13    10  25    4.43   480.9    5.3      46.113
2014    8       13    10  30    4.42   480.9    5.3      46.089
2014    8       13    10  36    4.42   480.8    5.3      46.065
2014    8       13    10  42    4.42   480.7    5.3      46.041
2014    8       13    10  48    4.41   480.7    5.3      46.017
2014    8       13    10  54    4.41   480.6    5.3      45.992
2014    8       13    11   0    4.40   480.5    5.3      45.967
2014    8       13    11   6    4.40   480.5    5.3      45.941
2014    8       13    11  12    4.40   480.4    5.2      45.914
2014    8       13    11  18    4.39   480.4    5.2      45.887
2014    8       13    11  24    4.39   480.3    5.2      45.859
2014    8       13    11  30    4.38   480.2    5.2      45.831
2014    8       13    11  36    4.38   480.2    5.2      45.802
2014    8       13    11  42    4.38   480.1    5.2      45.772
2014    8       13    11  48    4.37   480.0    5.2      45.742
2014    8       13    11  54    4.37   480.0    5.2      45.711
2014    8       13    11  59    4.36   479.9    5.2      45.679
2014    8       13    12   5    4.36   479.9    5.2      45.647
2014    8       13    12  11    4.36   479.8    5.2      45.614
2014    8       13    12  17    4.35   479.7    5.2      45.581
2014    8       13    12  23    4.35   479.7    5.2      45.547
2014    8       13    12  29    4.35   479.6    5.2      45.512
2014    8       13    12  35    4.34   479.5    5.2      45.477
2014    8       13    12  41    4.34   479.5    5.2      45.441
2014    8       13    12  47    4.33   479.4    5.2      45.406
2014    8       13    12  53    4.33   479.3    5.2      45.369
2014    8       13    12  59    4.33   479.3    5.2      45.332
2014    8       13    13   5    4.32   479.2    5.2      45.295
2014    8       13    13  11    4.32   479.1    5.2      45.257
2014    8       13    13  17    4.32   479.1    5.2      45.219
2014    8       13    13  23    4.31   479.0    5.2      45.181
2014    8       13    13  29    4.31   478.9    5.2      45.142
2014    8       13    13  34    4.31   478.9    5.2      45.103
2014    8       13    13  40    4.30   478.8    5.2      45.064
2014    8       13    13  46    4.30   478.7    5.2      45.024
2014    8       13    13  52    4.30   478.7    5.2      44.984
2014    8       13    13  58    4.29   478.6    5.2      44.944
2014    8       13    14   4    4.29   478.5    5.2      44.904
2014    8       13    14  10    4.29   478.5    5.2      44.863
2014    8       13    14  16    4.28   478.4    5.2      44.822
2014    8       13    14  22    4.28   478.3    5.2      44.781
2014    8       13    14  28    4.28   478.3    5.2      44.740
2014    8       13    14  34    4.27   478.2    5.2      44.698
2014    8       13    14  40    4.27   478.1    5.1      44.657
2014    8       13    14  46    4.27   478.0    5.1      44.616
2014    8       13    14  52    4.26   478.0    5.1      44.575
2014    8       13    14  58    4.26   477.9    5.1      44.533
2014    8       13    15   4    4.26   477.8    5.1      44.492
2014    8       13    15   9    4.26   477.8    5.1      44.452
2014    8       13    15  15    4.25   477.7    5.1      44.412
2014    8       13    15  21    4.25   477.6    5.1      44.372
2014    8       13    15  27    4.25   477.5    5.1      44.332
2014    8       13    15  33    4.24   477.5    5.1      44.294
2014    8       13    15  39    4.24   477.4    5.1      44.255
2014    8       13    15  45    4.24   477.3    5.1      44.218
2014    8       13    15  51    4.23   477.3    5.1      44.181
2014    8       13    15  57    4.23   477.2    5.1      44.145
2014    8       13    16   3    4.23   477.1    5.1      44.109
2014    8       13    16   9    4.23   477.0    5.1      44.075
2014    8       13    16  15    4.22   477.0    5.1      44.041
2014    8       13    16  21    4.22   476.9    5.1      44.008
2014    8       13    16  27    4.22   476.9    5.1      43.975
2014    8       13    16  33    4.22   476.8    5.1      43.944
2014    8       13    16  39    4.21   476.7    5.1      43.913
2014    8       13    16  44    4.21   476.7    5.1      43.882
2014    8       13    16  50    4.21   476.6    5.1      43.852
2014    8       13    16  56    4.21   476.5    5.1      43.823
2014    8       13    17   2    4.20   476.5    5.1      43.794
2014    8       13    17   8    4.20   476.4    5.1      43.765
2014    8       13    17  14    4.20   476.4    5.1      43.736
2014    8       13    17  20    4.19   476.3    5.1      43.708
2014    8       13    17  26    4.19   476.2    5.1      43.680
2014    8       13    17  32    4.19   476.2    5.1      43.652
2014    8       13    17  38    4.19   476.1    5.1      43.624
2014    8       13    17  44    4.18   476.0    5.1      43.597
2014    8       13    17  50    4.18   475.9    5.1      43.570
2014    8       13    17  56    4.18   475.8    5.1      43.544
2014    8       13    18   2    4.18   475.8    5.1      43.517
2014    8       13    18   8    4.17   475.7    5.1      43.491
2014    8       13    18  13    4.17   475.6    5.1      43.465
2014    8       13    18  19    4.17   475.5    5.1      43.439
2014    8       13    18  25    4.17   475.4    5.1      43.413
2014    8       13    18  31    4.16   475.3    5.1      43.387
2014    8       13    18  37    4.16   475.2    5.1      43.361
2014    8       13    18  43    4.16   475.1    5.1      43.335
2014    8       13    18  49    4.16   475.0    5.1      43.309
2014    8       13    18  55    4.15   475.0    5.1      43.284
2014    8       13    19   1    4.15   474.9    5.1      43.259
2014    8       13    19   7    4.15   474.8    5.1      43.235
2014    8       13    19  13    4.15   474.7    5.1      43.211
2014    8       13    19  19    4.14   474.6    5.1      43.188
2014    8       13    19  25    4.14   474.5    5.1      43.166
2014    8       13    19  31    4.14   474.4    5.1      43.145
2014    8       13    19  37    4.14   474.3    5.1      43.124
2014    8       13    19  42    4.14   474.2    5.1      43.104
2014    8       13    19  48    4.13   474.2    5.1      43.085
2014    8       13    19  54    4.13   474.1    5.1      43.066
2014    8       13    20   0    4.13   474.0    5.1      43.048
2014    8       13    20   6    4.13   473.9    5.1      43.032
2014    8       13    20  12    4.13   473.8    5.1      43.015
2014    8       13    20  18    4.13   473.7    5.1      42.999
2014    8       13    20  24    4.12   473.6    5.1      42.984
2014    8       13    20  30    4.12   473.6    5.1      42.970
2014    8       13    20  36    4.12   473.5    5.1      42.957
2014    8       13    20  42    4.12   473.4    5.1      42.944
2014    8       13    20  48    4.12   473.3    5.1      42.932
2014    8       13    20  54    4.12   473.2    5.1      42.920
2014    8       13    21   0    4.11   473.1    5.1      42.908
2014    8       13    21   6    4.11   473.1    5.1      42.895
2014    8       13    21  12    4.11   473.0    5.1      42.882
2014    8       13    21  17    4.11   472.9    5.1      42.867
2014    8       13    21  23    4.11   472.8    5.1      42.852
2014    8       13    21  29    4.11   472.7    5.1      42.836
2014    8       13    21  35    4.11   472.6    5.1      42.819
2014    8       13    21  41    4.10   472.6    5.1      42.802
2014    8       13    21  47    4.10   472.5    5.1      42.783
2014    8       13    21  53    4.10   472.4    5.1      42.764
2014    8       13    21  59    4.10   472.3    5.1      42.745
2014    8       13    22   5    4.10   472.2    5.1      42.724
2014    8       13    22  11    4.10   472.2    5.1      42.703
2014    8       13    22  17    4.10   472.1    5.1      42.681
2014    8       13    22  23    4.09   472.0    5.1      42.659
2014    8       13    22  29    4.09   471.9    5.1      42.636
2014    8       13    22  35    4.09   471.8    5.1      42.612
2014    8       13    22  41    4.09   471.8    5.1      42.588
2014    8       13    22  47    4.09   471.7    5.1      42.563
2014    8       13    22  52    4.09   471.6    5.1      42.538
2014    8       13    22  58    4.08   471.5    5.1      42.512
2014    8       13    23   4    4.08   471.4    5.1      42.486
2014    8       13    23  10    4.08   471.4    5.1      42.459
2014    8       13    23  16    4.08   471.3    5.1      42.431
2014    8       13    23  22    4.08   471.2    5.1      42.403
2014    8       13    23  28    4.08   471.1    5.1      42.374
2014    8       13    23  34    4.08   471.1    5.1      42.345
2014    8       13    23  40    4.07   471.0    5.1      42.315
2014    8       13    23  46    4.07   470.9    5.1      42.285
2014    8       13    23  52    4.07   470.8    5.1      42.254
2014    8       13    23  58    4.07   470.7    5.1      42.222
2014    8       14     0   4    4.07   470.7    5.1      42.190
2014    8       14     0  10    4.07   470.6    5.1      42.157
2014    8       14     0  16    4.06   470.5    5.1      42.124
2014    8       14     0  22    4.06   470.4    5.1      42.091
2014    8       14     0  27    4.06   470.3    5.1      42.056
2014    8       14     0  33    4.06   470.3    5.1      42.022
2014    8       14     0  39    4.06   470.2    5.1      41.986
2014    8       14     0  45    4.06   470.1    5.1      41.950
2014    8       14     0  51    4.05   470.0    5.1      41.914
2014    8       14     0  57    4.05   469.9    5.1      41.877
2014    8       14     1   3    4.05   469.8    5.1      41.840
2014    8       14     1   9    4.05   469.7    5.1      41.802
2014    8       14     1  15    4.05   469.6    5.1      41.764
2014    8       14     1  21    4.05   469.5    5.1      41.725
2014    8       14     1  27    4.04   469.4    5.1      41.687
2014    8       14     1  33    4.04   469.4    5.1      41.648
2014    8       14     1  39    4.04   469.3    5.1      41.609
2014    8       14     1  45    4.04   469.2    5.1      41.571
2014    8       14     1  51    4.04   469.1    5.1      41.532
2014    8       14     1  56    4.04   469.0    5.1      41.494
2014    8       14     2   2    4.03   468.9    5.1      41.456
2014    8       14     2   8    4.03   468.8    5.1      41.419
2014    8       14     2  14    4.03   468.6    5.1      41.382
2014    8       14     2  20    4.03   468.5    5.1      41.346
2014    8       14     2  26    4.03   468.4    5.1      41.311
2014    8       14     2  32    4.03   468.3    5.1      41.277
2014    8       14     2  38    4.03   468.2    5.1      41.244
2014    8       14     2  44    4.02   468.1    5.1      41.212
2014    8       14     2  50    4.02   468.0    5.1      41.181
2014    8       14     2  56    4.02   467.9    5.1      41.151
2014    8       14     3   2    4.02   467.8    5.1      41.122
2014    8       14     3   8    4.02   467.7    5.1      41.094
2014    8       14     3  14    4.02   467.6    5.1      41.068
2014    8       14     3  20    4.02   467.5    5.1      41.043
2014    8       14     3  25    4.02   467.4    5.1      41.018
2014    8       14     3  31    4.02   467.3    5.1      40.995
2014    8       14     3  37    4.02   467.2    5.1      40.972
2014    8       14     3  43    4.01   467.1    5.1      40.952
2014    8       14     3  49    4.01   467.0    5.1      40.932
2014    8       14     3  55    4.01   466.8    5.1      40.915
2014    8       14     4   1    4.01   466.7    5.1      40.898
2014    8       14     4   7    4.01   466.6    5.1      40.882
2014    8       14     4  13    4.01   466.5    5.1      40.867
2014    8       14     4  19    4.01   466.4    5.1      40.852
2014    8       14     4  25    4.01   466.3    5.1      40.837
2014    8       14     4  31    4.01   466.2    5.1      40.823
2014    8       14     4  37    4.01   466.1    5.1      40.808
2014    8       14     4  43    4.01   465.9    5.1      40.794
2014    8       14     4  49    4.01   465.8    5.1      40.779
2014    8       14     4  55    4.01   465.7    5.1      40.766
2014    8       14     5   0    4.01   465.6    5.1      40.752
2014    8       14     5   6    4.01   465.5    5.1      40.739
2014    8       14     5  12    4.01   465.4    5.1      40.725
2014    8       14     5  18    4.00   465.2    5.1      40.713
2014    8       14     5  24    4.00   465.1    5.1      40.700
2014    8       14     5  30    4.00   465.0    5.1      40.688
2014    8       14     5  36    4.00   464.9    5.1      40.676
2014    8       14     5  42    4.00   464.8    5.1      40.665
2014    8       14     5  48    4.00   464.7    5.1      40.654
2014    8       14     5  54    4.00   464.6    5.1      40.643
2014    8       14     6   0    4.00   464.5    5.1      40.633
2014    8       14     6   6    4.00   464.4    5.1      40.622
2014    8       14     6  12    4.00   464.2    5.1      40.612
2014    8       14     6  18    4.00   464.1    5.1      40.602
2014    8       14     6  24    4.00   464.0    5.2      40.593
2014    8       14     6  30    4.00   463.9    5.2      40.583
2014    8       14     6  35    4.00   463.8    5.2      40.573
2014    8       14     6  41    4.00   463.7    5.2      40.563
2014    8       14     6  47    4.00   463.6    5.2      40.554
2014    8       14     6  53    4.00   463.4    5.2      40.544
2014    8       14     6  59    4.00   463.3    5.2      40.533
2014    8       14     7   5    4.00   463.2    5.2      40.523
2014    8       14     7  11    4.00   463.1    5.2      40.513
2014    8       14     7  17    4.00   463.0    5.2      40.502
2014    8       14     7  23    4.00   462.9    5.2      40.491
2014    8       14     7  29    4.00   462.7    5.2      40.481
2014    8       14     7  35    4.00   462.6    5.2      40.470
2014    8       14     7  41    4.00   462.5    5.2      40.458
2014    8       14     7  47    4.00   462.4    5.2      40.447
2014    8       14     7  53    4.00   462.3    5.2      40.435
2014    8       14     7  59    4.00   462.2    5.2      40.423
2014    8       14     8   4    4.00   462.0    5.2      40.410
2014    8       14     8  10    4.00   461.9    5.2      40.397
2014    8       14     8  16    4.00   461.8    5.2      40.383
2014    8       14     8  22    4.00   461.7    5.2      40.368
2014    8       14     8  28    4.00   461.6    5.2      40.354
2014    8       14     8  34    4.00   461.5    5.2      40.338
2014    8       14     8  40    4.00   461.3    5.2      40.323
2014    8       14     8  46    4.00   461.2    5.2      40.306
2014    8       14     8  52    4.00   461.1    5.2      40.290
2014    8       14     8  58    4.00   461.0    5.2      40.273
2014    8       14     9   4    4.00   460.9    5.2      40.255
2014    8       14     9  10    4.00   460.8    5.2      40.238
2014    8       14     9  16    4.00   460.6    5.2      40.219
2014    8       14     9  22    4.00   460.5    5.2      40.201
2014    8       14     9  28    4.00   460.4    5.2      40.182
2014    8       14     9  33    4.00   460.3    5.2      40.163
2014    8       14     9  39    4.00   460.2    5.2      40.143
2014    8       14     9  45    4.00   460.1    5.2      40.123
2014    8       14     9  51    4.00   460.0    5.2      40.103
2014    8       14     9  57    4.00   459.8    5.2      40.082
2014    8       14    10   3    4.00   459.7    5.2      40.062
2014    8       14    10   9    4.00   459.6    5.2      40.041
2014    8       14    10  15    4.00   459.5    5.2      40.019
2014    8       14    10  21    4.00   459.4    5.2      39.997
2014    8       14    10  27    4.00   459.3    5.2      39.975
2014    8       14    10  33    4.00   459.1    5.2      39.953
2014    8       14    10  39    4.00   459.0    5.2      39.930
2014    8       14    10  45    4.00   458.9    5.2      39.907
2014    8       14    10  51    4.00   458.8    5.2      39.883
2014    8       14    10  57    4.00   458.6    5.2      39.860
2014    8       14    11   3    4.00   458.5    5.2      39.836
2014    8       14    11   8    4.00   458.4    5.2      39.813
2014    8       14    11  14    4.00   458.3    5.2      39.789
2014    8       14    11  20    4.00   458.1    5.3      39.766
2014    8       14    11  26    4.00   458.0    5.3      39.742
2014    8       14    11  32    4.00   457.9    5.3      39.720
2014    8       14    11  38    4.00   457.7    5.3      39.697
2014    8       14    11  44    4.00   457.6    5.3      39.675
2014    8       14    11  50    4.00   457.5    5.3      39.654
2014    8       14    11  56    4.00   457.3    5.3      39.634
2014    8       14    12   2    4.00   457.2    5.3      39.614
2014    8       14    12   8    4.00   457.1    5.3      39.595
2014    8       14    12  14    4.01   456.9    5.3      39.577
2014    8       14    12  20    4.01   456.8    5.3      39.561
2014    8       14    12  26    4.01   456.7    5.3      39.545
2014    8       14    12  32    4.01   456.5    5.3      39.530
2014    8       14    12  38    4.01   456.4    5.3      39.517
2014    8       14    12  43    4.01   456.3    5.3      39.505
2014    8       14    12  49    4.01   456.2    5.3      39.494
2014    8       14    12  55    4.01   456.0    5.3      39.484
2014    8       14    13   1    4.01   455.9    5.3      39.475
2014    8       14    13   7    4.01   455.8    5.3      39.467
2014    8       14    13  13    4.02   455.7    5.3      39.460
2014    8       14    13  19    4.02   455.5    5.3      39.454
2014    8       14    13  25    4.02   455.4    5.3      39.450
2014    8       14    13  31    4.02   455.3    5.3      39.446
2014    8       14    13  37    4.02   455.2    5.3      39.442
2014    8       14    13  43    4.02   455.0    5.3      39.440
2014    8       14    13  49    4.02   454.9    5.4      39.438
2014    8       14    13  55    4.02   454.8    5.4      39.437
2014    8       14    14   1    4.03   454.7    5.4      39.436
2014    8       14    14   7    4.03   454.6    5.4      39.436
2014    8       14    14  13    4.03   454.4    5.4      39.437
2014    8       14    14  18    4.03   454.3    5.4      39.437
2014    8       14    14  24    4.03   454.2    5.4      39.438
2014    8       14    14  30    4.03   454.1    5.4      39.440
2014    8       14    14  36    4.04   453.9    5.4      39.442
2014    8       14    14  42    4.04   453.8    5.4      39.444
2014    8       14    14  48    4.04   453.7    5.4      39.448
2014    8       14    14  54    4.04   453.6    5.4      39.451
2014    8       14    15   0    4.04   453.4    5.4      39.455
2014    8       14    15   6    4.04   453.3    5.4      39.460
2014    8       14    15  12    4.05   453.2    5.4      39.465
2014    8       14    15  18    4.05   453.0    5.4      39.470
2014    8       14    15  24    4.05   452.9    5.5      39.476
2014    8       14    15  30    4.05   452.8    5.5      39.482
2014    8       14    15  36    4.05   452.7    5.5      39.489
2014    8       14    15  42    4.06   452.6    5.5      39.496
2014    8       14    15  47    4.06   452.4    5.5      39.503
2014    8       14    15  53    4.06   452.3    5.5      39.511
2014    8       14    15  59    4.06   452.2    5.5      39.519
2014    8       14    16   5    4.07   452.1    5.5      39.527
2014    8       14    16  11    4.07   452.0    5.5      39.536
2014    8       14    16  17    4.07   451.9    5.5      39.546
2014    8       14    16  23    4.07   451.8    5.5      39.556
2014    8       14    16  29    4.08   451.6    5.5      39.566
2014    8       14    16  35    4.08   451.5    5.5      39.577
2014    8       14    16  41    4.08   451.4    5.6      39.589
2014    8       14    16  47    4.08   451.3    5.6      39.603
2014    8       14    16  53    4.09   451.2    5.6      39.617
2014    8       14    16  59    4.09   451.1    5.6      39.633
2014    8       14    17   5    4.09   451.1    5.6      39.650
2014    8       14    17  11    4.09   451.0    5.6      39.667
2014    8       14    17  16    4.10   450.9    5.6      39.685
2014    8       14    17  22    4.10   450.8    5.6      39.703
2014    8       14    17  28    4.10   450.7    5.6      39.719
2014    8       14    17  34    4.10   450.6    5.6      39.735
2014    8       14    17  40    4.11   450.5    5.6      39.751
2014    8       14    17  46    4.11   450.4    5.6      39.766
2014    8       14    17  52    4.11   450.4    5.6      39.780
2014    8       14    17  58    4.11   450.3    5.7      39.794
2014    8       14    18   4    4.12   450.2    5.7      39.807
2014    8       14    18  10    4.12   450.1    5.7      39.820
2014    8       14    18  16    4.12   450.0    5.7      39.832
2014    8       14    18  22    4.12   449.9    5.7      39.843
2014    8       14    18  28    4.13   449.9    5.7      39.853
2014    8       14    18  34    4.13   449.8    5.7      39.863
2014    8       14    18  40    4.13   449.7    5.7      39.873
2014    8       14    18  46    4.13   449.6    5.7      39.882
2014    8       14    18  51    4.14   449.5    5.7      39.891
2014    8       14    18  57    4.14   449.5    5.7      39.900
2014    8       14    19   3    4.14   449.4    5.7      39.908
2014    8       14    19   9    4.14   449.3    5.7      39.916
2014    8       14    19  15    4.15   449.2    5.7      39.924
2014    8       14    19  21    4.15   449.1    5.7      39.932
2014    8       14    19  27    4.15   449.1    5.7      39.939
2014    8       14    19  33    4.15   449.0    5.8      39.947
2014    8       14    19  39    4.16   448.9    5.8      39.955
2014    8       14    19  45    4.16   448.8    5.8      39.963
2014    8       14    19  51    4.16   448.7    5.8      39.971
2014    8       14    19  57    4.16   448.7    5.8      39.978
2014    8       14    20   3    4.17   448.6    5.8      39.987
2014    8       14    20   9    4.17   448.5    5.8      39.995
2014    8       14    20  15    4.17   448.4    5.8      40.004
2014    8       14    20  21    4.17   448.4    5.8      40.013
2014    8       14    20  26    4.18   448.3    5.8      40.022
2014    8       14    20  32    4.18   448.2    5.8      40.032
2014    8       14    20  38    4.18   448.2    5.8      40.041
2014    8       14    20  44    4.19   448.1    5.8      40.052
2014    8       14    20  50    4.19   448.0    5.8      40.062
2014    8       14    20  56    4.19   448.0    5.8      40.073
2014    8       14    21   2    4.19   447.9    5.9      40.084
2014    8       14    21   8    4.20   447.8    5.9      40.096
2014    8       14    21  14    4.20   447.8    5.9      40.107
2014    8       14    21  20    4.20   447.7    5.9      40.119
2014    8       14    21  26    4.21   447.7    5.9      40.132
2014    8       14    21  32    4.21   447.6    5.9      40.144
2014    8       14    21  38    4.21   447.5    5.9      40.157
2014    8       14    21  44    4.22   447.5    5.9      40.170
2014    8       14    21  50    4.22   447.4    5.9      40.183
2014    8       14    21  55    4.22   447.4    5.9      40.197
2014    8       14    22   1    4.23   447.3    5.9      40.211
2014    8       14    22   7    4.23   447.3    5.9      40.225
2014    8       14    22  13    4.23   447.2    5.9      40.239
2014    8       14    22  19    4.24   447.1    6.0      40.254
2014    8       14    22  25    4.24   447.1    6.0      40.270
2014    8       14    22  31    4.24   447.0    6.0      40.285
2014    8       14    22  37    4.25   447.0    6.0      40.302
2014    8       14    22  43    4.25   446.9    6.0      40.319
2014    8       14    22  49    4.25   446.8    6.0      40.336
2014    8       14    22  55    4.26   446.8    6.0      40.355
2014    8       14    23   1    4.26   446.7    6.0      40.375
2014    8       14    23   7    4.26   446.7    6.0      40.397
2014    8       14    23  13    4.27   446.6    6.0      40.420
2014    8       14    23  19    4.27   446.6    6.0      40.446
2014    8       14    23  24    4.28   446.5    6.0      40.473
2014    8       14    23  30    4.28   446.5    6.1      40.501
2014    8       14    23  36    4.28   446.5    6.1      40.531
2014    8       14    23  42    4.29   446.4    6.1      40.560
2014    8       14    23  48    4.29   446.4    6.1      40.589
2014    8       14    23  54    4.29   446.3    6.1      40.619
2014    8       15     0   0    4.30   446.3    6.1      40.649
2014    8       15     0   6    4.30   446.3    6.1      40.681
2014    8       15     0  12    4.31   446.3    6.1      40.714
2014    8       15     0  18    4.31   446.2    6.1      40.747
2014    8       15     0  24    4.31   446.2    6.1      40.781
2014    8       15     0  30    4.32   446.2    6.2      40.815
2014    8       15     0  36    4.32   446.2    6.2      40.849
2014    8       15     0  42    4.33   446.2    6.2      40.883
2014    8       15     0  48    4.33   446.1    6.2      40.916
2014    8       15     0  53    4.33   446.1    6.2      40.949
2014    8       15     0  59    4.34   446.1    6.2      40.981
2014    8       15     1   5    4.34   446.1    6.2      41.012
2014    8       15     1  11    4.34   446.1    6.2      41.043
2014    8       15     1  17    4.35   446.1    6.2      41.074
2014    8       15     1  23    4.35   446.1    6.2      41.103
2014    8       15     1  29    4.35   446.1    6.2      41.132
2014    8       15     1  35    4.36   446.1    6.2      41.160
2014    8       15     1  41    4.36   446.1    6.2      41.187
2014    8       15     1  47    4.36   446.0    6.3      41.214
2014    8       15     1  53    4.37   446.0    6.3      41.240
2014    8       15     1  59    4.37   446.0    6.3      41.265
2014    8       15     2   5    4.37   446.0    6.3      41.290
2014    8       15     2  11    4.37   446.0    6.3      41.314
2014    8       15     2  17    4.38   446.0    6.3      41.337
2014    8       15     2  23    4.38   446.0    6.3      41.361
2014    8       15     2  28    4.38   446.0    6.3      41.383
2014    8       15     2  34    4.39   446.0    6.3      41.405
2014    8       15     2  40    4.39   446.0    6.3      41.427
2014    8       15     2  46    4.39   446.0    6.3      41.448
2014    8       15     2  52    4.40   446.0    6.3      41.469
2014    8       15     2  58    4.40   446.0    6.3      41.490
2014    8       15     3   4    4.40   446.0    6.3      41.510
2014    8       15     3  10    4.41   446.0    6.3      41.530
2014    8       15     3  16    4.41   446.0    6.3      41.549
2014    8       15     3  22    4.41   446.0    6.3      41.569
2014    8       15     3  28    4.42   446.0    6.3      41.588
2014    8       15     3  34    4.42   446.0    6.3      41.607
2014    8       15     3  40    4.42   446.0    6.4      41.626
2014    8       15     3  46    4.43   446.0    6.4      41.645
2014    8       15     3  52    4.43   446.0    6.4      41.664
2014    8       15     3  58    4.43   446.0    6.4      41.684
2014    8       15     4   3    4.43   446.0    6.4      41.703
2014    8       15     4   9    4.44   446.0    6.4      41.722
2014    8       15     4  15    4.44   446.0    6.4      41.742
2014    8       15     4  21    4.44   446.0    6.4      41.761
2014    8       15     4  27    4.45   446.0    6.4      41.781
2014    8       15     4  33    4.45   446.0    6.4      41.801
2014    8       15     4  39    4.45   446.0    6.4      41.822
2014    8       15     4  45    4.46   446.0    6.4      41.843
2014    8       15     4  51    4.46   446.0    6.4      41.864
2014    8       15     4  57    4.46   446.0    6.4      41.885
2014    8       15     5   3    4.47   446.0    6.4      41.906
2014    8       15     5   9    4.47   446.1    6.4      41.928
2014    8       15     5  15    4.47   446.1    6.4      41.950
2014    8       15     5  21    4.48   446.1    6.4      41.973
2014    8       15     5  27    4.48   446.1    6.4      41.995
2014    8       15     5  32    4.48   446.1    6.5      42.018
2014    8       15     5  38    4.49   446.1    6.5      42.041
2014    8       15     5  44    4.49   446.1    6.5      42.065
2014    8       15     5  50    4.49   446.2    6.5      42.089
2014    8       15     5  56    4.50   446.2    6.5      42.113
2014    8       15     6   2    4.50   446.2    6.5      42.137
2014    8       15     6   8    4.51   446.2    6.5      42.161
2014    8       15     6  14    4.51   446.2    6.5      42.187
2014    8       15     6  20    4.51   446.2    6.5      42.213
2014    8       15     6  26    4.52   446.2    6.5      42.242
2014    8       15     6  32    4.52   446.3    6.5      42.271
2014    8       15     6  38    4.52   446.3    6.5      42.303
2014    8       15     6  44    4.53   446.3    6.5      42.337
2014    8       15     6  50    4.53   446.4    6.5      42.372
2014    8       15     6  56    4.53   446.4    6.5      42.408
2014    8       15     7   1    4.54   446.4    6.6      42.444
2014    8       15     7   7    4.54   446.4    6.6      42.481
2014    8       15     7  13    4.54   446.5    6.6      42.517
2014    8       15     7  19    4.55   446.5    6.6      42.553
2014    8       15     7  25    4.55   446.5    6.6      42.588
2014    8       15     7  31    4.55   446.6    6.6      42.623
2014    8       15     7  37    4.55   446.6    6.6      42.658
2014    8       15     7  43    4.56   446.6    6.6      42.692
2014    8       15     7  49    4.56   446.7    6.6      42.725
2014    8       15     7  55    4.56   446.7    6.6      42.758
2014    8       15     8   1    4.57   446.7    6.6      42.790
2014    8       15     8   7    4.57   446.8    6.6      42.821
2014    8       15     8  13    4.57   446.8    6.6      42.852
2014    8       15     8  19    4.57   446.9    6.6      42.883
2014    8       15     8  25    4.58   446.9    6.6      42.913
2014    8       15     8  30    4.58   446.9    6.6      42.943
2014    8       15     8  36    4.58   447.0    6.6      42.973
2014    8       15     8  42    4.59   447.0    6.6      43.002
2014    8       15     8  48    4.59   447.1    6.6      43.031
2014    8       15     8  54    4.59   447.1    6.6      43.059
2014    8       15     9   0    4.59   447.1    6.7      43.086
2014    8       15     9   6    4.60   447.2    6.7      43.113
2014    8       15     9  12    4.60   447.2    6.7      43.139
2014    8       15     9  18    4.60   447.2    6.7      43.165
2014    8       15     9  24    4.60   447.3    6.7      43.190
2014    8       15     9  30    4.61   447.3    6.7      43.215
2014    8       15     9  36    4.61   447.4    6.7      43.239
2014    8       15     9  42    4.61   447.4    6.7      43.263
2014    8       15     9  48    4.61   447.4    6.7      43.287
2014    8       15     9  54    4.62   447.5    6.7      43.310
2014    8       15    10   0    4.62   447.5    6.7      43.333
2014    8       15    10   5    4.62   447.6    6.7      43.355
2014    8       15    10  11    4.63   447.6    6.7      43.378
2014    8       15    10  17    4.63   447.6    6.7      43.402
2014    8       15    10  23    4.63   447.7    6.7      43.426
2014    8       15    10  29    4.63   447.7    6.7      43.450
2014    8       15    10  35    4.64   447.8    6.7      43.476
2014    8       15    10  41    4.64   447.9    6.7      43.501
2014    8       15    10  47    4.64   447.9    6.7      43.527
2014    8       15    10  53    4.64   448.0    6.7      43.552
2014    8       15    10  59    4.65   448.0    6.7      43.576
2014    8       15    11   5    4.65   448.1    6.7      43.600
2014    8       15    11  11    4.65   448.1    6.7      43.624
2014    8       15    11  17    4.65   448.2    6.7      43.647
2014    8       15    11  23    4.66   448.2    6.7      43.670
2014    8       15    11  29    4.66   448.3    6.7      43.692
2014    8       15    11  35    4.66   448.4    6.7      43.714
2014    8       15    11  40    4.66   448.4    6.7      43.736
2014    8       15    11  46    4.67   448.5    6.7      43.758
2014    8       15    11  52    4.67   448.5    6.7      43.779
2014    8       15    11  58    4.67   448.6    6.7      43.800
2014    8       15    12   4    4.67   448.6    6.7      43.821
2014    8       15    12  10    4.68   448.7    6.7      43.842
2014    8       15    12  16    4.68   448.7    6.7      43.863
2014    8       15    12  22    4.68   448.8    6.7      43.884
2014    8       15    12  28    4.68   448.8    6.7      43.904
2014    8       15    12  34    4.69   448.9    6.7      43.925
2014    8       15    12  40    4.69   448.9    6.7      43.947
2014    8       15    12  46    4.69   449.0    6.7      43.968
2014    8       15    12  52    4.69   449.0    6.7      43.989
2014    8       15    12  58    4.69   449.1    6.8      44.010
2014    8       15    13   4    4.70   449.2    6.8      44.032
2014    8       15    13   9    4.70   449.2    6.8      44.053
2014    8       15    13  15    4.70   449.3    6.8      44.075
2014    8       15    13  21    4.70   449.3    6.8      44.097
2014    8       15    13  27    4.71   449.4    6.8      44.119
2014    8       15    13  33    4.71   449.4    6.8      44.141
2014    8       15    13  39    4.71   449.5    6.8      44.164
2014    8       15    13  45    4.71   449.5    6.8      44.187
2014    8       15    13  51    4.72   449.6    6.8      44.211
2014    8       15    13  57    4.72   449.7    6.8      44.235
2014    8       15    14   3    4.72   449.7    6.8      44.260
2014    8       15    14   9    4.72   449.8    6.8      44.286
2014    8       15    14  15    4.73   449.9    6.8      44.312
2014    8       15    14  21    4.73   449.9    6.8      44.338
2014    8       15    14  27    4.73   450.0    6.8      44.365
2014    8       15    14  33    4.73   450.0    6.8      44.392
2014    8       15    14  38    4.73   450.1    6.8      44.418
2014    8       15    14  44    4.74   450.2    6.8      44.445
2014    8       15    14  50    4.74   450.2    6.8      44.472
2014    8       15    14  56    4.74   450.3    6.8      44.498
2014    8       15    15   2    4.74   450.4    6.8      44.525
2014    8       15    15   8    4.75   450.4    6.8      44.551
2014    8       15    15  14    4.75   450.5    6.8      44.577
2014    8       15    15  20    4.75   450.5    6.8      44.604
2014    8       15    15  26    4.75   450.6    6.8      44.630
2014    8       15    15  32    4.76   450.7    6.8      44.657
2014    8       15    15  38    4.76   450.7    6.8      44.684
2014    8       15    15  44    4.76   450.8    6.8      44.711
2014    8       15    15  50    4.76   450.9    6.8      44.738
2014    8       15    15  56    4.76   450.9    6.8      44.766
2014    8       15    16   2    4.77   451.0    6.8      44.795
2014    8       15    16   7    4.77   451.1    6.8      44.824
2014    8       15    16  13    4.77   451.1    6.8      44.854
2014    8       15    16  19    4.77   451.2    6.8      44.885
2014    8       15    16  25    4.78   451.3    6.8      44.916
2014    8       15    16  31    4.78   451.3    6.8      44.948
2014    8       15    16  37    4.78   451.4    6.8      44.980
2014    8       15    16  43    4.78   451.5    6.8      45.014
2014    8       15    16  49    4.79   451.6    6.8      45.047
2014    8       15    16  55    4.79   451.6    6.8      45.082
2014    8       15    17   1    4.79   451.7    6.8      45.117
2014    8       15    17   7    4.80   451.8    6.8      45.153
2014    8       15    17  13    4.80   451.9    6.8      45.189
2014    8       15    17  19    4.80   452.0    6.8      45.225
2014    8       15    17  25    4.80   452.1    6.8      45.262
2014    8       15    17  31    4.81   452.1    6.8      45.299
2014    8       15    17  37    4.81   452.2    6.8      45.337
2014    8       15    17  42    4.81   452.3    6.8      45.375
2014    8       15    17  48    4.81   452.4    6.9      45.413
2014    8       15    17  54    4.82   452.5    6.9      45.451
2014    8       15    18   0    4.82   452.6    6.9      45.489
2014    8       15    18   6    4.82   452.7    6.9      45.527
2014    8       15    18  12    4.82   452.8    6.9      45.564
2014    8       15    18  18    4.83   452.8    6.9      45.601
2014    8       15    18  24    4.83   452.9    6.9      45.637
2014    8       15    18  30    4.83   453.0    6.9      45.673
2014    8       15    18  36    4.83   453.1    6.9      45.709
2014    8       15    18  42    4.84   453.2    6.9      45.744
2014    8       15    18  48    4.84   453.3    6.9      45.779
2014    8       15    18  54    4.84   453.4    6.9      45.813
2014    8       15    19   0    4.84   453.4    6.9      45.847
2014    8       15    19   6    4.84   453.5    6.9      45.882
2014    8       15    19  11    4.85   453.6    6.9      45.916
2014    8       15    19  17    4.85   453.7    6.9      45.950
2014    8       15    19  23    4.85   453.8    6.9      45.983
2014    8       15    19  29    4.85   453.9    6.9      46.017
2014    8       15    19  35    4.86   453.9    6.9      46.051
2014    8       15    19  41    4.86   454.0    6.9      46.086
2014    8       15    19  47    4.86   454.1    6.9      46.121
2014    8       15    19  53    4.86   454.2    6.9      46.157
2014    8       15    19  59    4.87   454.3    6.9      46.194
2014    8       15    20   5    4.87   454.4    6.9      46.231
2014    8       15    20  11    4.87   454.5    7.0      46.268
2014    8       15    20  17    4.87   454.6    7.0      46.305
2014    8       15    20  23    4.88   454.7    7.0      46.340
2014    8       15    20  29    4.88   454.8    7.0      46.375
2014    8       15    20  35    4.88   454.9    7.0      46.411
2014    8       15    20  40    4.88   455.0    7.0      46.448
2014    8       15    20  46    4.89   455.1    7.0      46.486
2014    8       15    20  52    4.89   455.2    7.0      46.524
2014    8       15    20  58    4.89   455.4    7.0      46.563
2014    8       15    21   4    4.89   455.5    7.0      46.603
2014    8       15    21  10    4.89   455.6    7.0      46.643
2014    8       15    21  16    4.90   455.7    7.0      46.683
2014    8       15    21  22    4.90   455.8    7.0      46.721
2014    8       15    21  28    4.90   456.0    7.0      46.759
2014    8       15    21  34    4.90   456.1    7.0      46.796
2014    8       15    21  40    4.90   456.2    7.0      46.833
2014    8       15    21  46    4.91   456.3    7.0      46.868
2014    8       15    21  52    4.91   456.4    7.0      46.903
2014    8       15    21  58    4.91   456.6    7.0      46.937
2014    8       15    22   4    4.91   456.7    7.0      46.970
2014    8       15    22   9    4.91   456.8    7.0      47.002
2014    8       15    22  15    4.92   456.9    7.0      47.033
2014    8       15    22  21    4.92   457.0    7.0      47.064
2014    8       15    22  27    4.92   457.2    7.0      47.095
2014    8       15    22  33    4.92   457.3    7.0      47.124
2014    8       15    22  39    4.92   457.4    7.0      47.153
2014    8       15    22  45    4.92   457.5    7.0      47.182
2014    8       15    22  51    4.92   457.7    7.0      47.210
2014    8       15    22  57    4.93   457.8    7.0      47.237
2014    8       15    23   3    4.93   457.9    7.0      47.265
2014    8       15    23   9    4.93   458.0    7.0      47.291
2014    8       15    23  15    4.93   458.1    7.0      47.318
2014    8       15    23  21    4.93   458.3    7.0      47.343
2014    8       15    23  27    4.93   458.4    7.0      47.369
2014    8       15    23  33    4.93   458.5    7.0      47.394
2014    8       15    23  39    4.94   458.6    7.0      47.419
2014    8       15    23  44    4.94   458.7    7.0      47.443
2014    8       15    23  50    4.94   458.9    7.0      47.467
2014    8       15    23  56    4.94   459.0    7.0      47.491
2014    8       16     0   2    4.94   459.1    7.0      47.514
2014    8       16     0   8    4.94   459.2    7.0      47.537
2014    8       16     0  14    4.94   459.3    7.0      47.559
2014    8       16     0  20    4.94   459.5    7.0      47.581
2014    8       16     0  26    4.95   459.6    7.0      47.603
2014    8       16     0  32    4.95   459.7    7.0      47.624
2014    8       16     0  38    4.95   459.8    7.0      47.645
2014    8       16     0  44    4.95   459.9    7.0      47.666
2014    8       16     0  50    4.95   460.0    7.0      47.686
2014    8       16     0  56    4.95   460.2    7.0      47.707
2014    8       16     1   2    4.95   460.3    7.0      47.727
2014    8       16     1   8    4.95   460.4    7.0      47.747
2014    8       16     1  14    4.95   460.5    7.0      47.767
2014    8       16     1  19    4.95   460.6    6.9      47.786
2014    8       16     1  25    4.96   460.7    6.9      47.806
2014    8       16     1  31    4.96   460.9    6.9      47.826
2014    8       16     1  37    4.96   461.0    6.9      47.846
2014    8       16     1  43    4.96   461.1    6.9      47.866
2014    8       16     1  49    4.96   461.2    6.9      47.886
2014    8       16     1  55    4.96   461.3    6.9      47.906
2014    8       16     2   1    4.96   461.4    6.9      47.927
2014    8       16     2   7    4.96   461.5    6.9      47.948
2014    8       16     2  13    4.96   461.6    6.9      47.970
2014    8       16     2  19    4.97   461.8    6.9      47.992
2014    8       16     2  25    4.97   461.9    6.9      48.016
2014    8       16     2  31    4.97   462.0    6.9      48.039
2014    8       16     2  37    4.97   462.1    6.9      48.063
2014    8       16     2  43    4.97   462.2    6.9      48.089
2014    8       16     2  48    4.97   462.3    6.9      48.116
2014    8       16     2  54    4.97   462.4    6.9      48.144
2014    8       16     3   0    4.97   462.6    6.9      48.174
2014    8       16     3   6    4.98   462.7    6.9      48.205
2014    8       16     3  12    4.98   462.8    6.9      48.237
2014    8       16     3  18    4.98   462.9    6.9      48.271
2014    8       16     3  24    4.98   463.0    6.9      48.306
2014    8       16     3  30    4.98   463.2    6.9      48.341
2014    8       16     3  36    4.98   463.3    6.9      48.377
2014    8       16     3  42    4.98   463.4    6.9      48.413
2014    8       16     3  48    4.99   463.6    6.9      48.450
2014    8       16     3  54    4.99   463.7    6.9      48.488
2014    8       16     4   0    4.99   463.8    6.9      48.525
2014    8       16     4   6    4.99   464.0    6.9      48.562
2014    8       16     4  12    4.99   464.1    6.9      48.599
2014    8       16     4  17    4.99   464.2    6.9      48.635
2014    8       16     4  23    4.99   464.4    6.9      48.670
2014    8       16     4  29    4.99   464.5    6.9      48.705
2014    8       16     4  35    5.00   464.6    6.9      48.739
2014    8       16     4  41    5.00   464.8    6.9      48.773
2014    8       16     4  47    5.00   464.9    6.9      48.806
2014    8       16     4  53    5.00   465.0    6.9      48.838
2014    8       16     4  59    5.00   465.2    6.9      48.870
2014    8       16     5   5    5.00   465.3    6.9      48.902
2014    8       16     5  11    5.00   465.4    6.9      48.933
2014    8       16     5  17    5.00   465.6    6.9      48.964
2014    8       16     5  23    5.00   465.7    6.9      48.995
2014    8       16     5  29    5.01   465.8    6.9      49.025
2014    8       16     5  35    5.01   465.9    6.9      49.055
2014    8       16     5  41    5.01   466.1    6.9      49.086
2014    8       16     5  46    5.01   466.2    6.9      49.116
2014    8       16     5  52    5.01   466.3    6.9      49.147
2014    8       16     5  58    5.01   466.5    6.9      49.178
2014    8       16     6   4    5.01   466.6    6.9      49.210
2014    8       16     6  10    5.01   466.7    6.9      49.243
2014    8       16     6  16    5.02   466.9    6.9      49.277
2014    8       16     6  22    5.02   467.0    6.9      49.312
2014    8       16     6  28    5.02   467.1    6.9      49.348
2014    8       16     6  34    5.02   467.3    6.9      49.385
2014    8       16     6  40    5.02   467.4    6.9      49.423
2014    8       16     6  46    5.03   467.6    6.9      49.460
2014    8       16     6  52    5.03   467.7    6.9      49.498
2014    8       16     6  58    5.03   467.9    6.9      49.535
2014    8       16     7   4    5.03   468.1    6.9      49.573
2014    8       16     7  10    5.03   468.2    6.9      49.610
2014    8       16     7  15    5.03   468.4    6.9      49.648
2014    8       16     7  21    5.04   468.5    6.9      49.685
2014    8       16     7  27    5.04   468.7    6.9      49.721
2014    8       16     7  33    5.04   468.8    6.9      49.758
2014    8       16     7  39    5.04   469.0    6.9      49.795
2014    8       16     7  45    5.04   469.1    6.9      49.832
2014    8       16     7  51    5.05   469.3    6.9      49.868
2014    8       16     7  57    5.05   469.5    6.9      49.905
2014    8       16     8   3    5.05   469.6    6.9      49.941
2014    8       16     8   9    5.05   469.8    6.9      49.979
2014    8       16     8  15    5.05   469.9    6.9      50.019
2014    8       16     8  21    5.05   470.1    6.9      50.059
2014    8       16     8  27    5.06   470.3    6.9      50.099
2014    8       16     8  33    5.06   470.5    6.9      50.142
2014    8       16     8  39    5.06   470.7    6.9      50.184
2014    8       16     8  45    5.06   470.9    6.9      50.227
2014    8       16     8  50    5.06   471.0    6.9      50.270
2014    8       16     8  56    5.06   471.2    6.9      50.311
2014    8       16     9   2    5.07   471.4    6.9      50.351
2014    8       16     9   8    5.07   471.6    6.9      50.391
2014    8       16     9  14    5.07   471.8    6.9      50.430
2014    8       16     9  20    5.07   472.0    6.9      50.468
2014    8       16     9  26    5.07   472.2    6.9      50.505
2014    8       16     9  32    5.07   472.4    6.9      50.541
2014    8       16     9  38    5.07   472.6    6.9      50.577
2014    8       16     9  44    5.07   472.8    6.9      50.612
2014    8       16     9  50    5.07   473.0    6.8      50.646
2014    8       16     9  56    5.07   473.2    6.8      50.679
2014    8       16    10   2    5.07   473.4    6.8      50.711
2014    8       16    10   8    5.08   473.6    6.8      50.743
2014    8       16    10  14    5.08   473.8    6.8      50.774
2014    8       16    10  19    5.08   474.0    6.8      50.804
2014    8       16    10  25    5.08   474.2    6.8      50.834
2014    8       16    10  31    5.08   474.4    6.8      50.863
2014    8       16    10  37    5.08   474.5    6.8      50.892
2014    8       16    10  43    5.08   474.7    6.8      50.920
2014    8       16    10  49    5.08   474.9    6.8      50.947
2014    8       16    10  55    5.08   475.1    6.8      50.974
2014    8       16    11   1    5.08   475.3    6.8      51.001
2014    8       16    11   7    5.08   475.5    6.8      51.026
2014    8       16    11  13    5.08   475.7    6.8      51.052
2014    8       16    11  19    5.08   475.9    6.8      51.077
2014    8       16    11  25    5.08   476.1    6.8      51.102
2014    8       16    11  31    5.08   476.3    6.8      51.126
2014    8       16    11  37    5.08   476.5    6.8      51.150
2014    8       16    11  43    5.08   476.7    6.8      51.174
2014    8       16    11  48    5.08   476.9    6.8      51.197
2014    8       16    11  54    5.08   477.1    6.7      51.221
2014    8       16    12   0    5.08   477.3    6.7      51.244
2014    8       16    12   6    5.08   477.5    6.7      51.267
2014    8       16    12  12    5.08   477.7    6.7      51.290
2014    8       16    12  18    5.08   477.9    6.7      51.312
2014    8       16    12  24    5.08   478.1    6.7      51.335
2014    8       16    12  30    5.08   478.3    6.7      51.357
2014    8       16    12  36    5.08   478.5    6.7      51.379
2014    8       16    12  42    5.08   478.7    6.7      51.402
2014    8       16    12  48    5.08   478.9    6.7      51.424
2014    8       16    12  54    5.07   479.1    6.7      51.447
2014    8       16    13   0    5.07   479.3    6.7      51.470
2014    8       16    13   6    5.07   479.4    6.7      51.493
2014    8       16    13  12    5.07   479.6    6.7      51.517
2014    8       16    13  17    5.07   479.8    6.7      51.541
2014    8       16    13  23    5.07   480.0    6.7      51.564
2014    8       16    13  29    5.07   480.2    6.7      51.588
2014    8       16    13  35    5.07   480.4    6.7      51.613
2014    8       16    13  41    5.07   480.6    6.7      51.638
2014    8       16    13  47    5.07   480.8    6.7      51.663
2014    8       16    13  53    5.07   481.0    6.7      51.689
2014    8       16    13  59    5.07   481.2    6.6      51.715
2014    8       16    14   5    5.07   481.4    6.6      51.743
2014    8       16    14  11    5.07   481.5    6.6      51.773
2014    8       16    14  17    5.07   481.7    6.6      51.804
2014    8       16    14  23    5.07   481.9    6.6      51.837
2014    8       16    14  29    5.06   482.1    6.6      51.873
2014    8       16    14  35    5.06   482.3    6.6      51.910
2014    8       16    14  41    5.06   482.5    6.6      51.948
2014    8       16    14  47    5.06   482.7    6.6      51.987
2014    8       16    14  52    5.06   482.9    6.6      52.025
2014    8       16    14  58    5.06   483.1    6.6      52.064
2014    8       16    15   4    5.06   483.3    6.6      52.102
2014    8       16    15  10    5.06   483.5    6.6      52.139
2014    8       16    15  16    5.06   483.7    6.6      52.177
2014    8       16    15  22    5.06   483.9    6.6      52.214
2014    8       16    15  28    5.05   484.1    6.6      52.250
2014    8       16    15  34    5.05   484.3    6.6      52.286
2014    8       16    15  40    5.05   484.6    6.6      52.321
2014    8       16    15  46    5.05   484.8    6.6      52.354
2014    8       16    15  52    5.05   485.0    6.6      52.386
2014    8       16    15  58    5.05   485.2    6.6      52.418
2014    8       16    16   4    5.05   485.4    6.6      52.448
2014    8       16    16  10    5.05   485.6    6.5      52.477
2014    8       16    16  16    5.04   485.8    6.5      52.505
2014    8       16    16  21    5.04   486.0    6.5      52.532
2014    8       16    16  27    5.04   486.2    6.5      52.557
2014    8       16    16  33    5.04   486.4    6.5      52.581
2014    8       16    16  39    5.04   486.7    6.5      52.605
2014    8       16    16  45    5.04   486.9    6.5      52.627
2014    8       16    16  51    5.03   487.1    6.5      52.648
2014    8       16    16  57    5.03   487.3    6.5      52.668
2014    8       16    17   3    5.03   487.5    6.5      52.686
2014    8       16    17   9    5.03   487.7    6.5      52.704
2014    8       16    17  15    5.03   487.9    6.5      52.721
2014    8       16    17  21    5.03   488.2    6.5      52.736
2014    8       16    17  27    5.02   488.4    6.4      52.751
2014    8       16    17  33    5.02   488.6    6.4      52.764
2014    8       16    17  39    5.02   488.8    6.4      52.777
2014    8       16    17  45    5.02   489.0    6.4      52.788
2014    8       16    17  50    5.02   489.2    6.4      52.799
2014    8       16    17  56    5.01   489.4    6.4      52.809
2014    8       16    18   2    5.01   489.6    6.4      52.818
2014    8       16    18   8    5.01   489.8    6.4      52.826
2014    8       16    18  14    5.01   490.0    6.4      52.833
2014    8       16    18  20    5.00   490.3    6.4      52.840
2014    8       16    18  26    5.00   490.5    6.4      52.846
2014    8       16    18  32    5.00   490.7    6.3      52.851
2014    8       16    18  38    5.00   490.9    6.3      52.856
2014    8       16    18  44    4.99   491.1    6.3      52.860
2014    8       16    18  50    4.99   491.3    6.3      52.864
2014    8       16    18  56    4.99   491.5    6.3      52.867
2014    8       16    19   2    4.99   491.7    6.3      52.870
2014    8       16    19   8    4.99   491.9    6.3      52.872
2014    8       16    19  14    4.98   492.1    6.3      52.874
2014    8       16    19  19    4.98   492.3    6.3      52.875
2014    8       16    19  25    4.98   492.5    6.3      52.875
2014    8       16    19  31    4.98   492.7    6.3      52.875
2014    8       16    19  37    4.97   492.9    6.2      52.874
2014    8       16    19  43    4.97   493.1    6.2      52.873
2014    8       16    19  49    4.97   493.3    6.2      52.871
2014    8       16    19  55    4.96   493.4    6.2      52.869
2014    8       16    20   1    4.96   493.6    6.2      52.866
2014    8       16    20   7    4.96   493.8    6.2      52.863
2014    8       16    20  13    4.96   494.0    6.2      52.859
2014    8       16    20  19    4.95   494.2    6.2      52.855
2014    8       16    20  25    4.95   494.4    6.2      52.850
2014    8       16    20  31    4.95   494.6    6.2      52.845
2014    8       16    20  37    4.95   494.8    6.2      52.840
2014    8       16    20  43    4.94   494.9    6.1      52.834
2014    8       16    20  48    4.94   495.1    6.1      52.828
2014    8       16    20  54    4.94   495.3    6.1      52.821
2014    8       16    21   0    4.93   495.5    6.1      52.815
2014    8       16    21   6    4.93   495.7    6.1      52.808
2014    8       16    21  12    4.93   495.9    6.1      52.801
2014    8       16    21  18    4.92   496.0    6.1      52.794
2014    8       16    21  24    4.92   496.2    6.1      52.787
2014    8       16    21  30    4.92   496.4    6.1      52.780
2014    8       16    21  36    4.92   496.6    6.1      52.772
2014    8       16    21  42    4.91   496.7    6.0      52.764
2014    8       16    21  48    4.91   496.9    6.0      52.756
2014    8       16    21  54    4.91   497.1    6.0      52.747
2014    8       16    22   0    4.90   497.2    6.0      52.737
2014    8       16    22   6    4.90   497.4    6.0      52.727
2014    8       16    22  12    4.90   497.6    6.0      52.717
2014    8       16    22  18    4.89   497.7    6.0      52.706
2014    8       16    22  23    4.89   497.9    6.0      52.694
2014    8       16    22  29    4.89   498.1    6.0      52.682
2014    8       16    22  35    4.88   498.2    6.0      52.669
2014    8       16    22  41    4.88   498.4    6.0      52.656
2014    8       16    22  47    4.88   498.5    5.9      52.642
2014    8       16    22  53    4.87   498.7    5.9      52.627
2014    8       16    22  59    4.87   498.8    5.9      52.612
2014    8       16    23   5    4.87   499.0    5.9      52.597
2014    8       16    23  11    4.86   499.1    5.9      52.581
2014    8       16    23  17    4.86   499.3    5.9      52.565
2014    8       16    23  23    4.86   499.4    5.9      52.549
2014    8       16    23  29    4.85   499.6    5.9      52.532
2014    8       16    23  35    4.85   499.7    5.9      52.516
2014    8       16    23  41    4.85   499.9    5.9      52.498
2014    8       16    23  47    4.84   500.0    5.9      52.481
2014    8       16    23  52    4.84   500.1    5.8      52.464
2014    8       16    23  58    4.84   500.3    5.8      52.446
2014    8       17     0   4    4.83   500.4    5.8      52.429
2014    8       17     0  10    4.83   500.6    5.8      52.411
2014    8       17     0  16    4.83   500.7    5.8      52.393
2014    8       17     0  22    4.82   500.8    5.8      52.376
2014    8       17     0  28    4.82   500.9    5.8      52.358
2014    8       17     0  34    4.81   501.1    5.8      52.340
2014    8       17     0  40    4.81   501.2    5.8      52.323
2014    8       17     0  46    4.81   501.3    5.8      52.306
2014    8       17     0  52    4.80   501.5    5.8      52.289
2014    8       17     0  58    4.80   501.6    5.8      52.271
2014    8       17     1   4    4.80   501.7    5.8      52.254
2014    8       17     1  10    4.79   501.8    5.7      52.238
2014    8       17     1  16    4.79   501.9    5.7      52.222
2014    8       17     1  21    4.79   502.1    5.7      52.206
2014    8       17     1  27    4.78   502.2    5.7      52.190
2014    8       17     1  33    4.78   502.3    5.7      52.174
2014    8       17     1  39    4.78   502.4    5.7      52.158
2014    8       17     1  45    4.77   502.5    5.7      52.141
2014    8       17     1  51    4.77   502.7    5.7      52.124
2014    8       17     1  57    4.77   502.8    5.7      52.106
2014    8       17     2   3    4.76   502.9    5.7      52.087
2014    8       17     2   9    4.76   503.0    5.7      52.067
2014    8       17     2  15    4.76   503.2    5.7      52.047
2014    8       17     2  21    4.75   503.3    5.7      52.026
2014    8       17     2  27    4.75   503.4    5.7      52.004
2014    8       17     2  33    4.75   503.5    5.6      51.981
2014    8       17     2  39    4.74   503.7    5.6      51.958
2014    8       17     2  44    4.74   503.8    5.6      51.935
2014    8       17     2  50    4.74   503.9    5.6      51.910
2014    8       17     2  56    4.73   504.0    5.6      51.886
2014    8       17     3   2    4.73   504.1    5.6      51.860
2014    8       17     3   8    4.72   504.3    5.6      51.835
2014    8       17     3  14    4.72   504.4    5.6      51.808
2014    8       17     3  20    4.72   504.5    5.6      51.782
2014    8       17     3  26    4.71   504.6    5.6      51.755
2014    8       17     3  32    4.71   504.7    5.6      51.727
2014    8       17     3  38    4.71   504.8    5.6      51.699
2014    8       17     3  44    4.70   505.0    5.6      51.671
2014    8       17     3  50    4.70   505.1    5.5      51.642
2014    8       17     3  56    4.69   505.2    5.5      51.613
2014    8       17     4   2    4.69   505.3    5.5      51.584
2014    8       17     4   8    4.69   505.4    5.5      51.554
2014    8       17     4  14    4.68   505.5    5.5      51.524
2014    8       17     4  19    4.68   505.6    5.5      51.494
2014    8       17     4  25    4.68   505.7    5.5      51.463
2014    8       17     4  31    4.67   505.8    5.5      51.432
2014    8       17     4  37    4.67   505.9    5.5      51.401
2014    8       17     4  43    4.67   506.0    5.5      51.369
2014    8       17     4  49    4.66   506.1    5.5      51.337
2014    8       17     4  55    4.66   506.2    5.5      51.305
2014    8       17     5   1    4.65   506.3    5.5      51.273
2014    8       17     5   7    4.65   506.4    5.4      51.240
2014    8       17     5  13    4.65   506.5    5.4      51.208
2014    8       17     5  19    4.64   506.6    5.4      51.175
2014    8       17     5  25    4.64   506.6    5.4      51.143
2014    8       17     5  31    4.64   506.7    5.4      51.111
2014    8       17     5  37    4.63   506.8    5.4      51.078
2014    8       17     5  43    4.63   506.9    5.4      51.046
2014    8       17     5  48    4.63   506.9    5.4      51.014
2014    8       17     5  54    4.62   507.0    5.4      50.983
2014    8       17     6   0    4.62   507.1    5.4      50.952
2014    8       17     6   6    4.62   507.2    5.4      50.921
2014    8       17     6  12    4.61   507.2    5.4      50.891
2014    8       17     6  18    4.61   507.3    5.4      50.862
2014    8       17     6  24    4.61   507.3    5.4      50.833
2014    8       17     6  30    4.60   507.4    5.4      50.805
2014    8       17     6  36    4.60   507.4    5.4      50.778
2014    8       17     6  42    4.60   507.5    5.3      50.752
2014    8       17     6  48    4.59   507.5    5.3      50.726
2014    8       17     6  54    4.59   507.6    5.3      50.701
2014    8       17     7   0    4.59   507.6    5.3      50.677
2014    8       17     7   6    4.58   507.7    5.3      50.654
2014    8       17     7  12    4.58   507.7    5.3      50.631
2014    8       17     7  17    4.58   507.8    5.3      50.610
2014    8       17     7  23    4.57   507.8    5.3      50.589
2014    8       17     7  29    4.57   507.9    5.3      50.569
2014    8       17     7  35    4.57   507.9    5.3      50.549
2014    8       17     7  41    4.57   507.9    5.3      50.531
2014    8       17     7  47    4.56   508.0    5.3      50.513
2014    8       17     7  53    4.56   508.0    5.3      50.495
2014    8       17     7  59    4.56   508.0    5.3      50.478
2014    8       17     8   5    4.55   508.0    5.3      50.463
2014    8       17     8  11    4.55   508.1    5.3      50.447
2014    8       17     8  17    4.55   508.1    5.3      50.433
2014    8       17     8  23    4.55   508.1    5.3      50.419
2014    8       17     8  29    4.55   508.2    5.3      50.405
2014    8       17     8  35    4.54   508.2    5.3      50.391
2014    8       17     8  41    4.54   508.2    5.3      50.377
2014    8       17     8  46    4.54   508.3    5.3      50.363
2014    8       17     8  52    4.54   508.3    5.3      50.349
2014    8       17     8  58    4.53   508.3    5.3      50.334
2014    8       17     9   4    4.53   508.4    5.3      50.319
2014    8       17     9  10    4.53   508.4    5.3      50.304
2014    8       17     9  16    4.53   508.5    5.3      50.289
2014    8       17     9  22    4.52   508.5    5.3      50.273
2014    8       17     9  28    4.52   508.5    5.3      50.257
2014    8       17     9  34    4.52   508.6    5.3      50.240
2014    8       17     9  40    4.52   508.6    5.2      50.223
2014    8       17     9  46    4.52   508.7    5.2      50.206
2014    8       17     9  52    4.51   508.7    5.2      50.188
2014    8       17     9  58    4.51   508.7    5.2      50.171
2014    8       17    10   4    4.51   508.8    5.2      50.153
2014    8       17    10  10    4.51   508.8    5.2      50.135
2014    8       17    10  15    4.50   508.9    5.2      50.117
2014    8       17    10  21    4.50   508.9    5.2      50.099
2014    8       17    10  27    4.50   509.0    5.2      50.080
2014    8       17    10  33    4.50   509.0    5.2      50.062
2014    8       17    10  39    4.49   509.0    5.2      50.043
2014    8       17    10  45    4.49   509.1    5.2      50.025
2014    8       17    10  51    4.49   509.1    5.2      50.006
2014    8       17    10  57    4.49   509.2    5.2      49.987
2014    8       17    11   3    4.48   509.2    5.2      49.968
2014    8       17    11   9    4.48   509.2    5.2      49.949
2014    8       17    11  15    4.48   509.3    5.2      49.930
2014    8       17    11  21    4.48   509.3    5.2      49.911
2014    8       17    11  27    4.47   509.4    5.2      49.892
2014    8       17    11  33    4.47   509.4    5.2      49.874
2014    8       17    11  39    4.47   509.4    5.2      49.855
2014    8       17    11  44    4.47   509.5    5.2      49.836
2014    8       17    11  50    4.46   509.5    5.2      49.817
2014    8       17    11  56    4.46   509.6    5.2      49.798
2014    8       17    12   2    4.46   509.6    5.2      49.779
2014    8       17    12   8    4.46   509.6    5.2      49.761
2014    8       17    12  14    4.45   509.7    5.2      49.742
2014    8       17    12  20    4.45   509.7    5.2      49.724
2014    8       17    12  26    4.45   509.7    5.2      49.705
2014    8       17    12  32    4.45   509.8    5.2      49.687
2014    8       17    12  38    4.44   509.8    5.2      49.669
2014    8       17    12  44    4.44   509.8    5.2      49.650
2014    8       17    12  50    4.44   509.8    5.2      49.632
2014    8       17    12  56    4.44   509.9    5.1      49.614
2014    8       17    13   2    4.43   509.9    5.1      49.597
2014    8       17    13   8    4.43   509.9    5.1      49.579
2014    8       17    13  14    4.43   510.0    5.1      49.562
2014    8       17    13  19    4.43   510.0    5.1      49.544
2014    8       17    13  25    4.43   510.0    5.1      49.527
2014    8       17    13  31    4.42   510.0    5.1      49.510
2014    8       17    13  37    4.42   510.1    5.1      49.493
2014    8       17    13  43    4.42   510.1    5.1      49.477
2014    8       17    13  49    4.42   510.1    5.1      49.460
2014    8       17    13  55    4.42   510.1    5.1      49.444
2014    8       17    14   1    4.41   510.1    5.1      49.428
2014    8       17    14   7    4.41   510.1    5.1      49.413
2014    8       17    14  13    4.41   510.2    5.1      49.397
2014    8       17    14  19    4.41   510.2    5.1      49.382
2014    8       17    14  25    4.41   510.2    5.1      49.367
2014    8       17    14  31    4.40   510.2    5.1      49.352
2014    8       17    14  37    4.40   510.2    5.1      49.338
2014    8       17    14  43    4.40   510.2    5.1      49.324
2014    8       17    14  48    4.40   510.2    5.1      49.310
2014    8       17    14  54    4.40   510.3    5.1      49.296
2014    8       17    15   0    4.40   510.3    5.1      49.283
2014    8       17    15   6    4.39   510.3    5.1      49.269
2014    8       17    15  12    4.39   510.3    5.1      49.256
2014    8       17    15  18    4.39   510.3    5.1      49.242
2014    8       17    15  24    4.39   510.3    5.1      49.229
2014    8       17    15  30    4.39   510.3    5.1      49.216
2014    8       17    15  36    4.39   510.4    5.1      49.203
2014    8       17    15  42    4.39   510.4    5.1      49.190
2014    8       17    15  48    4.38   510.4    5.1      49.177
2014    8       17    15  54    4.38   510.4    5.1      49.165
2014    8       17    16   0    4.38   510.4    5.1      49.152
2014    8       17    16   6    4.38   510.4    5.1      49.140
2014    8       17    16  11    4.38   510.4    5.1      49.128
2014    8       17    16  17    4.38   510.4    5.1      49.116
2014    8       17    16  23    4.38   510.4    5.1      49.104
2014    8       17    16  29    4.38   510.5    5.1      49.092
2014    8       17    16  35    4.37   510.5    5.1      49.081
2014    8       17    16  41    4.37   510.5    5.1      49.070
2014    8       17    16  47    4.37   510.5    5.1      49.059
2014    8       17    16  53    4.37   510.5    5.1      49.048
2014    8       17    16  59    4.37   510.5    5.1      49.037
2014    8       17    17   5    4.37   510.5    5.1      49.027
2014    8       17    17  11    4.37   510.5    5.1      49.017
2014    8       17    17  17    4.37   510.6    5.1      49.007
2014    8       17    17  23    4.36   510.6    5.1      48.997
2014    8       17    17  29    4.36   510.6    5.1      48.988
2014    8       17    17  35    4.36   510.6    5.1      48.978
2014    8       17    17  40    4.36   510.6    5.1      48.970
2014    8       17    17  46    4.36   510.6    5.1      48.961
2014    8       17    17  52    4.36   510.6    5.1      48.953
2014    8       17    17  58    4.36   510.7    5.1      48.944
2014    8       17    18   4    4.35   510.7    5.1      48.936
2014    8       17    18  10    4.35   510.7    5.1      48.929
2014    8       17    18  16    4.35   510.7    5.1      48.921
2014    8       17    18  22    4.35   510.7    5.1      48.914
2014    8       17    18  28    4.35   510.7    5.0      48.907
2014    8       17    18  34    4.35   510.7    5.0      48.901
2014    8       17    18  40    4.35   510.8    5.0      48.895
2014    8       17    18  46    4.35   510.8    5.0      48.888
2014    8       17    18  52    4.35   510.8    5.0      48.883
2014    8       17    18  58    4.34   510.8    5.0      48.877
2014    8       17    19   4    4.34   510.8    5.0      48.872
2014    8       17    19  10    4.34   510.8    5.0      48.867
2014    8       17    19  15    4.34   510.8    5.0      48.862
2014    8       17    19  21    4.34   510.9    5.0      48.857
2014    8       17    19  27    4.34   510.9    5.0      48.853
2014    8       17    19  33    4.34   510.9    5.0      48.848
2014    8       17    19  39    4.34   510.9    5.0      48.844
2014    8       17    19  45    4.33   510.9    5.0      48.840
2014    8       17    19  51    4.33   510.9    5.0      48.836
2014    8       17    19  57    4.33   510.9    5.0      48.832
2014    8       17    20   3    4.33   510.9    5.0      48.829
2014    8       17    20   9    4.33   511.0    5.0      48.825
2014    8       17    20  15    4.33   511.0    5.0      48.822
2014    8       17    20  21    4.33   511.0    5.0      48.818
2014    8       17    20  27    4.33   511.0    5.0      48.815
2014    8       17    20  33    4.33   511.0    5.0      48.811
2014    8       17    20  39    4.33   511.0    5.0      48.808
2014    8       17    20  44    4.33   511.0    5.0      48.804
2014    8       17    20  50    4.32   511.0    5.0      48.801
2014    8       17    20  56    4.32   511.0    5.0      48.797
2014    8       17    21   2    4.32   511.1    5.0      48.794
2014    8       17    21   8    4.32   511.1    5.0      48.790
2014    8       17    21  14    4.32   511.1    5.0      48.786
2014    8       17    21  20    4.32   511.1    5.0      48.783
2014    8       17    21  26    4.32   511.1    5.0      48.779
2014    8       17    21  32    4.32   511.1    5.0      48.775
2014    8       17    21  38    4.32   511.1    5.0      48.771
2014    8       17    21  44    4.32   511.1    5.0      48.767
2014    8       17    21  50    4.32   511.1    5.0      48.763
2014    8       17    21  56    4.32   511.2    5.0      48.758
2014    8       17    22   2    4.32   511.2    5.0      48.754
2014    8       17    22   8    4.32   511.2    5.0      48.750
2014    8       17    22  13    4.31   511.2    5.0      48.746
2014    8       17    22  19    4.31   511.2    5.0      48.741
2014    8       17    22  25    4.31   511.2    5.0      48.737
2014    8       17    22  31    4.31   511.2    5.0      48.733
2014    8       17    22  37    4.31   511.3    5.0      48.728
2014    8       17    22  43    4.31   511.3    5.0      48.724
2014    8       17    22  49    4.31   511.3    5.0      48.720
2014    8       17    22  55    4.31   511.3    5.0      48.716
2014    8       17    23   1    4.31   511.3    5.0      48.712
2014    8       17    23   7    4.31   511.3    5.0      48.708
2014    8       17    23  13    4.31   511.4    5.0      48.705
2014    8       17    23  19    4.31   511.4    5.0      48.701
2014    8       17    23  25    4.31   511.4    5.0      48.698
2014    8       17    23  31    4.31   511.4    5.0      48.694
2014    8       17    23  37    4.31   511.4    5.0      48.691
2014    8       17    23  42    4.31   511.5    5.0      48.689
2014    8       17    23  48    4.31   511.5    5.0      48.686
2014    8       17    23  54    4.31   511.5    5.0      48.684
2014    8       18     0   0    4.31   511.5    5.0      48.682
2014    8       18     0   6    4.31   511.5    5.0      48.681
2014    8       18     0  12    4.31   511.6    5.0      48.679
2014    8       18     0  18    4.30   511.6    5.0      48.679
2014    8       18     0  24    4.30   511.6    5.0      48.678
2014    8       18     0  30    4.30   511.6    5.0      48.678
2014    8       18     0  36    4.30   511.7    5.0      48.678
2014    8       18     0  42    4.30   511.7    5.0      48.679
2014    8       18     0  48    4.30   511.7    5.0      48.680
2014    8       18     0  54    4.30   511.7    5.0      48.681
2014    8       18     1   0    4.30   511.7    5.0      48.683
2014    8       18     1   5    4.30   511.8    5.0      48.685
2014    8       18     1  11    4.30   511.8    5.0      48.688
2014    8       18     1  17    4.30   511.8    5.0      48.692
2014    8       18     1  23    4.30   511.8    5.0      48.695
2014    8       18     1  29    4.30   511.9    5.0      48.699
2014    8       18     1  35    4.30   511.9    5.0      48.704
2014    8       18     1  41    4.30   511.9    5.0      48.709
2014    8       18     1  47    4.30   511.9    5.0      48.715
2014    8       18     1  53    4.30   512.0    5.0      48.720
2014    8       18     1  59    4.30   512.0    5.0      48.727
2014    8       18     2   5    4.30   512.0    5.0      48.733
2014    8       18     2  11    4.30   512.1    5.0      48.740
2014    8       18     2  17    4.30   512.1    5.0      48.748
2014    8       18     2  23    4.30   512.1    5.0      48.755
2014    8       18     2  29    4.30   512.1    5.0      48.764
2014    8       18     2  35    4.30   512.2    5.0      48.772
2014    8       18     2  40    4.30   512.2    5.0      48.781
2014    8       18     2  46    4.30   512.2    5.0      48.790
2014    8       18     2  52    4.30   512.3    5.0      48.800
2014    8       18     2  58    4.30   512.3    5.0      48.811
2014    8       18     3   4    4.30   512.3    5.0      48.822
2014    8       18     3  10    4.30   512.4    5.0      48.834
2014    8       18     3  16    4.30   512.4    5.0      48.846
2014    8       18     3  22    4.30   512.4    5.0      48.858
2014    8       18     3  28    4.30   512.5    5.0      48.870
2014    8       18     3  34    4.29   512.5    5.0      48.882
2014    8       18     3  40    4.29   512.5    5.0      48.893
2014    8       18     3  46    4.29   512.5    5.0      48.904
2014    8       18     3  52    4.29   512.6    5.0      48.914
2014    8       18     3  58    4.29   512.6    5.0      48.924
2014    8       18     4   4    4.29   512.6    5.0      48.934
2014    8       18     4   9    4.29   512.7    5.0      48.943
2014    8       18     4  15    4.29   512.7    5.0      48.952
2014    8       18     4  21    4.29   512.7    5.0      48.960
2014    8       18     4  27    4.29   512.8    5.0      48.968
2014    8       18     4  33    4.29   512.8    5.0      48.976
2014    8       18     4  39    4.29   512.8    5.0      48.984
2014    8       18     4  45    4.29   512.9    5.0      48.991
2014    8       18     4  51    4.29   512.9    5.0      48.998
2014    8       18     4  57    4.29   512.9    5.0      49.005
2014    8       18     5   3    4.29   513.0    5.0      49.011
2014    8       18     5   9    4.29   513.0    5.0      49.018
2014    8       18     5  15    4.29   513.0    5.0      49.024
2014    8       18     5  21    4.29   513.1    5.0      49.030
2014    8       18     5  27    4.29   513.1    5.0      49.035
2014    8       18     5  33    4.29   513.1    5.0      49.041
2014    8       18     5  38    4.29   513.2    5.0      49.046
2014    8       18     5  44    4.29   513.2    5.0      49.051
2014    8       18     5  50    4.29   513.2    5.0      49.057
2014    8       18     5  56    4.29   513.3    5.0      49.062
2014    8       18     6   2    4.29   513.3    5.0      49.067
2014    8       18     6   8    4.29   513.4    5.0      49.072
2014    8       18     6  14    4.29   513.4    5.0      49.078
2014    8       18     6  20    4.29   513.5    5.0      49.083
2014    8       18     6  26    4.29   513.5    5.0      49.089
2014    8       18     6  32    4.29   513.5    5.0      49.094
2014    8       18     6  38    4.29   513.6    5.0      49.099
2014    8       18     6  44    4.29   513.6    5.0      49.104
2014    8       18     6  50    4.29   513.7    5.0      49.109
2014    8       18     6  56    4.29   513.7    5.0      49.114
2014    8       18     7   2    4.29   513.8    5.0      49.120
2014    8       18     7   7    4.29   513.8    5.0      49.125
2014    8       18     7  13    4.29   513.8    5.0      49.130
2014    8       18     7  19    4.29   513.9    5.0      49.135
2014    8       18     7  25    4.29   513.9    5.0      49.140
2014    8       18     7  31    4.29   514.0    5.0      49.145
2014    8       18     7  37    4.29   514.0    5.0      49.150
2014    8       18     7  43    4.29   514.1    5.0      49.156
2014    8       18     7  49    4.29   514.1    5.0      49.161
2014    8       18     7  55    4.29   514.2    5.0      49.167
2014    8       18     8   1    4.29   514.2    5.0      49.173
2014    8       18     8   7    4.29   514.3    5.0      49.179
2014    8       18     8  13    4.29   514.3    5.0      49.186
2014    8       18     8  19    4.29   514.3    5.0      49.192
2014    8       18     8  25    4.29   514.4    5.0      49.199
2014    8       18     8  30    4.29   514.4    5.0      49.207
2014    8       18     8  36    4.29   514.5    5.0      49.215
2014    8       18     8  42    4.29   514.5    5.0      49.223
2014    8       18     8  48    4.29   514.6    5.0      49.231
2014    8       18     8  54    4.29   514.6    5.0      49.241
2014    8       18     9   0    4.29   514.7    5.0      49.251
2014    8       18     9   6    4.29   514.7    5.0      49.261
2014    8       18     9  12    4.29   514.8    5.0      49.273
2014    8       18     9  18    4.29   514.8    5.0      49.284
2014    8       18     9  24    4.29   514.9    5.0      49.297
2014    8       18     9  30    4.29   514.9    5.0      49.311
2014    8       18     9  36    4.29   515.0    5.0      49.325
2014    8       18     9  42    4.29   515.0    5.0      49.340
2014    8       18     9  48    4.29   515.1    5.0      49.357
2014    8       18     9  54    4.29   515.1    5.0      49.374
2014    8       18    10   0    4.29   515.2    5.0      49.393
2014    8       18    10   5    4.29   515.2    5.0      49.412
2014    8       18    10  11    4.29   515.3    5.0      49.434
2014    8       18    10  17    4.29   515.4    5.0      49.459
2014    8       18    10  23    4.29   515.4    5.0      49.485
2014    8       18    10  29    4.29   515.5    5.0      49.514
2014    8       18    10  35    4.29   515.6    5.0      49.544
2014    8       18    10  41    4.29   515.7    5.0      49.575
2014    8       18    10  47    4.29   515.7    5.0      49.605
2014    8       18    10  53    4.29   515.8    5.0      49.635
2014    8       18    10  59    4.29   515.9    5.0      49.664
2014    8       18    11   5    4.29   515.9    5.0      49.692
2014    8       18    11  11    4.29   516.0    5.0      49.719
2014    8       18    11  17    4.30   516.1    5.0      49.745
2014    8       18    11  23    4.30   516.2    5.0      49.770
2014    8       18    11  29    4.30   516.2    5.0      49.793
2014    8       18    11  34    4.30   516.3    5.0      49.816
2014    8       18    11  40    4.30   516.4    5.0      49.838
2014    8       18    11  46    4.30   516.5    5.0      49.859
2014    8       18    11  52    4.29   516.5    5.0      49.879
2014    8       18    11  58    4.29   516.6    5.0      49.899
2014    8       18    12   4    4.29   516.7    5.0      49.917
2014    8       18    12  10    4.29   516.7    5.0      49.935
2014    8       18    12  16    4.29   516.8    5.0      49.953
2014    8       18    12  22    4.29   516.9    5.0      49.970
2014    8       18    12  28    4.29   516.9    5.0      49.986
2014    8       18    12  34    4.29   517.0    5.0      50.002
2014    8       18    12  40    4.29   517.1    5.0      50.017
2014    8       18    12  46    4.29   517.2    5.0      50.031
2014    8       18    12  52    4.29   517.2    5.0      50.045
2014    8       18    12  58    4.29   517.3    5.0      50.059
2014    8       18    13   3    4.29   517.4    5.0      50.072
2014    8       18    13   9    4.29   517.4    5.0      50.086
2014    8       18    13  15    4.29   517.5    5.0      50.098
2014    8       18    13  21    4.29   517.6    5.0      50.111
2014    8       18    13  27    4.29   517.6    5.0      50.123
2014    8       18    13  33    4.29   517.7    5.0      50.136
2014    8       18    13  39    4.29   517.8    5.0      50.148
2014    8       18    13  45    4.29   517.9    5.0      50.159
2014    8       18    13  51    4.29   517.9    5.0      50.170
2014    8       18    13  57    4.29   518.0    5.0      50.181
2014    8       18    14   3    4.29   518.1    5.0      50.192
2014    8       18    14   9    4.29   518.1    5.0      50.203
2014    8       18    14  15    4.29   518.2    5.0      50.213
2014    8       18    14  21    4.29   518.3    5.0      50.222
2014    8       18    14  27    4.29   518.4    5.0      50.232
2014    8       18    14  32    4.29   518.4    5.0      50.242
2014    8       18    14  38    4.29   518.5    5.0      50.251
2014    8       18    14  44    4.29   518.6    5.0      50.260
2014    8       18    14  50    4.29   518.6    5.0      50.268
2014    8       18    14  56    4.29   518.7    5.0      50.277
2014    8       18    15   2    4.29   518.8    5.0      50.285
2014    8       18    15   8    4.29   518.8    5.0      50.294
2014    8       18    15  14    4.29   518.9    5.0      50.302
2014    8       18    15  20    4.29   519.0    5.0      50.310
2014    8       18    15  26    4.29   519.0    5.0      50.318
2014    8       18    15  32    4.29   519.1    5.0      50.327
2014    8       18    15  38    4.29   519.2    5.0      50.335
2014    8       18    15  44    4.29   519.2    5.0      50.343
2014    8       18    15  50    4.29   519.3    5.0      50.352
2014    8       18    15  56    4.29   519.4    5.0      50.361
2014    8       18    16   1    4.29   519.4    5.0      50.370
2014    8       18    16   7    4.29   519.5    5.0      50.380
2014    8       18    16  13    4.29   519.6    5.0      50.390
2014    8       18    16  19    4.29   519.6    5.0      50.401
2014    8       18    16  25    4.29   519.7    5.0      50.412
2014    8       18    16  31    4.29   519.8    5.0      50.424
2014    8       18    16  37    4.29   519.8    5.0      50.436
2014    8       18    16  43    4.29   519.9    5.0      50.449
2014    8       18    16  49    4.29   520.0    5.0      50.463
2014    8       18    16  55    4.29   520.0    5.0      50.477
2014    8       18    17   1    4.29   520.1    5.0      50.493
2014    8       18    17   7    4.29   520.2    5.0      50.510
2014    8       18    17  13    4.29   520.2    5.0      50.527
2014    8       18    17  19    4.29   520.3    5.0      50.546
2014    8       18    17  25    4.29   520.4    5.0      50.565
2014    8       18    17  30    4.29   520.4    5.0      50.587
2014    8       18    17  36    4.29   520.5    5.0      50.611
2014    8       18    17  42    4.29   520.6    5.0      50.636
2014    8       18    17  48    4.29   520.7    5.0      50.664
2014    8       18    17  54    4.29   520.8    5.0      50.692
2014    8       18    18   0    4.29   520.9    5.0      50.722
2014    8       18    18   6    4.29   521.0    5.0      50.751
2014    8       18    18  12    4.29   521.0    5.0      50.780
2014    8       18    18  18    4.29   521.1    5.0      50.809
2014    8       18    18  24    4.29   521.2    5.0      50.836
2014    8       18    18  30    4.29   521.3    5.0      50.864
2014    8       18    18  36    4.29   521.4    5.0      50.891
2014    8       18    18  42    4.29   521.5    5.0      50.918
2014    8       18    18  48    4.29   521.6    5.0      50.945
2014    8       18    18  54    4.29   521.7    5.0      50.972
2014    8       18    18  59    4.29   521.8    5.0      50.998
2014    8       18    19   5    4.29   521.9    5.0      51.024
2014    8       18    19  11    4.29   521.9    5.0      51.050
2014    8       18    19  17    4.29   522.0    5.0      51.074
2014    8       18    19  23    4.29   522.1    5.0      51.098
2014    8       18    19  29    4.29   522.2    5.0      51.121
2014    8       18    19  35    4.29   522.3    5.0      51.143
2014    8       18    19  41    4.29   522.4    5.0      51.165
2014    8       18    19  47    4.28   522.5    5.0      51.186
2014    8       18    19  53    4.28   522.6    5.0      51.206
2014    8       18    19  59    4.28   522.7    5.0      51.226
2014    8       18    20   5    4.28   522.8    5.0      51.245
2014    8       18    20  11    4.28   522.9    5.0      51.264
2014    8       18    20  17    4.28   523.0    5.0      51.282
2014    8       18    20  23    4.28   523.1    5.0      51.300
2014    8       18    20  28    4.28   523.2    5.0      51.318
2014    8       18    20  34    4.28   523.2    5.0      51.335
2014    8       18    20  40    4.28   523.3    5.0      51.352
2014    8       18    20  46    4.28   523.4    5.0      51.369
2014    8       18    20  52    4.28   523.5    5.0      51.386
2014    8       18    20  58    4.28   523.6    5.0      51.402
2014    8       18    21   4    4.28   523.7    5.0      51.419
2014    8       18    21  10    4.28   523.8    5.0      51.435
2014    8       18    21  16    4.28   523.9    5.0      51.451
2014    8       18    21  22    4.28   524.0    5.0      51.466
2014    8       18    21  28    4.28   524.1    5.0      51.482
2014    8       18    21  34    4.28   524.2    5.0      51.497
2014    8       18    21  40    4.28   524.3    5.0      51.512
2014    8       18    21  46    4.27   524.4    5.0      51.527
2014    8       18    21  52    4.27   524.5    5.0      51.541
2014    8       18    21  57    4.27   524.6    5.0      51.555
2014    8       18    22   3    4.27   524.7    5.0      51.569
2014    8       18    22   9    4.27   524.8    5.0      51.583
2014    8       18    22  15    4.27   524.9    5.0      51.596
2014    8       18    22  21    4.27   525.0    5.0      51.609
2014    8       18    22  27    4.27   525.1    5.0      51.622
2014    8       18    22  33    4.27   525.1    5.0      51.635
2014    8       18    22  39    4.27   525.2    5.0      51.648
2014    8       18    22  45    4.27   525.3    5.0      51.661
2014    8       18    22  51    4.27   525.4    5.0      51.673
2014    8       18    22  57    4.27   525.5    5.0      51.686
2014    8       18    23   3    4.26   525.6    5.0      51.698
2014    8       18    23   9    4.26   525.7    5.0      51.710
2014    8       18    23  15    4.26   525.8    4.9      51.721
2014    8       18    23  21    4.26   525.9    4.9      51.732
2014    8       18    23  26    4.26   526.0    4.9      51.743
2014    8       18    23  32    4.26   526.1    4.9      51.753
2014    8       18    23  38    4.26   526.1    4.9      51.763
2014    8       18    23  44    4.26   526.2    4.9      51.772
2014    8       18    23  50    4.26   526.3    4.9      51.781
2014    8       18    23  56    4.26   526.4    4.9      51.790
2014    8       19     0   2    4.25   526.5    4.9      51.798
2014    8       19     0   8    4.25   526.6    4.9      51.806
2014    8       19     0  14    4.25   526.6    4.9      51.814
2014    8       19     0  20    4.25   526.7    4.9      51.821
2014    8       19     0  26    4.25   526.8    4.9      51.829
2014    8       19     0  32    4.25   526.9    4.9      51.836
2014    8       19     0  38    4.25   527.0    4.9      51.844
2014    8       19     0  44    4.25   527.0    4.9      51.851
2014    8       19     0  50    4.25   527.1    4.9      51.858
2014    8       19     0  55    4.24   527.2    4.9      51.866
2014    8       19     1   1    4.24   527.3    4.9      51.873
2014    8       19     1   7    4.24   527.4    4.9      51.880
2014    8       19     1  13    4.24   527.4    4.9      51.886
2014    8       19     1  19    4.24   527.5    4.9      51.892
2014    8       19     1  25    4.24   527.6    4.9      51.898
2014    8       19     1  31    4.24   527.7    4.9      51.904
2014    8       19     1  37    4.24   527.8    4.9      51.910
2014    8       19     1  43    4.23   527.8    4.9      51.915
2014    8       19     1  49    4.23   527.9    4.9      51.920
2014    8       19     1  55    4.23   528.0    4.9      51.926
2014    8       19     2   1    4.23   528.1    4.9      51.932
2014    8       19     2   7    4.23   528.2    4.9      51.938
2014    8       19     2  13    4.23   528.2    4.9      51.944
2014    8       19     2  19    4.23   528.3    4.9      51.950
2014    8       19     2  24    4.22   528.4    4.9      51.956
2014    8       19     2  30    4.22   528.5    4.9      51.961
2014    8       19     2  36    4.22   528.6    4.9      51.965
2014    8       19     2  42    4.22   528.6    4.9      51.968
2014    8       19     2  48    4.22   528.7    4.9      51.972
2014    8       19     2  54    4.22   528.8    4.9      51.975
2014    8       19     3   0    4.22   528.9    4.9      51.977
2014    8       19     3   6    4.21   528.9    4.9      51.979
2014    8       19     3  12    4.21   529.0    4.8      51.980
2014    8       19     3  18    4.21   529.1    4.8      51.982
2014    8       19     3  24    4.21   529.2    4.8      51.983
2014    8       19     3  30    4.21   529.2    4.8      51.984
2014    8       19     3  36    4.21   529.3    4.8      51.985
2014    8       19     3  42    4.20   529.4    4.8      51.985
2014    8       19     3  48    4.20   529.5    4.8      51.986
2014    8       19     3  53    4.20   529.5    4.8      51.986
2014    8       19     3  59    4.20   529.6    4.8      51.987
2014    8       19     4   5    4.20   529.7    4.8      51.987
2014    8       19     4  11    4.20   529.8    4.8      51.988
2014    8       19     4  17    4.19   529.8    4.8      51.989
2014    8       19     4  23    4.19   529.9    4.8      51.989
2014    8       19     4  29    4.19   530.0    4.8      51.989
2014    8       19     4  35    4.19   530.1    4.8      51.989
2014    8       19     4  41    4.19   530.1    4.8      51.989
2014    8       19     4  47    4.19   530.2    4.8      51.989
2014    8       19     4  53    4.18   530.3    4.8      51.988
2014    8       19     4  59    4.18   530.4    4.8      51.987
2014    8       19     5   5    4.18   530.4    4.8      51.986
2014    8       19     5  11    4.18   530.5    4.8      51.984
2014    8       19     5  17    4.18   530.6    4.8      51.982
2014    8       19     5  22    4.17   530.7    4.8      51.980
2014    8       19     5  28    4.17   530.7    4.8      51.978
2014    8       19     5  34    4.17   530.8    4.8      51.975
2014    8       19     5  40    4.17   530.9    4.8      51.971
2014    8       19     5  46    4.17   530.9    4.8      51.968
2014    8       19     5  52    4.16   531.0    4.8      51.964
2014    8       19     5  58    4.16   531.1    4.8      51.960
2014    8       19     6   4    4.16   531.1    4.8      51.956
2014    8       19     6  10    4.16   531.2    4.8      51.952
2014    8       19     6  16    4.15   531.3    4.8      51.947
2014    8       19     6  22    4.15   531.3    4.7      51.942
2014    8       19     6  28    4.15   531.4    4.7      51.937
2014    8       19     6  34    4.15   531.5    4.7      51.930
2014    8       19     6  40    4.15   531.5    4.7      51.923
2014    8       19     6  46    4.14   531.6    4.7      51.916
2014    8       19     6  51    4.14   531.6    4.7      51.908
2014    8       19     6  57    4.14   531.7    4.7      51.899
2014    8       19     7   3    4.14   531.7    4.7      51.890
2014    8       19     7   9    4.13   531.8    4.7      51.880
2014    8       19     7  15    4.13   531.9    4.7      51.869
2014    8       19     7  21    4.13   531.9    4.7      51.858
2014    8       19     7  27    4.13   532.0    4.7      51.846
2014    8       19     7  33    4.12   532.0    4.7      51.834
2014    8       19     7  39    4.12   532.1    4.7      51.821
2014    8       19     7  45    4.12   532.1    4.7      51.807
2014    8       19     7  51    4.12   532.1    4.7      51.793
2014    8       19     7  57    4.11   532.2    4.7      51.779
2014    8       19     8   3    4.11   532.2    4.7      51.763
2014    8       19     8   9    4.11   532.3    4.7      51.747
2014    8       19     8  15    4.11   532.3    4.7      51.731
2014    8       19     8  20    4.10   532.4    4.7      51.714
2014    8       19     8  26    4.10   532.4    4.7      51.696
2014    8       19     8  32    4.10   532.4    4.7      51.678
2014    8       19     8  38    4.10   532.5    4.7      51.659
2014    8       19     8  44    4.09   532.5    4.6      51.639
2014    8       19     8  50    4.09   532.5    4.6      51.619
2014    8       19     8  56    4.09   532.6    4.6      51.599
2014    8       19     9   2    4.08   532.6    4.6      51.577
2014    8       19     9   8    4.08   532.6    4.6      51.555
2014    8       19     9  14    4.08   532.7    4.6      51.533
2014    8       19     9  20    4.08   532.7    4.6      51.510
2014    8       19     9  26    4.07   532.7    4.6      51.486
2014    8       19     9  32    4.07   532.7    4.6      51.462
2014    8       19     9  38    4.07   532.8    4.6      51.437
2014    8       19     9  44    4.07   532.8    4.6      51.412
2014    8       19     9  49    4.06   532.8    4.6      51.386
2014    8       19     9  55    4.06   532.8    4.6      51.360
2014    8       19    10   1    4.06   532.8    4.6      51.334
2014    8       19    10   7    4.05   532.8    4.6      51.307
2014    8       19    10  13    4.05   532.9    4.6      51.280
2014    8       19    10  19    4.05   532.9    4.6      51.253
2014    8       19    10  25    4.05   532.9    4.6      51.225
2014    8       19    10  31    4.04   532.9    4.6      51.198
2014    8       19    10  37    4.04   532.9    4.6      51.170
2014    8       19    10  43    4.04   532.9    4.6      51.142
2014    8       19    10  49    4.03   532.9    4.6      51.114
2014    8       19    10  55    4.03   532.9    4.6      51.086
2014    8       19    11   1    4.03   532.9    4.5      51.058
2014    8       19    11   7    4.03   532.9    4.5      51.030
2014    8       19    11  13    4.02   532.9    4.5      51.002
2014    8       19    11  18    4.02   532.9    4.5      50.973
2014    8       19    11  24    4.02   532.9    4.5      50.945
2014    8       19    11  30    4.02   532.9    4.5      50.916
2014    8       19    11  36    4.01   532.9    4.5      50.888
2014    8       19    11  42    4.01   532.9    4.5      50.859
2014    8       19    11  48    4.01   532.9    4.5      50.831
2014    8       19    11  54    4.00   532.9    4.5      50.802
2014    8       19    12   0    4.00   532.9    4.5      50.773
2014    8       19    12   6    4.00   532.9    4.5      50.744
2014    8       19    12  12    3.99   532.9    4.5      50.714
2014    8       19    12  18    3.99   532.9    4.5      50.684
2014    8       19    12  24    3.99   532.8    4.5      50.653
2014    8       19    12  30    3.99   532.8    4.5      50.622
2014    8       19    12  36    3.98   532.8    4.5      50.591
2014    8       19    12  42    3.98   532.8    4.5      50.559
2014    8       19    12  47    3.98   532.8    4.5      50.527
2014    8       19    12  53    3.97   532.8    4.5      50.495
2014    8       19    12  59    3.97   532.7    4.5      50.462
2014    8       19    13   5    3.97   532.7    4.5      50.429
2014    8       19    13  11    3.97   532.7    4.5      50.396
2014    8       19    13  17    3.96   532.6    4.5      50.362
2014    8       19    13  23    3.96   532.6    4.5      50.328
2014    8       19    13  29    3.96   532.6    4.5      50.294
2014    8       19    13  35    3.95   532.6    4.5      50.260
2014    8       19    13  41    3.95   532.5    4.4      50.226
2014    8       19    13  47    3.95   532.5    4.4      50.191
2014    8       19    13  53    3.94   532.5    4.4      50.157
2014    8       19    13  59    3.94   532.4    4.4      50.122
2014    8       19    14   5    3.94   532.4    4.4      50.087
2014    8       19    14  11    3.93   532.3    4.4      50.052
2014    8       19    14  16    3.93   532.3    4.4      50.017
2014    8       19    14  22    3.93   532.3    4.4      49.982
2014    8       19    14  28    3.93   532.2    4.4      49.946
2014    8       19    14  34    3.92   532.2    4.4      49.911
2014    8       19    14  40    3.92   532.1    4.4      49.875
2014    8       19    14  46    3.92   532.1    4.4      49.839
2014    8       19    14  52    3.91   532.0    4.4      49.803
2014    8       19    14  58    3.91   532.0    4.4      49.767
2014    8       19    15   4    3.91   531.9    4.4      49.730
2014    8       19    15  10    3.91   531.9    4.4      49.694
2014    8       19    15  16    3.90   531.8    4.4      49.657
2014    8       19    15  22    3.90   531.8    4.4      49.619
2014    8       19    15  28    3.90   531.7    4.4      49.582
2014    8       19    15  34    3.89   531.7    4.4      49.544
2014    8       19    15  40    3.89   531.6    4.4      49.505
2014    8       19    15  45    3.89   531.6    4.4      49.467
2014    8       19    15  51    3.88   531.5    4.4      49.428
2014    8       19    15  57    3.88   531.4    4.4      49.389
2014    8       19    16   3    3.88   531.4    4.4      49.349
2014    8       19    16   9    3.88   531.3    4.4      49.310
2014    8       19    16  15    3.87   531.3    4.4      49.270
2014    8       19    16  21    3.87   531.2    4.4      49.229
2014    8       19    16  27    3.87   531.1    4.4      49.189
2014    8       19    16  33    3.86   531.1    4.3      49.148
2014    8       19    16  39    3.86   531.0    4.3      49.106
2014    8       19    16  45    3.86   530.9    4.3      49.065
2014    8       19    16  51    3.85   530.9    4.3      49.023
2014    8       19    16  57    3.85   530.8    4.3      48.981
2014    8       19    17   3    3.85   530.7    4.3      48.939
2014    8       19    17   9    3.85   530.6    4.3      48.896
2014    8       19    17  15    3.84   530.6    4.3      48.854
2014    8       19    17  20    3.84   530.5    4.3      48.811
2014    8       19    17  26    3.84   530.4    4.3      48.768
2014    8       19    17  32    3.83   530.3    4.3      48.725
2014    8       19    17  38    3.83   530.2    4.3      48.682
2014    8       19    17  44    3.83   530.2    4.3      48.639
2014    8       19    17  50    3.83   530.1    4.3      48.596
2014    8       19    17  56    3.82   530.0    4.3      48.553
2014    8       19    18   2    3.82   529.9    4.3      48.509
2014    8       19    18   8    3.82   529.8    4.3      48.466
2014    8       19    18  14    3.81   529.7    4.3      48.423
2014    8       19    18  20    3.81   529.6    4.3      48.380
2014    8       19    18  26    3.81   529.6    4.3      48.336
2014    8       19    18  32    3.80   529.5    4.3      48.292
2014    8       19    18  38    3.80   529.4    4.3      48.248
2014    8       19    18  43    3.80   529.3    4.3      48.205
2014    8       19    18  49    3.80   529.2    4.3      48.160
2014    8       19    18  55    3.79   529.1    4.3      48.116
2014    8       19    19   1    3.79   529.0    4.3      48.072
2014    8       19    19   7    3.79   528.9    4.3      48.027
2014    8       19    19  13    3.78   528.8    4.3      47.982
2014    8       19    19  19    3.78   528.7    4.3      47.937
2014    8       19    19  25    3.78   528.6    4.3      47.891
2014    8       19    19  31    3.78   528.5    4.3      47.846
2014    8       19    19  37    3.77   528.4    4.2      47.800
2014    8       19    19  43    3.77   528.3    4.2      47.754
2014    8       19    19  49    3.77   528.2    4.2      47.708
2014    8       19    19  55    3.76   528.1    4.2      47.661
2014    8       19    20   1    3.76   528.0    4.2      47.615
2014    8       19    20   7    3.76   527.9    4.2      47.568
2014    8       19    20  12    3.76   527.8    4.2      47.521
2014    8       19    20  18    3.75   527.6    4.2      47.474
2014    8       19    20  24    3.75   527.5    4.2      47.427
2014    8       19    20  30    3.75   527.4    4.2      47.380
2014    8       19    20  36    3.74   527.3    4.2      47.333
2014    8       19    20  42    3.74   527.2    4.2      47.286
2014    8       19    20  48    3.74   527.0    4.2      47.239
2014    8       19    20  54    3.74   526.9    4.2      47.192
2014    8       19    21   0    3.73   526.8    4.2      47.145
2014    8       19    21   6    3.73   526.7    4.2      47.098
2014    8       19    21  12    3.73   526.6    4.2      47.051
2014    8       19    21  18    3.72   526.4    4.2      47.004
2014    8       19    21  24    3.72   526.3    4.2      46.957
2014    8       19    21  30    3.72   526.2    4.2      46.910
2014    8       19    21  36    3.72   526.1    4.2      46.863
2014    8       19    21  41    3.71   525.9    4.2      46.817
2014    8       19    21  47    3.71   525.8    4.2      46.770
2014    8       19    21  53    3.71   525.7    4.2      46.723
2014    8       19    21  59    3.71   525.5    4.2      46.677
2014    8       19    22   5    3.70   525.4    4.2      46.630
2014    8       19    22  11    3.70   525.3    4.2      46.584
2014    8       19    22  17    3.70   525.1    4.2      46.538
2014    8       19    22  23    3.70   525.0    4.2      46.492
2014    8       19    22  29    3.69   524.9    4.2      46.446
2014    8       19    22  35    3.69   524.7    4.2      46.400
2014    8       19    22  41    3.69   524.6    4.2      46.354
2014    8       19    22  47    3.69   524.5    4.2      46.308
2014    8       19    22  53    3.68   524.3    4.2      46.262
2014    8       19    22  59    3.68   524.2    4.2      46.216
2014    8       19    23   5    3.68   524.1    4.2      46.171
2014    8       19    23  10    3.68   523.9    4.2      46.125
2014    8       19    23  16    3.67   523.8    4.2      46.080
2014    8       19    23  22    3.67   523.6    4.2      46.035
2014    8       19    23  28    3.67   523.5    4.2      45.989
2014    8       19    23  34    3.67   523.4    4.2      45.944
2014    8       19    23  40    3.66   523.2    4.2      45.899
2014    8       19    23  46    3.66   523.1    4.2      45.854
2014    8       19    23  52    3.66   522.9    4.2      45.809
2014    8       19    23  58    3.66   522.8    4.2      45.764
2014    8       20     0   4    3.65   522.6    4.2      45.720
2014    8       20     0  10    3.65   522.5    4.2      45.675
2014    8       20     0  16    3.65   522.3    4.2      45.630
2014    8       20     0  22    3.65   522.2    4.2      45.585
2014    8       20     0  28    3.64   522.0    4.2      45.541
2014    8       20     0  34    3.64   521.9    4.2      45.496
2014    8       20     0  40    3.64   521.7    4.2      45.451
2014    8       20     0  45    3.64   521.6    4.2      45.406
2014    8       20     0  51    3.63   521.4    4.2      45.361
2014    8       20     0  57    3.63   521.3    4.2      45.316
2014    8       20     1   3    3.63   521.1    4.2      45.271
2014    8       20     1   9    3.63   521.0    4.1      45.225
2014    8       20     1  15    3.63   520.8    4.1      45.181
2014    8       20     1  21    3.62   520.6    4.1      45.135
2014    8       20     1  27    3.62   520.5    4.1      45.090
2014    8       20     1  33    3.62   520.3    4.1      45.045
2014    8       20     1  39    3.62   520.2    4.1      45.000
2014    8       20     1  45    3.61   520.0    4.1      44.955
2014    8       20     1  51    3.61   519.8    4.1      44.909
2014    8       20     1  57    3.61   519.7    4.1      44.864
2014    8       20     2   3    3.61   519.5    4.1      44.818
2014    8       20     2   8    3.60   519.4    4.1      44.772
2014    8       20     2  14    3.60   519.2    4.1      44.726
2014    8       20     2  20    3.60   519.0    4.1      44.680
2014    8       20     2  26    3.60   518.9    4.1      44.634
2014    8       20     2  32    3.59   518.7    4.1      44.587
2014    8       20     2  38    3.59   518.5    4.1      44.541
2014    8       20     2  44    3.59   518.4    4.1      44.494
2014    8       20     2  50    3.59   518.2    4.1      44.448
2014    8       20     2  56    3.59   518.0    4.1      44.401
2014    8       20     3   2    3.58   517.9    4.1      44.354
2014    8       20     3   8    3.58   517.7    4.1      44.307
2014    8       20     3  14    3.58   517.5    4.1      44.260
2014    8       20     3  20    3.58   517.4    4.1      44.213
2014    8       20     3  26    3.57   517.2    4.1      44.166
2014    8       20     3  32    3.57   517.0    4.1      44.118
2014    8       20     3  37    3.57   516.8    4.1      44.071
2014    8       20     3  43    3.57   516.7    4.1      44.023
2014    8       20     3  49    3.57   516.5    4.1      43.976
2014    8       20     3  55    3.56   516.3    4.1      43.928
2014    8       20     4   1    3.56   516.2    4.1      43.880
2014    8       20     4   7    3.56   516.0    4.1      43.832
2014    8       20     4  13    3.56   515.8    4.1      43.784
2014    8       20     4  19    3.55   515.6    4.1      43.736
2014    8       20     4  25    3.55   515.4    4.1      43.688
2014    8       20     4  31    3.55   515.3    4.1      43.640
2014    8       20     4  37    3.55   515.1    4.1      43.592
2014    8       20     4  43    3.55   514.9    4.1      43.544
2014    8       20     4  49    3.54   514.7    4.1      43.496
2014    8       20     4  55    3.54   514.6    4.1      43.447
2014    8       20     5   1    3.54   514.4    4.1      43.399
2014    8       20     5   6    3.54   514.2    4.1      43.351
2014    8       20     5  12    3.54   514.0    4.1      43.303
2014    8       20     5  18    3.53   513.8    4.1      43.255
2014    8       20     5  24    3.53   513.6    4.1      43.207
2014    8       20     5  30    3.53   513.5    4.1      43.159
2014    8       20     5  36    3.53   513.3    4.1      43.111
2014    8       20     5  42    3.53   513.1    4.1      43.064
2014    8       20     5  48    3.52   512.9    4.1      43.016
2014    8       20     5  54    3.52   512.7    4.1      42.969
2014    8       20     6   0    3.52   512.6    4.1      42.922
2014    8       20     6   6    3.52   512.4    4.1      42.875
2014    8       20     6  12    3.52   512.2    4.1      42.828
2014    8       20     6  18    3.52   512.0    4.1      42.781
2014    8       20     6  24    3.51   511.8    4.1      42.735
2014    8       20     6  30    3.51   511.6    4.1      42.689
2014    8       20     6  36    3.51   511.5    4.1      42.643
2014    8       20     6  41    3.51   511.3    4.1      42.597
2014    8       20     6  47    3.51   511.1    4.1      42.551
2014    8       20     6  53    3.50   510.9    4.1      42.506
2014    8       20     6  59    3.50   510.7    4.1      42.460
2014    8       20     7   5    3.50   510.5    4.1      42.415
2014    8       20     7  11    3.50   510.4    4.1      42.370
2014    8       20     7  17    3.50   510.2    4.1      42.325
2014    8       20     7  23    3.49   510.0    4.1      42.280
2014    8       20     7  29    3.49   509.8    4.1      42.235
2014    8       20     7  35    3.49   509.6    4.1      42.190
2014    8       20     7  41    3.49   509.4    4.1      42.145
2014    8       20     7  47    3.49   509.2    4.1      42.100
2014    8       20     7  53    3.49   509.0    4.1      42.055
2014    8       20     7  59    3.48   508.9    4.1      42.010
2014    8       20     8   5    3.48   508.7    4.1      41.965
2014    8       20     8  10    3.48   508.5    4.1      41.921
2014    8       20     8  16    3.48   508.3    4.1      41.876
2014    8       20     8  22    3.48   508.1    4.1      41.831
2014    8       20     8  28    3.47   507.9    4.1      41.786
2014    8       20     8  34    3.47   507.7    4.1      41.742
2014    8       20     8  40    3.47   507.5    4.1      41.697
2014    8       20     8  46    3.47   507.3    4.1      41.653
2014    8       20     8  52    3.47   507.1    4.1      41.608
2014    8       20     8  58    3.47   506.9    4.1      41.564
2014    8       20     9   4    3.46   506.7    4.1      41.520
2014    8       20     9  10    3.46   506.5    4.1      41.476
2014    8       20     9  16    3.46   506.3    4.1      41.432
2014    8       20     9  22    3.46   506.1    4.1      41.389
2014    8       20     9  28    3.46   505.9    4.1      41.345
2014    8       20     9  33    3.46   505.7    4.1      41.302
2014    8       20     9  39    3.45   505.5    4.1      41.259
2014    8       20     9  45    3.45   505.3    4.1      41.216
2014    8       20     9  51    3.45   505.1    4.1      41.173
2014    8       20     9  57    3.45   504.9    4.1      41.130
2014    8       20    10   3    3.45   504.7    4.1      41.087
2014    8       20    10   9    3.45   504.5    4.1      41.044
2014    8       20    10  15    3.44   504.3    4.1      41.002
2014    8       20    10  21    3.44   504.1    4.1      40.959
2014    8       20    10  27    3.44   503.9    4.1      40.917
2014    8       20    10  33    3.44   503.6    4.1      40.874
2014    8       20    10  39    3.44   503.4    4.1      40.832
2014    8       20    10  45    3.44   503.2    4.1      40.789
2014    8       20    10  51    3.44   503.0    4.1      40.747
2014    8       20    10  57    3.43   502.8    4.1      40.704
2014    8       20    11   2    3.43   502.6    4.1      40.662
2014    8       20    11   8    3.43   502.4    4.1      40.619
2014    8       20    11  14    3.43   502.2    4.1      40.576
2014    8       20    11  20    3.43   502.0    4.1      40.533
2014    8       20    11  26    3.43   501.8    4.1      40.490
2014    8       20    11  32    3.43   501.6    4.1      40.447
2014    8       20    11  38    3.42   501.4    4.1      40.403
2014    8       20    11  44    3.42   501.1    4.1      40.360
2014    8       20    11  50    3.42   500.9    4.1      40.316
2014    8       20    11  56    3.42   500.7    4.1      40.273
2014    8       20    12   2    3.42   500.5    4.1      40.229
2014    8       20    12   8    3.42   500.3    4.1      40.185
2014    8       20    12  14    3.42   500.1    4.1      40.141
2014    8       20    12  20    3.41   499.8    4.1      40.097
2014    8       20    12  26    3.41   499.6    4.1      40.052
2014    8       20    12  31    3.41   499.4    4.1      40.008
2014    8       20    12  37    3.41   499.2    4.1      39.964
2014    8       20    12  43    3.41   499.0    4.1      39.919
2014    8       20    12  49    3.41   498.8    4.1      39.875
2014    8       20    12  55    3.41   498.5    4.1      39.831
2014    8       20    13   1    3.41   498.3    4.1      39.786
2014    8       20    13   7    3.40   498.1    4.1      39.741
2014    8       20    13  13    3.40   497.9    4.1      39.697
2014    8       20    13  19    3.40   497.7    4.1      39.652
2014    8       20    13  25    3.40   497.5    4.1      39.607
2014    8       20    13  31    3.40   497.2    4.1      39.563
2014    8       20    13  37    3.40   497.0    4.1      39.518
2014    8       20    13  43    3.40   496.8    4.1      39.474
2014    8       20    13  49    3.39   496.6    4.1      39.429
2014    8       20    13  55    3.39   496.4    4.1      39.384
2014    8       20    14   1    3.39   496.1    4.1      39.339
2014    8       20    14   6    3.39   495.9    4.1      39.295
2014    8       20    14  12    3.39   495.7    4.1      39.250
2014    8       20    14  18    3.39   495.5    4.1      39.206
2014    8       20    14  24    3.39   495.2    4.1      39.161
2014    8       20    14  30    3.39   495.0    4.1      39.117
2014    8       20    14  36    3.38   494.8    4.1      39.072
2014    8       20    14  42    3.38   494.6    4.1      39.028
2014    8       20    14  48    3.38   494.3    4.1      38.983
2014    8       20    14  54    3.38   494.1    4.1      38.939
2014    8       20    15   0    3.38   493.9    4.1      38.895
2014    8       20    15   6    3.38   493.7    4.1      38.851
2014    8       20    15  12    3.38   493.4    4.1      38.807
2014    8       20    15  18    3.38   493.2    4.1      38.763
2014    8       20    15  24    3.38   493.0    4.1      38.720
2014    8       20    15  30    3.37   492.7    4.1      38.676
2014    8       20    15  35    3.37   492.5    4.1      38.633
2014    8       20    15  41    3.37   492.3    4.1      38.590
2014    8       20    15  47    3.37   492.0    4.1      38.548
2014    8       20    15  53    3.37   491.8    4.1      38.505
2014    8       20    15  59    3.37   491.6    4.1      38.463
2014    8       20    16   5    3.37   491.3    4.1      38.421
2014    8       20    16  11    3.37   491.1    4.1      38.379
2014    8       20    16  17    3.37   490.9    4.1      38.338
2014    8       20    16  23    3.36   490.6    4.1      38.297
2014    8       20    16  29    3.36   490.4    4.1      38.256
2014    8       20    16  35    3.36   490.2    4.1      38.216
2014    8       20    16  41    3.36   489.9    4.1      38.175
2014    8       20    16  47    3.36   489.7    4.1      38.136
2014    8       20    16  53    3.36   489.5    4.1      38.096
2014    8       20    16  59    3.36   489.2    4.1      38.057
2014    8       20    17   4    3.36   489.0    4.1      38.018
2014    8       20    17  10    3.36   488.8    4.1      37.980
2014    8       20    17  16    3.36   488.5    4.1      37.942
2014    8       20    17  22    3.36   488.3    4.1      37.904
2014    8       20    17  28    3.35   488.1    4.1      37.866
2014    8       20    17  34    3.35   487.8    4.1      37.829
2014    8       20    17  40    3.35   487.6    4.1      37.792
2014    8       20    17  46    3.35   487.3    4.1      37.755
2014    8       20    17  52    3.35   487.1    4.1      37.718
2014    8       20    17  58    3.35   486.9    4.1      37.682
2014    8       20    18   4    3.35   486.6    4.1      37.646
2014    8       20    18  10    3.35   486.4    4.1      37.609
2014    8       20    18  16    3.35   486.2    4.1      37.574
2014    8       20    18  22    3.35   485.9    4.1      37.538
2014    8       20    18  27    3.35   485.7    4.1      37.502
2014    8       20    18  33    3.35   485.5    4.1      37.466
2014    8       20    18  39    3.35   485.2    4.1      37.431
2014    8       20    18  45    3.35   485.0    4.1      37.395
2014    8       20    18  51    3.35   484.8    4.1      37.360
2014    8       20    18  57    3.34   484.5    4.2      37.324
2014    8       20    19   3    3.34   484.3    4.2      37.289
2014    8       20    19   9    3.34   484.0    4.2      37.253
2014    8       20    19  15    3.34   483.8    4.2      37.217
2014    8       20    19  21    3.34   483.6    4.2      37.181
2014    8       20    19  27    3.34   483.3    4.2      37.146
2014    8       20    19  33    3.34   483.1    4.2      37.110
2014    8       20    19  39    3.34   482.8    4.2      37.074
2014    8       20    19  45    3.34   482.6    4.2      37.038
2014    8       20    19  51    3.34   482.3    4.2      37.002
2014    8       20    19  57    3.34   482.1    4.2      36.966
2014    8       20    20   2    3.34   481.8    4.2      36.930
2014    8       20    20   8    3.34   481.6    4.2      36.893
2014    8       20    20  14    3.34   481.3    4.2      36.857
2014    8       20    20  20    3.34   481.1    4.2      36.821
2014    8       20    20  26    3.34   480.9    4.2      36.784
2014    8       20    20  32    3.34   480.6    4.2      36.748
2014    8       20    20  38    3.34   480.4    4.2      36.712
2014    8       20    20  44    3.33   480.1    4.2      36.675
2014    8       20    20  50    3.33   479.8    4.2      36.638
2014    8       20    20  56    3.33   479.6    4.2      36.602
2014    8       20    21   2    3.33   479.3    4.2      36.565
2014    8       20    21   8    3.33   479.1    4.2      36.528
2014    8       20    21  14    3.33   478.8    4.2      36.492
2014    8       20    21  20    3.33   478.6    4.2      36.455
2014    8       20    21  26    3.33   478.3    4.2      36.419
2014    8       20    21  31    3.33   478.0    4.2      36.382
2014    8       20    21  37    3.33   477.8    4.2      36.346
2014    8       20    21  43    3.33   477.5    4.2      36.310
2014    8       20    21  49    3.33   477.3    4.2      36.274
2014    8       20    21  55    3.33   477.0    4.2      36.238
2014    8       20    22   1    3.33   476.7    4.2      36.202
2014    8       20    22   7    3.33   476.5    4.2      36.167
2014    8       20    22  13    3.33   476.2    4.2      36.132
2014    8       20    22  19    3.33   475.9    4.2      36.097
2014    8       20    22  25    3.33   475.7    4.2      36.063
2014    8       20    22  31    3.33   475.4    4.2      36.029
2014    8       20    22  37    3.33   475.1    4.2      35.995
2014    8       20    22  43    3.33   474.9    4.2      35.962
2014    8       20    22  49    3.33   474.6    4.2      35.929
2014    8       20    22  55    3.33   474.3    4.2      35.896
2014    8       20    23   0    3.33   474.1    4.2      35.864
2014    8       20    23   6    3.33   473.8    4.2      35.833
2014    8       20    23  12    3.33   473.5    4.3      35.802
2014    8       20    23  18    3.33   473.2    4.3      35.772
2014    8       20    23  24    3.33   473.0    4.3      35.742
2014    8       20    23  30    3.33   472.7    4.3      35.712
2014    8       20    23  36    3.33   472.4    4.3      35.683
2014    8       20    23  42    3.33   472.2    4.3      35.655
2014    8       20    23  48    3.33   471.9    4.3      35.627
2014    8       20    23  54    3.33   471.6    4.3      35.599
2014    8       21     0   0    3.33   471.4    4.3      35.572
2014    8       21     0   6    3.33   471.1    4.3      35.546
2014    8       21     0  12    3.33   470.8    4.3      35.520
2014    8       21     0  18    3.33   470.6    4.3      35.494
2014    8       21     0  23    3.34   470.3    4.3      35.469
2014    8       21     0  29    3.34   470.0    4.3      35.444
2014    8       21     0  35    3.34   469.8    4.3      35.419
2014    8       21     0  41    3.34   469.5    4.3      35.395
2014    8       21     0  47    3.34   469.3    4.3      35.372
2014    8       21     0  53    3.34   469.0    4.3      35.348
2014    8       21     0  59    3.34   468.7    4.3      35.325
2014    8       21     1   5    3.34   468.5    4.3      35.302
2014    8       21     1  11    3.34   468.2    4.3      35.279
2014    8       21     1  17    3.34   468.0    4.3      35.257
2014    8       21     1  23    3.34   467.7    4.4      35.235
2014    8       21     1  29    3.35   467.5    4.4      35.213
2014    8       21     1  35    3.35   467.2    4.4      35.191
2014    8       21     1  41    3.35   466.9    4.4      35.169
2014    8       21     1  47    3.35   466.7    4.4      35.148
2014    8       21     1  52    3.35   466.4    4.4      35.126
2014    8       21     1  58    3.35   466.2    4.4      35.105
2014    8       21     2   4    3.35   465.9    4.4      35.084
2014    8       21     2  10    3.35   465.7    4.4      35.063
2014    8       21     2  16    3.35   465.4    4.4      35.042
2014    8       21     2  22    3.36   465.2    4.4      35.021
2014    8       21     2  28    3.36   464.9    4.4      35.000
2014    8       21     2  34    3.36   464.7    4.4      34.979
2014    8       21     2  40    3.36   464.4    4.4      34.959
2014    8       21     2  46    3.36   464.2    4.4      34.938
2014    8       21     2  52    3.36   463.9    4.4      34.918
2014    8       21     2  58    3.36   463.7    4.5      34.897
2014    8       21     3   4    3.37   463.4    4.5      34.877
2014    8       21     3  10    3.37   463.2    4.5      34.857
2014    8       21     3  16    3.37   462.9    4.5      34.837
2014    8       21     3  22    3.37   462.7    4.5      34.817
2014    8       21     3  27    3.37   462.4    4.5      34.797
2014    8       21     3  33    3.37   462.2    4.5      34.777
2014    8       21     3  39    3.37   462.0    4.5      34.757
2014    8       21     3  45    3.37   461.7    4.5      34.737
2014    8       21     3  51    3.38   461.5    4.5      34.718
2014    8       21     3  57    3.38   461.2    4.5      34.698
2014    8       21     4   3    3.38   461.0    4.5      34.679
2014    8       21     4   9    3.38   460.7    4.5      34.660
2014    8       21     4  15    3.38   460.5    4.5      34.641
2014    8       21     4  21    3.38   460.2    4.5      34.622
2014    8       21     4  27    3.39   460.0    4.6      34.603
2014    8       21     4  33    3.39   459.7    4.6      34.585
2014    8       21     4  39    3.39   459.5    4.6      34.567
2014    8       21     4  45    3.39   459.3    4.6      34.550
2014    8       21     4  51    3.39   459.0    4.6      34.532
2014    8       21     4  56    3.40   458.8    4.6      34.516
2014    8       21     5   2    3.40   458.5    4.6      34.499
2014    8       21     5   8    3.40   458.3    4.6      34.484
2014    8       21     5  14    3.40   458.0    4.6      34.468
2014    8       21     5  20    3.40   457.8    4.6      34.454
2014    8       21     5  26    3.41   457.5    4.6      34.440
2014    8       21     5  32    3.41   457.3    4.6      34.427
2014    8       21     5  38    3.41   457.1    4.6      34.415
2014    8       21     5  44    3.41   456.8    4.6      34.403
2014    8       21     5  50    3.41   456.6    4.7      34.392
2014    8       21     5  56    3.42   456.3    4.7      34.383
2014    8       21     6   2    3.42   456.1    4.7      34.374
2014    8       21     6   8    3.42   455.9    4.7      34.366
2014    8       21     6  14    3.42   455.6    4.7      34.359
2014    8       21     6  20    3.43   455.4    4.7      34.353
2014    8       21     6  25    3.43   455.2    4.7      34.348
2014    8       21     6  31    3.43   454.9    4.7      34.344
2014    8       21     6  37    3.44   454.7    4.7      34.342
2014    8       21     6  43    3.44   454.5    4.7      34.340
2014    8       21     6  49    3.44   454.3    4.7      34.339
2014    8       21     6  55    3.45   454.1    4.8      34.339
2014    8       21     7   1    3.45   453.8    4.8      34.340
2014    8       21     7   7    3.45   453.6    4.8      34.341
2014    8       21     7  13    3.46   453.4    4.8      34.344
2014    8       21     7  19    3.46   453.2    4.8      34.348
2014    8       21     7  25    3.46   453.0    4.8      34.352
2014    8       21     7  31    3.47   452.8    4.8      34.358
2014    8       21     7  37    3.47   452.6    4.8      34.364
2014    8       21     7  43    3.47   452.4    4.8      34.371
2014    8       21     7  48    3.48   452.2    4.9      34.380
2014    8       21     7  54    3.48   452.0    4.9      34.389
2014    8       21     8   0    3.48   451.8    4.9      34.400
2014    8       21     8   6    3.49   451.6    4.9      34.412
2014    8       21     8  12    3.49   451.4    4.9      34.425
2014    8       21     8  18    3.50   451.3    4.9      34.438
2014    8       21     8  24    3.50   451.1    4.9      34.452
2014    8       21     8  30    3.50   450.9    4.9      34.465
2014    8       21     8  36    3.51   450.7    4.9      34.479
2014    8       21     8  42    3.51   450.6    5.0      34.493
2014    8       21     8  48    3.51   450.4    5.0      34.507
2014    8       21     8  54    3.52   450.2    5.0      34.520
2014    8       21     9   0    3.52   450.1    5.0      34.533
2014    8       21     9   6    3.53   449.9    5.0      34.546
2014    8       21     9  12    3.53   449.7    5.0      34.559
2014    8       21     9  17    3.53   449.6    5.0      34.571
2014    8       21     9  23    3.54   449.4    5.0      34.583
2014    8       21     9  29    3.54   449.3    5.0      34.595
2014    8       21     9  35    3.54   449.1    5.1      34.607
2014    8       21     9  41    3.55   448.9    5.1      34.618
2014    8       21     9  47    3.55   448.8    5.1      34.629
2014    8       21     9  53    3.56   448.6    5.1      34.639
2014    8       21     9  59    3.56   448.5    5.1      34.650
2014    8       21    10   5    3.56   448.3    5.1      34.660
2014    8       21    10  11    3.57   448.1    5.1      34.670
2014    8       21    10  17    3.57   448.0    5.1      34.680
2014    8       21    10  23    3.58   447.8    5.1      34.690
2014    8       21    10  29    3.58   447.7    5.1      34.700
2014    8       21    10  35    3.58   447.5    5.2      34.710
2014    8       21    10  41    3.59   447.4    5.2      34.720
2014    8       21    10  47    3.59   447.2    5.2      34.730
2014    8       21    10  52    3.60   447.1    5.2      34.740
2014    8       21    10  58    3.60   446.9    5.2      34.750
2014    8       21    11   4    3.60   446.8    5.2      34.761
2014    8       21    11  10    3.61   446.6    5.2      34.771
2014    8       21    11  16    3.61   446.5    5.2      34.782
2014    8       21    11  22    3.62   446.3    5.2      34.794
2014    8       21    11  28    3.62   446.2    5.3      34.806
2014    8       21    11  34    3.62   446.0    5.3      34.818
2014    8       21    11  40    3.63   445.9    5.3      34.831
2014    8       21    11  46    3.63   445.7    5.3      34.844
2014    8       21    11  52    3.64   445.6    5.3      34.859
2014    8       21    11  58    3.64   445.4    5.3      34.874
2014    8       21    12   4    3.64   445.3    5.3      34.891
2014    8       21    12  10    3.65   445.1    5.3      34.907
2014    8       21    12  16    3.65   445.0    5.3      34.925
2014    8       21    12  21    3.66   444.9    5.4      34.945
2014    8       21    12  27    3.66   444.7    5.4      34.966
2014    8       21    12  33    3.67   444.6    5.4      34.989
2014    8       21    12  39    3.67   444.5    5.4      35.014
2014    8       21    12  45    3.68   444.3    5.4      35.041
2014    8       21    12  51    3.68   444.2    5.4      35.069
2014    8       21    12  57    3.69   444.1    5.4      35.098
2014    8       21    13   3    3.69   444.0    5.4      35.129
2014    8       21    13   9    3.70   443.9    5.5      35.160
2014    8       21    13  15    3.70   443.8    5.5      35.191
2014    8       21    13  21    3.71   443.7    5.5      35.222
2014    8       21    13  27    3.71   443.6    5.5      35.253
2014    8       21    13  33    3.72   443.5    5.5      35.285
2014    8       21    13  39    3.72   443.4    5.5      35.316
2014    8       21    13  45    3.73   443.3    5.5      35.348
2014    8       21    13  50    3.73   443.2    5.5      35.380
2014    8       21    13  56    3.74   443.1    5.6      35.412
2014    8       21    14   2    3.74   443.0    5.6      35.444
2014    8       21    14   8    3.75   442.9    5.6      35.476
2014    8       21    14  14    3.75   442.8    5.6      35.508
2014    8       21    14  20    3.76   442.7    5.6      35.540
2014    8       21    14  26    3.76   442.7    5.6      35.573
2014    8       21    14  32    3.77   442.6    5.6      35.605
2014    8       21    14  38    3.77   442.5    5.6      35.637
2014    8       21    14  44    3.78   442.4    5.7      35.670
2014    8       21    14  50    3.78   442.4    5.7      35.703
2014    8       21    14  56    3.79   442.3    5.7      35.736
2014    8       21    15   2    3.80   442.2    5.7      35.769
2014    8       21    15   8    3.80   442.2    5.7      35.803
2014    8       21    15  13    3.81   442.1    5.7      35.837
2014    8       21    15  19    3.81   442.1    5.7      35.872
2014    8       21    15  25    3.82   442.0    5.7      35.907
2014    8       21    15  31    3.82   441.9    5.8      35.943
2014    8       21    15  37    3.83   441.9    5.8      35.979
2014    8       21    15  43    3.83   441.9    5.8      36.015
2014    8       21    15  49    3.84   441.8    5.8      36.051
2014    8       21    15  55    3.84   441.8    5.8      36.086
2014    8       21    16   1    3.85   441.7    5.8      36.121
2014    8       21    16   7    3.85   441.7    5.8      36.156
2014    8       21    16  13    3.86   441.6    5.8      36.190
2014    8       21    16  19    3.86   441.6    5.8      36.224
2014    8       21    16  25    3.87   441.5    5.9      36.258
2014    8       21    16  31    3.87   441.5    5.9      36.291
2014    8       21    16  37    3.88   441.5    5.9      36.325
2014    8       21    16  42    3.88   441.4    5.9      36.357
2014    8       21    16  48    3.89   441.4    5.9      36.390
2014    8       21    16  54    3.89   441.3    5.9      36.422
2014    8       21    17   0    3.90   441.3    5.9      36.455
2014    8       21    17   6    3.90   441.2    5.9      36.488
2014    8       21    17  12    3.91   441.2    5.9      36.521
2014    8       21    17  18    3.91   441.2    5.9      36.554
2014    8       21    17  24    3.91   441.1    6.0      36.589
2014    8       21    17  30    3.92   441.1    6.0      36.623
2014    8       21    17  36    3.92   441.1    6.0      36.658
2014    8       21    17  42    3.93   441.0    6.0      36.694
2014    8       21    17  48    3.93   441.0    6.0      36.730
2014    8       21    17  54    3.94   441.0    6.0      36.766
2014    8       21    18   0    3.94   440.9    6.0      36.802
2014    8       21    18   6    3.95   440.9    6.0      36.839
2014    8       21    18  11    3.95   440.9    6.0      36.877
2014    8       21    18  17    3.96   440.8    6.1      36.914
2014    8       21    18  23    3.96   440.8    6.1      36.953
2014    8       21    18  29    3.97   440.8    6.1      36.992
2014    8       21    18  35    3.97   440.8    6.1      37.032
2014    8       21    18  41    3.98   440.7    6.1      37.072
2014    8       21    18  47    3.98   440.7    6.1      37.114
2014    8       21    18  53    3.99   440.7    6.1      37.156
2014    8       21    18  59    3.99   440.7    6.1      37.199
2014    8       21    19   5    4.00   440.7    6.1      37.243
2014    8       21    19  11    4.00   440.6    6.1      37.287
2014    8       21    19  17    4.01   440.6    6.2      37.331
2014    8       21    19  23    4.01   440.6    6.2      37.376
2014    8       21    19  29    4.02   440.6    6.2      37.420
2014    8       21    19  35    4.02   440.6    6.2      37.464
2014    8       21    19  41    4.03   440.6    6.2      37.509
2014    8       21    19  46    4.03   440.6    6.2      37.555
2014    8       21    19  52    4.04   440.5    6.2      37.601
2014    8       21    19  58    4.04   440.5    6.2      37.649
2014    8       21    20   4    4.05   440.5    6.2      37.697
2014    8       21    20  10    4.05   440.5    6.3      37.746
2014    8       21    20  16    4.06   440.6    6.3      37.795
2014    8       21    20  22    4.06   440.6    6.3      37.844
2014    8       21    20  28    4.07   440.6    6.3      37.893
2014    8       21    20  34    4.07   440.6    6.3      37.941
2014    8       21    20  40    4.08   440.6    6.3      37.988
2014    8       21    20  46    4.08   440.6    6.3      38.035
2014    8       21    20  52    4.09   440.6    6.3      38.082
2014    8       21    20  58    4.09   440.6    6.3      38.130
2014    8       21    21   4    4.10   440.6    6.3      38.178
2014    8       21    21   9    4.10   440.7    6.4      38.227
2014    8       21    21  15    4.11   440.7    6.4      38.277
2014    8       21    21  21    4.11   440.7    6.4      38.327
2014    8       21    21  27    4.12   440.8    6.4      38.377
2014    8       21    21  33    4.12   440.8    6.4      38.426
2014    8       21    21  39    4.13   440.8    6.4      38.474
2014    8       21    21  45    4.13   440.9    6.4      38.522
2014    8       21    21  51    4.13   440.9    6.4      38.569
2014    8       21    21  57    4.14   441.0    6.4      38.616
2014    8       21    22   3    4.14   441.0    6.4      38.661
2014    8       21    22   9    4.15   441.0    6.4      38.707
2014    8       21    22  15    4.15   441.1    6.5      38.751
2014    8       21    22  21    4.16   441.1    6.5      38.795
2014    8       21    22  27    4.16   441.2    6.5      38.838
2014    8       21    22  33    4.17   441.2    6.5      38.881
2014    8       21    22  38    4.17   441.2    6.5      38.923
2014    8       21    22  44    4.17   441.3    6.5      38.965
2014    8       21    22  50    4.18   441.3    6.5      39.006
2014    8       21    22  56    4.18   441.4    6.5      39.047
2014    8       21    23   2    4.19   441.4    6.5      39.087
2014    8       21    23   8    4.19   441.4    6.5      39.127
2014    8       21    23  14    4.19   441.5    6.5      39.167
2014    8       21    23  20    4.20   441.5    6.5      39.206
2014    8       21    23  26    4.20   441.5    6.5      39.245
2014    8       21    23  32    4.21   441.6    6.5      39.284
2014    8       21    23  38    4.21   441.6    6.5      39.323
2014    8       21    23  44    4.21   441.7    6.5      39.362
2014    8       21    23  50    4.22   441.7    6.5      39.400
2014    8       21    23  56    4.22   441.7    6.6      39.439
2014    8       22     0   2    4.22   441.8    6.6      39.477
