year    month   day   hour  minute  B_enl V_enl   n_enl       T_enl
[year] [month] [day] [hour][minute] [nT]  [km/s]  [cm-3]      [kK]
2014    8        4     0   1    5.21   610.7    3.4      60.320
2014    8        4     0   6    5.21   610.7    3.4      60.305
2014    8        4     0  12    5.20   610.6    3.4      60.290
2014    8        4     0  17    5.20   610.6    3.4      60.275
2014    8        4     0  23    5.20   610.6    3.4      60.260
2014    8        4     0  28    5.20   610.5    3.4      60.244
2014    8        4     0  34    5.20   610.5    3.4      60.228
2014    8        4     0  39    5.19   610.5    3.4      60.211
2014    8        4     0  45    5.19   610.4    3.4      60.194
2014    8        4     0  50    5.19   610.4    3.4      60.176
2014    8        4     0  56    5.19   610.4    3.4      60.158
2014    8        4     1   1    5.19   610.3    3.4      60.139
2014    8        4     1   6    5.18   610.3    3.4      60.120
2014    8        4     1  12    5.18   610.3    3.4      60.101
2014    8        4     1  17    5.18   610.2    3.4      60.081
2014    8        4     1  23    5.18   610.2    3.4      60.060
2014    8        4     1  28    5.18   610.1    3.4      60.040
2014    8        4     1  34    5.17   610.1    3.4      60.019
2014    8        4     1  39    5.17   610.1    3.4      59.997
2014    8        4     1  45    5.17   610.0    3.4      59.976
2014    8        4     1  50    5.17   610.0    3.4      59.954
2014    8        4     1  56    5.17   609.9    3.4      59.932
2014    8        4     2   1    5.16   609.9    3.4      59.910
2014    8        4     2   7    5.16   609.8    3.4      59.888
2014    8        4     2  12    5.16   609.8    3.4      59.866
2014    8        4     2  17    5.16   609.7    3.4      59.844
2014    8        4     2  23    5.16   609.7    3.4      59.821
2014    8        4     2  28    5.16   609.7    3.4      59.799
2014    8        4     2  34    5.15   609.6    3.4      59.776
2014    8        4     2  39    5.15   609.6    3.4      59.753
2014    8        4     2  45    5.15   609.5    3.4      59.731
2014    8        4     2  50    5.15   609.5    3.4      59.708
2014    8        4     2  56    5.15   609.4    3.4      59.686
2014    8        4     3   1    5.14   609.4    3.4      59.663
2014    8        4     3   7    5.14   609.3    3.3      59.641
2014    8        4     3  12    5.14   609.3    3.3      59.618
2014    8        4     3  18    5.14   609.2    3.3      59.596
2014    8        4     3  23    5.14   609.2    3.3      59.574
2014    8        4     3  29    5.13   609.1    3.3      59.552
2014    8        4     3  34    5.13   609.0    3.3      59.531
2014    8        4     3  39    5.13   609.0    3.3      59.510
2014    8        4     3  45    5.13   608.9    3.3      59.488
2014    8        4     3  50    5.13   608.9    3.3      59.468
2014    8        4     3  56    5.12   608.8    3.3      59.447
2014    8        4     4   1    5.12   608.8    3.3      59.427
2014    8        4     4   7    5.12   608.7    3.3      59.407
2014    8        4     4  12    5.12   608.6    3.3      59.387
2014    8        4     4  18    5.12   608.6    3.3      59.368
2014    8        4     4  23    5.12   608.5    3.3      59.349
2014    8        4     4  29    5.11   608.5    3.3      59.330
2014    8        4     4  34    5.11   608.4    3.3      59.311
2014    8        4     4  40    5.11   608.3    3.3      59.293
2014    8        4     4  45    5.11   608.3    3.3      59.275
2014    8        4     4  50    5.11   608.2    3.3      59.257
2014    8        4     4  56    5.10   608.1    3.3      59.239
2014    8        4     5   1    5.10   608.1    3.3      59.221
2014    8        4     5   7    5.10   608.0    3.3      59.204
2014    8        4     5  12    5.10   607.9    3.3      59.187
2014    8        4     5  18    5.10   607.9    3.3      59.170
2014    8        4     5  23    5.10   607.8    3.3      59.153
2014    8        4     5  29    5.09   607.7    3.3      59.136
2014    8        4     5  34    5.09   607.6    3.3      59.119
2014    8        4     5  40    5.09   607.6    3.3      59.103
2014    8        4     5  45    5.09   607.5    3.3      59.087
2014    8        4     5  51    5.09   607.4    3.3      59.071
2014    8        4     5  56    5.08   607.4    3.3      59.055
2014    8        4     6   2    5.08   607.3    3.3      59.039
2014    8        4     6   7    5.08   607.2    3.3      59.024
2014    8        4     6  12    5.08   607.1    3.3      59.009
2014    8        4     6  18    5.08   607.1    3.3      58.994
2014    8        4     6  23    5.08   607.0    3.3      58.980
2014    8        4     6  29    5.07   606.9    3.3      58.966
2014    8        4     6  34    5.07   606.9    3.3      58.952
2014    8        4     6  40    5.07   606.8    3.3      58.939
2014    8        4     6  45    5.07   606.7    3.3      58.926
2014    8        4     6  51    5.07   606.6    3.3      58.914
2014    8        4     6  56    5.07   606.6    3.3      58.901
2014    8        4     7   2    5.06   606.5    3.3      58.889
2014    8        4     7   7    5.06   606.4    3.3      58.877
2014    8        4     7  13    5.06   606.4    3.3      58.865
2014    8        4     7  18    5.06   606.3    3.3      58.854
2014    8        4     7  23    5.06   606.2    3.3      58.842
2014    8        4     7  29    5.06   606.2    3.3      58.829
2014    8        4     7  34    5.05   606.1    3.3      58.816
2014    8        4     7  40    5.05   606.0    3.3      58.802
2014    8        4     7  45    5.05   606.0    3.3      58.788
2014    8        4     7  51    5.05   605.9    3.3      58.772
2014    8        4     7  56    5.05   605.8    3.3      58.756
2014    8        4     8   2    5.04   605.8    3.3      58.739
2014    8        4     8   7    5.04   605.7    3.3      58.721
2014    8        4     8  13    5.04   605.6    3.3      58.703
2014    8        4     8  18    5.04   605.6    3.3      58.683
2014    8        4     8  24    5.04   605.5    3.3      58.663
2014    8        4     8  29    5.04   605.4    3.3      58.642
2014    8        4     8  34    5.03   605.3    3.3      58.621
2014    8        4     8  40    5.03   605.3    3.3      58.599
2014    8        4     8  45    5.03   605.2    3.3      58.576
2014    8        4     8  51    5.03   605.1    3.3      58.553
2014    8        4     8  56    5.03   605.0    3.3      58.529
2014    8        4     9   2    5.03   605.0    3.3      58.505
2014    8        4     9   7    5.02   604.9    3.3      58.480
2014    8        4     9  13    5.02   604.8    3.3      58.455
2014    8        4     9  18    5.02   604.7    3.3      58.429
2014    8        4     9  24    5.02   604.6    3.3      58.403
2014    8        4     9  29    5.02   604.6    3.3      58.377
2014    8        4     9  35    5.01   604.5    3.3      58.350
2014    8        4     9  40    5.01   604.4    3.3      58.323
2014    8        4     9  45    5.01   604.3    3.3      58.295
2014    8        4     9  51    5.01   604.2    3.3      58.268
2014    8        4     9  56    5.01   604.2    3.3      58.240
2014    8        4    10   2    5.01   604.1    3.3      58.212
2014    8        4    10   7    5.00   604.0    3.3      58.184
2014    8        4    10  13    5.00   603.9    3.3      58.156
2014    8        4    10  18    5.00   603.8    3.3      58.127
2014    8        4    10  24    5.00   603.7    3.3      58.099
2014    8        4    10  29    5.00   603.6    3.3      58.071
2014    8        4    10  35    5.00   603.5    3.3      58.044
2014    8        4    10  40    4.99   603.5    3.3      58.016
2014    8        4    10  46    4.99   603.4    3.3      57.989
2014    8        4    10  51    4.99   603.3    3.3      57.962
2014    8        4    10  57    4.99   603.2    3.3      57.935
2014    8        4    11   2    4.99   603.1    3.3      57.908
2014    8        4    11   7    4.99   603.0    3.3      57.882
2014    8        4    11  13    4.98   602.9    3.3      57.857
2014    8        4    11  18    4.98   602.8    3.3      57.831
2014    8        4    11  24    4.98   602.7    3.3      57.806
2014    8        4    11  29    4.98   602.6    3.3      57.782
2014    8        4    11  35    4.98   602.6    3.3      57.758
2014    8        4    11  40    4.98   602.5    3.3      57.734
2014    8        4    11  46    4.97   602.4    3.3      57.711
2014    8        4    11  51    4.97   602.3    3.3      57.688
2014    8        4    11  57    4.97   602.2    3.3      57.665
2014    8        4    12   2    4.97   602.1    3.3      57.643
2014    8        4    12   8    4.97   602.0    3.3      57.620
2014    8        4    12  13    4.97   601.9    3.3      57.599
2014    8        4    12  18    4.96   601.8    3.3      57.577
2014    8        4    12  24    4.96   601.7    3.3      57.556
2014    8        4    12  29    4.96   601.6    3.3      57.534
2014    8        4    12  35    4.96   601.5    3.3      57.513
2014    8        4    12  40    4.96   601.4    3.3      57.493
2014    8        4    12  46    4.96   601.3    3.3      57.472
2014    8        4    12  51    4.95   601.2    3.3      57.452
2014    8        4    12  57    4.95   601.1    3.3      57.432
2014    8        4    13   2    4.95   601.0    3.3      57.412
2014    8        4    13   8    4.95   600.9    3.3      57.392
2014    8        4    13  13    4.95   600.8    3.3      57.372
2014    8        4    13  19    4.95   600.7    3.3      57.353
2014    8        4    13  24    4.94   600.6    3.3      57.333
2014    8        4    13  29    4.94   600.5    3.3      57.314
2014    8        4    13  35    4.94   600.4    3.3      57.295
2014    8        4    13  40    4.94   600.3    3.3      57.277
2014    8        4    13  46    4.94   600.2    3.3      57.258
2014    8        4    13  51    4.94   600.1    3.3      57.240
2014    8        4    13  57    4.93   600.0    3.3      57.222
2014    8        4    14   2    4.93   599.9    3.3      57.204
2014    8        4    14   8    4.93   599.7    3.3      57.186
2014    8        4    14  13    4.93   599.6    3.3      57.169
2014    8        4    14  19    4.93   599.5    3.3      57.152
2014    8        4    14  24    4.93   599.4    3.3      57.135
2014    8        4    14  30    4.92   599.3    3.3      57.118
2014    8        4    14  35    4.92   599.2    3.3      57.101
2014    8        4    14  41    4.92   599.1    3.3      57.085
2014    8        4    14  46    4.92   599.0    3.3      57.069
2014    8        4    14  51    4.92   598.9    3.3      57.052
2014    8        4    14  57    4.92   598.7    3.3      57.036
2014    8        4    15   2    4.91   598.6    3.3      57.019
2014    8        4    15   8    4.91   598.5    3.3      57.003
2014    8        4    15  13    4.91   598.4    3.3      56.986
2014    8        4    15  19    4.91   598.3    3.3      56.970
2014    8        4    15  24    4.91   598.2    3.3      56.953
2014    8        4    15  30    4.91   598.1    3.3      56.937
2014    8        4    15  35    4.90   597.9    3.3      56.921
2014    8        4    15  41    4.90   597.8    3.3      56.905
2014    8        4    15  46    4.90   597.7    3.3      56.889
2014    8        4    15  52    4.90   597.6    3.3      56.872
2014    8        4    15  57    4.90   597.5    3.3      56.855
2014    8        4    16   2    4.90   597.4    3.3      56.837
2014    8        4    16   8    4.90   597.3    3.3      56.818
2014    8        4    16  13    4.89   597.1    3.3      56.799
2014    8        4    16  19    4.89   597.0    3.3      56.779
2014    8        4    16  24    4.89   596.9    3.3      56.759
2014    8        4    16  30    4.89   596.8    3.3      56.738
2014    8        4    16  35    4.89   596.7    3.3      56.717
2014    8        4    16  41    4.89   596.6    3.3      56.695
2014    8        4    16  46    4.88   596.5    3.3      56.672
2014    8        4    16  52    4.88   596.3    3.3      56.649
2014    8        4    16  57    4.88   596.2    3.3      56.626
2014    8        4    17   3    4.88   596.1    3.3      56.602
2014    8        4    17   8    4.88   596.0    3.3      56.578
2014    8        4    17  13    4.88   595.9    3.3      56.554
2014    8        4    17  19    4.87   595.8    3.3      56.529
2014    8        4    17  24    4.87   595.7    3.3      56.503
2014    8        4    17  30    4.87   595.6    3.3      56.478
2014    8        4    17  35    4.87   595.4    3.3      56.452
2014    8        4    17  41    4.87   595.3    3.3      56.426
2014    8        4    17  46    4.87   595.2    3.3      56.399
2014    8        4    17  52    4.87   595.1    3.3      56.373
2014    8        4    17  57    4.86   595.0    3.3      56.346
2014    8        4    18   3    4.86   594.9    3.3      56.318
2014    8        4    18   8    4.86   594.8    3.3      56.291
2014    8        4    18  14    4.86   594.6    3.3      56.263
2014    8        4    18  19    4.86   594.5    3.3      56.236
2014    8        4    18  25    4.86   594.4    3.3      56.208
2014    8        4    18  30    4.85   594.3    3.3      56.179
2014    8        4    18  35    4.85   594.2    3.3      56.151
2014    8        4    18  41    4.85   594.1    3.3      56.123
2014    8        4    18  46    4.85   593.9    3.3      56.094
2014    8        4    18  52    4.85   593.8    3.3      56.065
2014    8        4    18  57    4.85   593.7    3.3      56.036
2014    8        4    19   3    4.84   593.6    3.3      56.007
2014    8        4    19   8    4.84   593.5    3.3      55.977
2014    8        4    19  14    4.84   593.3    3.3      55.948
2014    8        4    19  19    4.84   593.2    3.3      55.918
2014    8        4    19  25    4.84   593.1    3.3      55.888
2014    8        4    19  30    4.84   593.0    3.3      55.859
2014    8        4    19  36    4.83   592.9    3.3      55.829
2014    8        4    19  41    4.83   592.7    3.3      55.799
2014    8        4    19  46    4.83   592.6    3.3      55.769
2014    8        4    19  52    4.83   592.5    3.3      55.739
2014    8        4    19  57    4.83   592.3    3.3      55.709
2014    8        4    20   3    4.83   592.2    3.3      55.679
2014    8        4    20   8    4.82   592.1    3.3      55.648
2014    8        4    20  14    4.82   592.0    3.3      55.619
2014    8        4    20  19    4.82   591.8    3.3      55.589
2014    8        4    20  25    4.82   591.7    3.3      55.559
2014    8        4    20  30    4.82   591.5    3.3      55.529
2014    8        4    20  36    4.82   591.4    3.3      55.500
2014    8        4    20  41    4.81   591.3    3.3      55.470
2014    8        4    20  47    4.81   591.1    3.3      55.441
2014    8        4    20  52    4.81   591.0    3.3      55.412
2014    8        4    20  57    4.81   590.8    3.3      55.384
2014    8        4    21   3    4.81   590.7    3.3      55.356
2014    8        4    21   8    4.81   590.6    3.3      55.328
2014    8        4    21  14    4.80   590.4    3.3      55.301
2014    8        4    21  19    4.80   590.3    3.3      55.274
2014    8        4    21  25    4.80   590.1    3.3      55.248
2014    8        4    21  30    4.80   590.0    3.3      55.223
2014    8        4    21  36    4.80   589.8    3.3      55.198
2014    8        4    21  41    4.80   589.7    3.3      55.173
2014    8        4    21  47    4.79   589.5    3.3      55.149
2014    8        4    21  52    4.79   589.4    3.3      55.126
2014    8        4    21  58    4.79   589.2    3.3      55.104
2014    8        4    22   3    4.79   589.1    3.3      55.082
2014    8        4    22   8    4.79   588.9    3.3      55.061
2014    8        4    22  14    4.79   588.7    3.3      55.041
2014    8        4    22  19    4.79   588.6    3.3      55.021
2014    8        4    22  25    4.78   588.4    3.3      55.002
2014    8        4    22  30    4.78   588.3    3.3      54.984
2014    8        4    22  36    4.78   588.1    3.3      54.967
2014    8        4    22  41    4.78   588.0    3.3      54.950
2014    8        4    22  47    4.78   587.9    3.3      54.934
2014    8        4    22  52    4.78   587.7    3.3      54.919
2014    8        4    22  58    4.78   587.6    3.3      54.904
2014    8        4    23   3    4.78   587.4    3.3      54.889
2014    8        4    23   9    4.77   587.3    3.3      54.875
2014    8        4    23  14    4.77   587.1    3.3      54.860
2014    8        4    23  20    4.77   587.0    3.3      54.844
2014    8        4    23  25    4.77   586.8    3.3      54.829
2014    8        4    23  30    4.77   586.7    3.3      54.813
2014    8        4    23  36    4.77   586.6    3.3      54.797
2014    8        4    23  41    4.77   586.4    3.3      54.781
2014    8        4    23  47    4.76   586.3    3.3      54.764
2014    8        4    23  52    4.76   586.1    3.3      54.747
2014    8        4    23  58    4.76   586.0    3.3      54.729
2014    8        5     0   3    4.76   585.8    3.3      54.711
2014    8        5     0   9    4.76   585.7    3.3      54.693
2014    8        5     0  14    4.76   585.6    3.3      54.674
2014    8        5     0  20    4.76   585.4    3.3      54.655
2014    8        5     0  25    4.75   585.3    3.3      54.636
2014    8        5     0  31    4.75   585.1    3.3      54.616
2014    8        5     0  36    4.75   585.0    3.3      54.595
2014    8        5     0  41    4.75   584.8    3.3      54.575
2014    8        5     0  47    4.75   584.7    3.3      54.554
2014    8        5     0  52    4.75   584.6    3.3      54.532
2014    8        5     0  58    4.75   584.4    3.3      54.510
2014    8        5     1   3    4.74   584.3    3.3      54.488
2014    8        5     1   9    4.74   584.1    3.3      54.466
2014    8        5     1  14    4.74   584.0    3.3      54.443
2014    8        5     1  20    4.74   583.8    3.3      54.420
2014    8        5     1  25    4.74   583.7    3.3      54.397
2014    8        5     1  31    4.74   583.6    3.3      54.374
2014    8        5     1  36    4.74   583.4    3.3      54.350
2014    8        5     1  42    4.73   583.3    3.3      54.326
2014    8        5     1  47    4.73   583.1    3.3      54.302
2014    8        5     1  52    4.73   583.0    3.3      54.277
2014    8        5     1  58    4.73   582.8    3.3      54.253
2014    8        5     2   3    4.73   582.7    3.3      54.228
2014    8        5     2   9    4.73   582.6    3.3      54.202
2014    8        5     2  14    4.73   582.4    3.3      54.177
2014    8        5     2  20    4.72   582.3    3.3      54.152
2014    8        5     2  25    4.72   582.1    3.3      54.126
2014    8        5     2  31    4.72   582.0    3.3      54.100
2014    8        5     2  36    4.72   581.8    3.3      54.074
2014    8        5     2  42    4.72   581.7    3.3      54.047
2014    8        5     2  47    4.72   581.6    3.3      54.021
2014    8        5     2  53    4.71   581.4    3.3      53.994
2014    8        5     2  58    4.71   581.3    3.3      53.967
2014    8        5     3   4    4.71   581.1    3.3      53.940
2014    8        5     3   9    4.71   581.0    3.3      53.912
2014    8        5     3  14    4.71   580.8    3.3      53.885
2014    8        5     3  20    4.71   580.7    3.3      53.857
2014    8        5     3  25    4.71   580.5    3.3      53.829
2014    8        5     3  31    4.70   580.4    3.3      53.801
2014    8        5     3  36    4.70   580.2    3.3      53.773
2014    8        5     3  42    4.70   580.1    3.3      53.745
2014    8        5     3  47    4.70   579.9    3.3      53.717
2014    8        5     3  53    4.70   579.8    3.3      53.688
2014    8        5     3  58    4.70   579.6    3.3      53.660
2014    8        5     4   4    4.70   579.5    3.3      53.632
2014    8        5     4   9    4.69   579.3    3.3      53.604
2014    8        5     4  15    4.69   579.1    3.3      53.575
2014    8        5     4  20    4.69   579.0    3.3      53.547
2014    8        5     4  25    4.69   578.8    3.3      53.519
2014    8        5     4  31    4.69   578.7    3.3      53.492
2014    8        5     4  36    4.69   578.5    3.3      53.464
2014    8        5     4  42    4.69   578.3    3.3      53.436
2014    8        5     4  47    4.68   578.2    3.3      53.409
2014    8        5     4  53    4.68   578.0    3.3      53.382
2014    8        5     4  58    4.68   577.9    3.3      53.355
2014    8        5     5   4    4.68   577.7    3.3      53.328
2014    8        5     5   9    4.68   577.5    3.3      53.301
2014    8        5     5  15    4.68   577.4    3.3      53.274
2014    8        5     5  20    4.68   577.2    3.3      53.248
2014    8        5     5  26    4.67   577.0    3.3      53.222
2014    8        5     5  31    4.67   576.9    3.3      53.196
2014    8        5     5  36    4.67   576.7    3.3      53.170
2014    8        5     5  42    4.67   576.5    3.3      53.145
2014    8        5     5  47    4.67   576.4    3.3      53.119
2014    8        5     5  53    4.67   576.2    3.3      53.094
2014    8        5     5  58    4.67   576.0    3.3      53.069
2014    8        5     6   4    4.66   575.9    3.3      53.044
2014    8        5     6   9    4.66   575.7    3.3      53.020
2014    8        5     6  15    4.66   575.5    3.3      52.995
2014    8        5     6  20    4.66   575.3    3.3      52.971
2014    8        5     6  26    4.66   575.2    3.3      52.947
2014    8        5     6  31    4.66   575.0    3.3      52.923
2014    8        5     6  37    4.66   574.8    3.3      52.900
2014    8        5     6  42    4.66   574.7    3.3      52.876
2014    8        5     6  47    4.65   574.5    3.3      52.853
2014    8        5     6  53    4.65   574.3    3.3      52.831
2014    8        5     6  58    4.65   574.1    3.3      52.808
2014    8        5     7   4    4.65   574.0    3.3      52.786
2014    8        5     7   9    4.65   573.8    3.3      52.764
2014    8        5     7  15    4.65   573.6    3.3      52.742
2014    8        5     7  20    4.65   573.4    3.3      52.720
2014    8        5     7  26    4.65   573.3    3.3      52.699
2014    8        5     7  31    4.64   573.1    3.3      52.678
2014    8        5     7  37    4.64   572.9    3.3      52.657
2014    8        5     7  42    4.64   572.7    3.3      52.637
2014    8        5     7  48    4.64   572.6    3.3      52.616
2014    8        5     7  53    4.64   572.4    3.3      52.596
2014    8        5     7  59    4.64   572.2    3.3      52.576
2014    8        5     8   4    4.64   572.0    3.3      52.556
2014    8        5     8   9    4.64   571.8    3.3      52.537
2014    8        5     8  15    4.64   571.7    3.3      52.518
2014    8        5     8  20    4.63   571.5    3.3      52.499
2014    8        5     8  26    4.63   571.3    3.3      52.480
2014    8        5     8  31    4.63   571.1    3.3      52.461
2014    8        5     8  37    4.63   571.0    3.3      52.443
2014    8        5     8  42    4.63   570.8    3.3      52.424
2014    8        5     8  48    4.63   570.6    3.3      52.406
2014    8        5     8  53    4.63   570.4    3.3      52.388
2014    8        5     8  59    4.63   570.3    3.4      52.369
2014    8        5     9   4    4.63   570.1    3.4      52.351
2014    8        5     9  10    4.62   569.9    3.4      52.333
2014    8        5     9  15    4.62   569.8    3.4      52.315
2014    8        5     9  20    4.62   569.6    3.4      52.297
2014    8        5     9  26    4.62   569.4    3.4      52.279
2014    8        5     9  31    4.62   569.3    3.4      52.261
2014    8        5     9  37    4.62   569.1    3.4      52.243
2014    8        5     9  42    4.62   568.9    3.4      52.225
2014    8        5     9  48    4.62   568.7    3.4      52.207
2014    8        5     9  53    4.62   568.6    3.4      52.189
2014    8        5     9  59    4.61   568.4    3.4      52.170
2014    8        5    10   4    4.61   568.2    3.4      52.151
2014    8        5    10  10    4.61   568.1    3.4      52.132
2014    8        5    10  15    4.61   567.9    3.4      52.113
2014    8        5    10  21    4.61   567.7    3.4      52.094
2014    8        5    10  26    4.61   567.6    3.4      52.075
2014    8        5    10  31    4.61   567.4    3.4      52.055
2014    8        5    10  37    4.61   567.2    3.4      52.035
2014    8        5    10  42    4.61   567.1    3.4      52.015
2014    8        5    10  48    4.60   566.9    3.4      51.995
2014    8        5    10  53    4.60   566.7    3.4      51.974
2014    8        5    10  59    4.60   566.6    3.4      51.953
2014    8        5    11   4    4.60   566.4    3.4      51.933
2014    8        5    11  10    4.60   566.2    3.4      51.911
2014    8        5    11  15    4.60   566.1    3.4      51.890
2014    8        5    11  21    4.60   565.9    3.4      51.869
2014    8        5    11  26    4.60   565.7    3.4      51.847
2014    8        5    11  32    4.60   565.6    3.4      51.825
2014    8        5    11  37    4.59   565.4    3.4      51.803
2014    8        5    11  43    4.59   565.2    3.4      51.781
2014    8        5    11  48    4.59   565.1    3.4      51.758
2014    8        5    11  53    4.59   564.9    3.4      51.735
2014    8        5    11  59    4.59   564.7    3.4      51.713
2014    8        5    12   4    4.59   564.6    3.4      51.690
2014    8        5    12  10    4.59   564.4    3.4      51.666
2014    8        5    12  15    4.59   564.2    3.4      51.643
2014    8        5    12  21    4.58   564.1    3.4      51.620
2014    8        5    12  26    4.58   563.9    3.4      51.596
2014    8        5    12  32    4.58   563.7    3.4      51.573
2014    8        5    12  37    4.58   563.5    3.4      51.549
2014    8        5    12  43    4.58   563.4    3.4      51.525
2014    8        5    12  48    4.58   563.2    3.4      51.501
2014    8        5    12  54    4.58   563.0    3.4      51.478
2014    8        5    12  59    4.58   562.8    3.4      51.454
2014    8        5    13   4    4.58   562.7    3.4      51.430
2014    8        5    13  10    4.57   562.5    3.4      51.406
2014    8        5    13  15    4.57   562.3    3.4      51.382
2014    8        5    13  21    4.57   562.1    3.4      51.358
2014    8        5    13  26    4.57   561.9    3.4      51.335
2014    8        5    13  32    4.57   561.8    3.4      51.311
2014    8        5    13  37    4.57   561.6    3.4      51.287
2014    8        5    13  43    4.57   561.4    3.4      51.264
2014    8        5    13  48    4.57   561.2    3.4      51.241
2014    8        5    13  54    4.57   561.0    3.4      51.218
2014    8        5    13  59    4.57   560.9    3.4      51.195
2014    8        5    14   5    4.56   560.7    3.4      51.172
2014    8        5    14  10    4.56   560.5    3.4      51.149
2014    8        5    14  15    4.56   560.3    3.4      51.126
2014    8        5    14  21    4.56   560.1    3.4      51.104
2014    8        5    14  26    4.56   559.9    3.4      51.081
2014    8        5    14  32    4.56   559.8    3.4      51.059
2014    8        5    14  37    4.56   559.6    3.4      51.037
2014    8        5    14  43    4.56   559.4    3.4      51.015
2014    8        5    14  48    4.56   559.2    3.4      50.993
2014    8        5    14  54    4.56   559.0    3.4      50.971
2014    8        5    14  59    4.55   558.8    3.4      50.949
2014    8        5    15   5    4.55   558.6    3.4      50.927
2014    8        5    15  10    4.55   558.5    3.4      50.906
2014    8        5    15  16    4.55   558.3    3.4      50.884
2014    8        5    15  21    4.55   558.1    3.4      50.863
2014    8        5    15  26    4.55   557.9    3.4      50.841
2014    8        5    15  32    4.55   557.7    3.4      50.820
2014    8        5    15  37    4.55   557.5    3.4      50.799
2014    8        5    15  43    4.55   557.3    3.4      50.778
2014    8        5    15  48    4.55   557.2    3.4      50.757
2014    8        5    15  54    4.55   557.0    3.4      50.736
2014    8        5    15  59    4.55   556.8    3.4      50.715
2014    8        5    16   5    4.54   556.6    3.4      50.694
2014    8        5    16  10    4.54   556.4    3.4      50.674
2014    8        5    16  16    4.54   556.2    3.4      50.653
2014    8        5    16  21    4.54   556.0    3.4      50.632
2014    8        5    16  27    4.54   555.9    3.4      50.612
2014    8        5    16  32    4.54   555.7    3.4      50.591
2014    8        5    16  37    4.54   555.5    3.4      50.571
2014    8        5    16  43    4.54   555.3    3.4      50.550
2014    8        5    16  48    4.54   555.1    3.4      50.530
2014    8        5    16  54    4.54   554.9    3.4      50.509
2014    8        5    16  59    4.54   554.8    3.4      50.489
2014    8        5    17   5    4.54   554.6    3.4      50.468
2014    8        5    17  10    4.53   554.4    3.4      50.448
2014    8        5    17  16    4.53   554.2    3.4      50.427
2014    8        5    17  21    4.53   554.0    3.4      50.407
2014    8        5    17  27    4.53   553.9    3.4      50.386
2014    8        5    17  32    4.53   553.7    3.5      50.365
2014    8        5    17  38    4.53   553.5    3.5      50.345
2014    8        5    17  43    4.53   553.3    3.5      50.324
2014    8        5    17  48    4.53   553.1    3.5      50.303
2014    8        5    17  54    4.53   552.9    3.5      50.283
2014    8        5    17  59    4.53   552.8    3.5      50.262
2014    8        5    18   5    4.53   552.6    3.5      50.241
2014    8        5    18  10    4.53   552.4    3.5      50.220
2014    8        5    18  16    4.53   552.2    3.5      50.199
2014    8        5    18  21    4.52   552.0    3.5      50.179
2014    8        5    18  27    4.52   551.8    3.5      50.158
2014    8        5    18  32    4.52   551.7    3.5      50.137
2014    8        5    18  38    4.52   551.5    3.5      50.116
2014    8        5    18  43    4.52   551.3    3.5      50.095
2014    8        5    18  49    4.52   551.1    3.5      50.075
2014    8        5    18  54    4.52   550.9    3.5      50.054
2014    8        5    19   0    4.52   550.7    3.5      50.033
2014    8        5    19   5    4.52   550.6    3.5      50.013
2014    8        5    19  10    4.52   550.4    3.5      49.993
2014    8        5    19  16    4.52   550.2    3.5      49.973
2014    8        5    19  21    4.52   550.0    3.5      49.953
2014    8        5    19  27    4.51   549.8    3.5      49.933
2014    8        5    19  32    4.51   549.7    3.5      49.913
2014    8        5    19  38    4.51   549.5    3.5      49.894
2014    8        5    19  43    4.51   549.3    3.5      49.874
2014    8        5    19  49    4.51   549.1    3.5      49.855
2014    8        5    19  54    4.51   548.9    3.5      49.836
2014    8        5    20   0    4.51   548.7    3.5      49.817
2014    8        5    20   5    4.51   548.6    3.5      49.798
2014    8        5    20  11    4.51   548.4    3.5      49.780
2014    8        5    20  16    4.51   548.2    3.5      49.761
2014    8        5    20  21    4.51   548.0    3.5      49.743
2014    8        5    20  27    4.51   547.8    3.5      49.724
2014    8        5    20  32    4.51   547.7    3.5      49.706
2014    8        5    20  38    4.50   547.5    3.5      49.687
2014    8        5    20  43    4.50   547.3    3.5      49.669
2014    8        5    20  49    4.50   547.1    3.5      49.650
2014    8        5    20  54    4.50   546.9    3.5      49.632
2014    8        5    21   0    4.50   546.8    3.5      49.613
2014    8        5    21   5    4.50   546.6    3.5      49.594
2014    8        5    21  11    4.50   546.4    3.5      49.575
2014    8        5    21  16    4.50   546.2    3.5      49.556
2014    8        5    21  22    4.50   546.0    3.5      49.537
2014    8        5    21  27    4.50   545.8    3.5      49.518
2014    8        5    21  32    4.50   545.7    3.5      49.499
2014    8        5    21  38    4.50   545.5    3.5      49.480
2014    8        5    21  43    4.50   545.3    3.5      49.460
2014    8        5    21  49    4.50   545.1    3.5      49.441
2014    8        5    21  54    4.49   544.9    3.5      49.421
2014    8        5    22   0    4.49   544.7    3.5      49.402
2014    8        5    22   5    4.49   544.6    3.5      49.382
2014    8        5    22  11    4.49   544.4    3.5      49.362
2014    8        5    22  16    4.49   544.2    3.5      49.343
2014    8        5    22  22    4.49   544.0    3.5      49.323
2014    8        5    22  27    4.49   543.8    3.5      49.303
2014    8        5    22  33    4.49   543.6    3.5      49.283
2014    8        5    22  38    4.49   543.5    3.5      49.263
2014    8        5    22  43    4.49   543.3    3.5      49.243
2014    8        5    22  49    4.49   543.1    3.5      49.223
2014    8        5    22  54    4.49   542.9    3.5      49.203
2014    8        5    23   0    4.49   542.7    3.5      49.183
2014    8        5    23   5    4.49   542.5    3.5      49.163
2014    8        5    23  11    4.49   542.4    3.5      49.143
2014    8        5    23  16    4.48   542.2    3.5      49.123
2014    8        5    23  22    4.48   542.0    3.5      49.103
2014    8        5    23  27    4.48   541.8    3.5      49.083
2014    8        5    23  33    4.48   541.6    3.5      49.063
2014    8        5    23  38    4.48   541.4    3.5      49.043
2014    8        5    23  44    4.48   541.3    3.6      49.022
2014    8        5    23  49    4.48   541.1    3.6      49.002
2014    8        5    23  54    4.48   540.9    3.6      48.981
2014    8        6     0   0    4.48   540.7    3.6      48.960
2014    8        6     0   5    4.48   540.5    3.6      48.939
2014    8        6     0  11    4.48   540.4    3.6      48.919
2014    8        6     0  16    4.48   540.2    3.6      48.897
2014    8        6     0  22    4.48   540.0    3.6      48.876
2014    8        6     0  27    4.48   539.8    3.6      48.855
2014    8        6     0  33    4.48   539.6    3.6      48.833
2014    8        6     0  38    4.48   539.5    3.6      48.811
2014    8        6     0  44    4.48   539.3    3.6      48.790
2014    8        6     0  49    4.47   539.1    3.6      48.767
2014    8        6     0  55    4.47   538.9    3.6      48.745
2014    8        6     1   0    4.47   538.7    3.6      48.723
2014    8        6     1   5    4.47   538.6    3.6      48.700
2014    8        6     1  11    4.47   538.4    3.6      48.677
2014    8        6     1  16    4.47   538.2    3.6      48.654
2014    8        6     1  22    4.47   538.0    3.6      48.631
2014    8        6     1  27    4.47   537.8    3.6      48.607
2014    8        6     1  33    4.47   537.7    3.6      48.584
2014    8        6     1  38    4.47   537.5    3.6      48.560
2014    8        6     1  44    4.47   537.3    3.6      48.536
2014    8        6     1  49    4.47   537.1    3.6      48.512
2014    8        6     1  55    4.47   536.9    3.6      48.488
2014    8        6     2   0    4.47   536.7    3.6      48.464
2014    8        6     2   6    4.47   536.6    3.6      48.439
2014    8        6     2  11    4.47   536.4    3.6      48.415
2014    8        6     2  17    4.47   536.2    3.6      48.391
2014    8        6     2  22    4.46   536.0    3.6      48.367
2014    8        6     2  27    4.46   535.8    3.6      48.343
2014    8        6     2  33    4.46   535.6    3.6      48.319
2014    8        6     2  38    4.46   535.5    3.6      48.295
2014    8        6     2  44    4.46   535.3    3.6      48.271
2014    8        6     2  49    4.46   535.1    3.6      48.248
2014    8        6     2  55    4.46   534.9    3.6      48.224
2014    8        6     3   0    4.46   534.7    3.6      48.201
2014    8        6     3   6    4.46   534.5    3.6      48.178
2014    8        6     3  11    4.46   534.3    3.6      48.156
2014    8        6     3  17    4.46   534.2    3.6      48.133
2014    8        6     3  22    4.46   534.0    3.6      48.111
2014    8        6     3  27    4.46   533.8    3.6      48.089
2014    8        6     3  33    4.46   533.6    3.6      48.068
2014    8        6     3  38    4.46   533.4    3.6      48.046
2014    8        6     3  44    4.46   533.2    3.6      48.025
2014    8        6     3  49    4.46   533.0    3.6      48.004
2014    8        6     3  55    4.46   532.8    3.6      47.984
2014    8        6     4   0    4.45   532.7    3.6      47.963
2014    8        6     4   6    4.45   532.5    3.6      47.943
2014    8        6     4  11    4.45   532.3    3.6      47.923
2014    8        6     4  17    4.45   532.1    3.6      47.903
2014    8        6     4  22    4.45   531.9    3.6      47.884
2014    8        6     4  28    4.45   531.7    3.6      47.864
2014    8        6     4  33    4.45   531.5    3.6      47.845
2014    8        6     4  39    4.45   531.4    3.6      47.826
2014    8        6     4  44    4.45   531.2    3.6      47.807
2014    8        6     4  49    4.45   531.0    3.6      47.788
2014    8        6     4  55    4.45   530.8    3.6      47.769
2014    8        6     5   0    4.45   530.6    3.6      47.751
2014    8        6     5   6    4.45   530.4    3.6      47.732
2014    8        6     5  11    4.45   530.2    3.6      47.714
2014    8        6     5  17    4.45   530.1    3.6      47.695
2014    8        6     5  22    4.45   529.9    3.7      47.677
2014    8        6     5  28    4.45   529.7    3.7      47.658
2014    8        6     5  33    4.45   529.5    3.7      47.640
2014    8        6     5  39    4.45   529.3    3.7      47.622
2014    8        6     5  44    4.45   529.1    3.7      47.603
2014    8        6     5  50    4.44   528.9    3.7      47.585
2014    8        6     5  55    4.44   528.7    3.7      47.567
2014    8        6     6   0    4.44   528.6    3.7      47.548
2014    8        6     6   6    4.44   528.4    3.7      47.530
2014    8        6     6  11    4.44   528.2    3.7      47.511
2014    8        6     6  17    4.44   528.0    3.7      47.493
2014    8        6     6  22    4.44   527.8    3.7      47.474
2014    8        6     6  28    4.44   527.6    3.7      47.456
2014    8        6     6  33    4.44   527.4    3.7      47.437
2014    8        6     6  39    4.44   527.3    3.7      47.419
2014    8        6     6  44    4.44   527.1    3.7      47.400
2014    8        6     6  50    4.44   526.9    3.7      47.381
2014    8        6     6  55    4.44   526.7    3.7      47.362
2014    8        6     7   1    4.44   526.5    3.7      47.343
2014    8        6     7   6    4.44   526.3    3.7      47.325
2014    8        6     7  11    4.44   526.1    3.7      47.306
2014    8        6     7  17    4.44   526.0    3.7      47.286
2014    8        6     7  22    4.44   525.8    3.7      47.267
2014    8        6     7  28    4.44   525.6    3.7      47.248
2014    8        6     7  33    4.44   525.4    3.7      47.229
2014    8        6     7  39    4.44   525.2    3.7      47.209
2014    8        6     7  44    4.44   525.0    3.7      47.190
2014    8        6     7  50    4.44   524.9    3.7      47.170
2014    8        6     7  55    4.44   524.7    3.7      47.150
2014    8        6     8   1    4.44   524.5    3.7      47.131
2014    8        6     8   6    4.43   524.3    3.7      47.111
2014    8        6     8  12    4.43   524.1    3.7      47.090
2014    8        6     8  17    4.43   524.0    3.7      47.070
2014    8        6     8  22    4.43   523.8    3.7      47.050
2014    8        6     8  28    4.43   523.6    3.7      47.029
2014    8        6     8  33    4.43   523.4    3.7      47.008
2014    8        6     8  39    4.43   523.2    3.7      46.987
2014    8        6     8  44    4.43   523.1    3.7      46.966
2014    8        6     8  50    4.43   522.9    3.7      46.944
2014    8        6     8  55    4.43   522.7    3.7      46.923
2014    8        6     9   1    4.43   522.5    3.7      46.901
2014    8        6     9   6    4.43   522.3    3.7      46.879
2014    8        6     9  12    4.43   522.2    3.7      46.856
2014    8        6     9  17    4.43   522.0    3.7      46.834
2014    8        6     9  23    4.43   521.8    3.7      46.811
2014    8        6     9  28    4.43   521.6    3.7      46.788
2014    8        6     9  33    4.43   521.4    3.7      46.765
2014    8        6     9  39    4.43   521.3    3.7      46.742
2014    8        6     9  44    4.43   521.1    3.7      46.719
2014    8        6     9  50    4.43   520.9    3.7      46.695
2014    8        6     9  55    4.43   520.7    3.7      46.671
2014    8        6    10   1    4.43   520.5    3.7      46.648
2014    8        6    10   6    4.43   520.4    3.7      46.624
2014    8        6    10  12    4.43   520.2    3.7      46.600
2014    8        6    10  17    4.43   520.0    3.7      46.576
2014    8        6    10  23    4.42   519.8    3.8      46.552
2014    8        6    10  28    4.42   519.6    3.8      46.527
2014    8        6    10  34    4.42   519.4    3.8      46.503
2014    8        6    10  39    4.42   519.3    3.8      46.479
2014    8        6    10  44    4.42   519.1    3.8      46.455
2014    8        6    10  50    4.42   518.9    3.8      46.431
2014    8        6    10  55    4.42   518.7    3.8      46.408
2014    8        6    11   1    4.42   518.5    3.8      46.384
2014    8        6    11   6    4.42   518.3    3.8      46.361
2014    8        6    11  12    4.42   518.2    3.8      46.337
2014    8        6    11  17    4.42   518.0    3.8      46.314
2014    8        6    11  23    4.42   517.8    3.8      46.291
2014    8        6    11  28    4.42   517.6    3.8      46.269
2014    8        6    11  34    4.42   517.4    3.8      46.247
2014    8        6    11  39    4.42   517.2    3.8      46.224
2014    8        6    11  45    4.42   517.0    3.8      46.203
2014    8        6    11  50    4.42   516.9    3.8      46.181
2014    8        6    11  55    4.42   516.7    3.8      46.160
2014    8        6    12   1    4.42   516.5    3.8      46.139
2014    8        6    12   6    4.42   516.3    3.8      46.118
2014    8        6    12  12    4.42   516.1    3.8      46.097
2014    8        6    12  17    4.42   515.9    3.8      46.076
2014    8        6    12  23    4.42   515.8    3.8      46.056
2014    8        6    12  28    4.42   515.6    3.8      46.036
2014    8        6    12  34    4.42   515.4    3.8      46.016
2014    8        6    12  39    4.42   515.2    3.8      45.996
2014    8        6    12  45    4.41   515.0    3.8      45.976
2014    8        6    12  50    4.41   514.8    3.8      45.957
2014    8        6    12  56    4.41   514.7    3.8      45.937
2014    8        6    13   1    4.41   514.5    3.8      45.918
2014    8        6    13   6    4.41   514.3    3.8      45.898
2014    8        6    13  12    4.41   514.1    3.8      45.878
2014    8        6    13  17    4.41   513.9    3.8      45.859
2014    8        6    13  23    4.41   513.7    3.8      45.839
2014    8        6    13  28    4.41   513.5    3.8      45.820
2014    8        6    13  34    4.41   513.4    3.8      45.800
2014    8        6    13  39    4.41   513.2    3.8      45.780
2014    8        6    13  45    4.41   513.0    3.8      45.761
2014    8        6    13  50    4.41   512.8    3.8      45.741
2014    8        6    13  56    4.41   512.6    3.8      45.721
2014    8        6    14   1    4.41   512.4    3.8      45.701
2014    8        6    14   7    4.41   512.3    3.8      45.681
2014    8        6    14  12    4.41   512.1    3.8      45.661
2014    8        6    14  17    4.41   511.9    3.8      45.640
2014    8        6    14  23    4.41   511.7    3.8      45.620
2014    8        6    14  28    4.41   511.5    3.8      45.600
2014    8        6    14  34    4.41   511.3    3.8      45.579
2014    8        6    14  39    4.41   511.2    3.8      45.559
2014    8        6    14  45    4.41   511.0    3.8      45.538
2014    8        6    14  50    4.41   510.8    3.8      45.518
2014    8        6    14  56    4.41   510.6    3.9      45.497
2014    8        6    15   1    4.41   510.4    3.9      45.476
2014    8        6    15   7    4.41   510.3    3.9      45.455
2014    8        6    15  12    4.41   510.1    3.9      45.434
2014    8        6    15  18    4.41   509.9    3.9      45.413
2014    8        6    15  23    4.41   509.7    3.9      45.392
2014    8        6    15  29    4.41   509.5    3.9      45.370
2014    8        6    15  34    4.41   509.4    3.9      45.349
2014    8        6    15  39    4.41   509.2    3.9      45.328
2014    8        6    15  45    4.41   509.0    3.9      45.306
2014    8        6    15  50    4.41   508.8    3.9      45.284
2014    8        6    15  56    4.41   508.7    3.9      45.263
2014    8        6    16   1    4.41   508.5    3.9      45.241
2014    8        6    16   7    4.41   508.3    3.9      45.219
2014    8        6    16  12    4.41   508.1    3.9      45.197
2014    8        6    16  18    4.41   507.9    3.9      45.175
2014    8        6    16  23    4.41   507.8    3.9      45.152
2014    8        6    16  29    4.41   507.6    3.9      45.130
2014    8        6    16  34    4.41   507.4    3.9      45.108
2014    8        6    16  40    4.41   507.2    3.9      45.085
2014    8        6    16  45    4.40   507.1    3.9      45.062
2014    8        6    16  50    4.40   506.9    3.9      45.040
2014    8        6    16  56    4.40   506.7    3.9      45.017
2014    8        6    17   1    4.40   506.5    3.9      44.994
2014    8        6    17   7    4.40   506.3    3.9      44.971
2014    8        6    17  12    4.40   506.2    3.9      44.948
2014    8        6    17  18    4.40   506.0    3.9      44.924
2014    8        6    17  23    4.40   505.8    3.9      44.901
2014    8        6    17  29    4.40   505.6    3.9      44.878
2014    8        6    17  34    4.40   505.4    3.9      44.855
2014    8        6    17  40    4.40   505.3    3.9      44.831
2014    8        6    17  45    4.40   505.1    3.9      44.808
2014    8        6    17  51    4.40   504.9    3.9      44.785
2014    8        6    17  56    4.40   504.7    3.9      44.761
2014    8        6    18   1    4.40   504.5    3.9      44.738
2014    8        6    18   7    4.40   504.4    3.9      44.715
2014    8        6    18  12    4.40   504.2    3.9      44.692
2014    8        6    18  18    4.40   504.0    3.9      44.669
2014    8        6    18  23    4.40   503.8    3.9      44.646
2014    8        6    18  29    4.40   503.6    3.9      44.623
2014    8        6    18  34    4.40   503.5    3.9      44.600
2014    8        6    18  40    4.40   503.3    3.9      44.578
2014    8        6    18  45    4.40   503.1    3.9      44.555
2014    8        6    18  51    4.40   502.9    3.9      44.533
2014    8        6    18  56    4.40   502.8    3.9      44.510
2014    8        6    19   2    4.40   502.6    3.9      44.488
2014    8        6    19   7    4.40   502.4    3.9      44.466
2014    8        6    19  12    4.40   502.2    3.9      44.445
2014    8        6    19  18    4.40   502.0    4.0      44.423
2014    8        6    19  23    4.40   501.9    4.0      44.401
2014    8        6    19  29    4.40   501.7    4.0      44.380
2014    8        6    19  34    4.40   501.5    4.0      44.358
2014    8        6    19  40    4.40   501.3    4.0      44.337
2014    8        6    19  45    4.40   501.1    4.0      44.316
2014    8        6    19  51    4.40   501.0    4.0      44.295
2014    8        6    19  56    4.40   500.8    4.0      44.273
2014    8        6    20   2    4.40   500.6    4.0      44.252
2014    8        6    20   7    4.40   500.4    4.0      44.231
2014    8        6    20  13    4.40   500.3    4.0      44.210
2014    8        6    20  18    4.40   500.1    4.0      44.189
2014    8        6    20  23    4.40   499.9    4.0      44.168
2014    8        6    20  29    4.40   499.7    4.0      44.146
2014    8        6    20  34    4.40   499.5    4.0      44.125
2014    8        6    20  40    4.40   499.4    4.0      44.104
2014    8        6    20  45    4.40   499.2    4.0      44.082
2014    8        6    20  51    4.40   499.0    4.0      44.061
2014    8        6    20  56    4.40   498.8    4.0      44.039
2014    8        6    21   2    4.40   498.7    4.0      44.017
2014    8        6    21   7    4.40   498.5    4.0      43.996
2014    8        6    21  13    4.40   498.3    4.0      43.974
2014    8        6    21  18    4.40   498.1    4.0      43.952
2014    8        6    21  24    4.40   498.0    4.0      43.930
2014    8        6    21  29    4.40   497.8    4.0      43.908
2014    8        6    21  34    4.40   497.6    4.0      43.885
2014    8        6    21  40    4.40   497.4    4.0      43.863
2014    8        6    21  45    4.40   497.3    4.0      43.840
2014    8        6    21  51    4.40   497.1    4.0      43.818
2014    8        6    21  56    4.40   496.9    4.0      43.795
2014    8        6    22   2    4.40   496.7    4.0      43.773
2014    8        6    22   7    4.40   496.6    4.0      43.750
2014    8        6    22  13    4.40   496.4    4.0      43.727
2014    8        6    22  18    4.40   496.2    4.0      43.704
2014    8        6    22  24    4.40   496.0    4.0      43.681
2014    8        6    22  29    4.39   495.9    4.0      43.658
2014    8        6    22  35    4.39   495.7    4.0      43.635
2014    8        6    22  40    4.39   495.5    4.0      43.612
2014    8        6    22  45    4.39   495.3    4.0      43.588
2014    8        6    22  51    4.39   495.2    4.0      43.565
2014    8        6    22  56    4.39   495.0    4.0      43.542
2014    8        6    23   2    4.39   494.8    4.0      43.518
2014    8        6    23   7    4.39   494.6    4.0      43.495
2014    8        6    23  13    4.39   494.5    4.1      43.472
2014    8        6    23  18    4.39   494.3    4.1      43.448
2014    8        6    23  24    4.39   494.1    4.1      43.425
2014    8        6    23  29    4.39   494.0    4.1      43.401
2014    8        6    23  35    4.39   493.8    4.1      43.378
2014    8        6    23  40    4.39   493.6    4.1      43.354
2014    8        6    23  46    4.39   493.4    4.1      43.331
2014    8        6    23  51    4.39   493.3    4.1      43.307
2014    8        6    23  57    4.39   493.1    4.1      43.283
2014    8        7     0   2    4.39   492.9    4.1      43.260
2014    8        7     0   7    4.39   492.7    4.1      43.236
2014    8        7     0  13    4.39   492.6    4.1      43.213
2014    8        7     0  18    4.39   492.4    4.1      43.189
2014    8        7     0  24    4.39   492.2    4.1      43.165
2014    8        7     0  29    4.39   492.0    4.1      43.141
2014    8        7     0  35    4.39   491.9    4.1      43.118
2014    8        7     0  40    4.39   491.7    4.1      43.094
2014    8        7     0  46    4.39   491.5    4.1      43.070
2014    8        7     0  51    4.39   491.4    4.1      43.047
2014    8        7     0  57    4.39   491.2    4.1      43.023
2014    8        7     1   2    4.39   491.0    4.1      42.999
2014    8        7     1   7    4.39   490.8    4.1      42.976
2014    8        7     1  13    4.39   490.7    4.1      42.952
2014    8        7     1  18    4.39   490.5    4.1      42.928
2014    8        7     1  24    4.39   490.3    4.1      42.905
2014    8        7     1  29    4.39   490.1    4.1      42.881
2014    8        7     1  35    4.39   490.0    4.1      42.858
2014    8        7     1  40    4.39   489.8    4.1      42.834
2014    8        7     1  46    4.39   489.6    4.1      42.810
2014    8        7     1  51    4.39   489.5    4.1      42.787
2014    8        7     1  57    4.39   489.3    4.1      42.764
2014    8        7     2   2    4.39   489.1    4.1      42.740
2014    8        7     2   8    4.39   488.9    4.1      42.717
2014    8        7     2  13    4.39   488.8    4.1      42.693
2014    8        7     2  19    4.39   488.6    4.1      42.670
2014    8        7     2  24    4.39   488.4    4.1      42.647
2014    8        7     2  29    4.39   488.3    4.1      42.624
2014    8        7     2  35    4.39   488.1    4.1      42.600
2014    8        7     2  40    4.39   487.9    4.1      42.577
2014    8        7     2  46    4.39   487.7    4.1      42.554
2014    8        7     2  51    4.39   487.6    4.1      42.531
2014    8        7     2  57    4.39   487.4    4.2      42.508
2014    8        7     3   2    4.39   487.2    4.2      42.485
2014    8        7     3   8    4.39   487.1    4.2      42.462
2014    8        7     3  13    4.39   486.9    4.2      42.439
2014    8        7     3  19    4.39   486.7    4.2      42.415
2014    8        7     3  24    4.39   486.6    4.2      42.392
2014    8        7     3  30    4.39   486.4    4.2      42.369
2014    8        7     3  35    4.39   486.2    4.2      42.346
2014    8        7     3  40    4.39   486.0    4.2      42.323
2014    8        7     3  46    4.39   485.9    4.2      42.300
2014    8        7     3  51    4.39   485.7    4.2      42.277
2014    8        7     3  57    4.39   485.5    4.2      42.254
2014    8        7     4   2    4.39   485.4    4.2      42.231
2014    8        7     4   8    4.39   485.2    4.2      42.208
2014    8        7     4  13    4.39   485.0    4.2      42.185
2014    8        7     4  19    4.39   484.9    4.2      42.162
2014    8        7     4  24    4.39   484.7    4.2      42.139
2014    8        7     4  30    4.39   484.5    4.2      42.116
2014    8        7     4  35    4.39   484.4    4.2      42.093
2014    8        7     4  41    4.39   484.2    4.2      42.070
2014    8        7     4  46    4.39   484.0    4.2      42.047
2014    8        7     4  51    4.39   483.9    4.2      42.024
2014    8        7     4  57    4.39   483.7    4.2      42.000
2014    8        7     5   2    4.39   483.5    4.2      41.977
2014    8        7     5   8    4.39   483.3    4.2      41.954
2014    8        7     5  13    4.39   483.2    4.2      41.931
2014    8        7     5  19    4.39   483.0    4.2      41.907
2014    8        7     5  24    4.39   482.8    4.2      41.884
2014    8        7     5  30    4.39   482.7    4.2      41.861
2014    8        7     5  35    4.39   482.5    4.2      41.837
2014    8        7     5  41    4.39   482.3    4.2      41.814
2014    8        7     5  46    4.39   482.2    4.2      41.790
2014    8        7     5  52    4.39   482.0    4.2      41.767
2014    8        7     5  57    4.39   481.8    4.2      41.743
2014    8        7     6   2    4.39   481.7    4.2      41.720
2014    8        7     6   8    4.39   481.5    4.2      41.696
2014    8        7     6  13    4.39   481.3    4.2      41.673
2014    8        7     6  19    4.39   481.2    4.2      41.649
2014    8        7     6  24    4.39   481.0    4.3      41.625
2014    8        7     6  30    4.39   480.8    4.3      41.601
2014    8        7     6  35    4.39   480.7    4.3      41.578
2014    8        7     6  41    4.39   480.5    4.3      41.554
2014    8        7     6  46    4.39   480.3    4.3      41.530
2014    8        7     6  52    4.39   480.2    4.3      41.506
2014    8        7     6  57    4.39   480.0    4.3      41.482
2014    8        7     7   3    4.39   479.8    4.3      41.458
2014    8        7     7   8    4.39   479.7    4.3      41.434
2014    8        7     7  13    4.39   479.5    4.3      41.410
2014    8        7     7  19    4.39   479.3    4.3      41.386
2014    8        7     7  24    4.39   479.2    4.3      41.362
2014    8        7     7  30    4.39   479.0    4.3      41.337
2014    8        7     7  35    4.39   478.8    4.3      41.313
2014    8        7     7  41    4.39   478.7    4.3      41.289
2014    8        7     7  46    4.39   478.5    4.3      41.264
2014    8        7     7  52    4.39   478.3    4.3      41.240
2014    8        7     7  57    4.39   478.2    4.3      41.216
2014    8        7     8   3    4.39   478.0    4.3      41.191
2014    8        7     8   8    4.39   477.8    4.3      41.166
2014    8        7     8  14    4.39   477.7    4.3      41.142
2014    8        7     8  19    4.39   477.5    4.3      41.117
2014    8        7     8  24    4.39   477.4    4.3      41.092
2014    8        7     8  30    4.39   477.2    4.3      41.068
2014    8        7     8  35    4.39   477.0    4.3      41.043
2014    8        7     8  41    4.39   476.9    4.3      41.018
2014    8        7     8  46    4.39   476.7    4.3      40.993
2014    8        7     8  52    4.39   476.5    4.3      40.968
2014    8        7     8  57    4.39   476.4    4.3      40.943
2014    8        7     9   3    4.39   476.2    4.3      40.918
2014    8        7     9   8    4.39   476.0    4.3      40.893
2014    8        7     9  14    4.39   475.9    4.3      40.867
2014    8        7     9  19    4.39   475.7    4.3      40.842
2014    8        7     9  25    4.39   475.6    4.3      40.817
2014    8        7     9  30    4.39   475.4    4.3      40.792
2014    8        7     9  35    4.39   475.2    4.3      40.766
2014    8        7     9  41    4.39   475.1    4.3      40.741
2014    8        7     9  46    4.39   474.9    4.4      40.716
2014    8        7     9  52    4.39   474.7    4.4      40.690
2014    8        7     9  57    4.39   474.6    4.4      40.665
2014    8        7    10   3    4.39   474.4    4.4      40.640
2014    8        7    10   8    4.39   474.2    4.4      40.614
2014    8        7    10  14    4.39   474.1    4.4      40.589
2014    8        7    10  19    4.39   473.9    4.4      40.563
2014    8        7    10  25    4.39   473.8    4.4      40.538
2014    8        7    10  30    4.39   473.6    4.4      40.513
2014    8        7    10  36    4.39   473.4    4.4      40.487
2014    8        7    10  41    4.39   473.3    4.4      40.462
2014    8        7    10  46    4.39   473.1    4.4      40.436
2014    8        7    10  52    4.39   472.9    4.4      40.411
2014    8        7    10  57    4.39   472.8    4.4      40.386
2014    8        7    11   3    4.39   472.6    4.4      40.360
2014    8        7    11   8    4.39   472.5    4.4      40.335
2014    8        7    11  14    4.39   472.3    4.4      40.310
2014    8        7    11  19    4.39   472.1    4.4      40.284
2014    8        7    11  25    4.39   472.0    4.4      40.259
2014    8        7    11  30    4.39   471.8    4.4      40.234
2014    8        7    11  36    4.39   471.7    4.4      40.208
2014    8        7    11  41    4.39   471.5    4.4      40.183
2014    8        7    11  47    4.39   471.3    4.4      40.158
2014    8        7    11  52    4.39   471.2    4.4      40.132
2014    8        7    11  57    4.39   471.0    4.4      40.107
2014    8        7    12   3    4.39   470.8    4.4      40.082
2014    8        7    12   8    4.39   470.7    4.4      40.057
2014    8        7    12  14    4.39   470.5    4.4      40.032
2014    8        7    12  19    4.39   470.4    4.4      40.006
2014    8        7    12  25    4.39   470.2    4.4      39.981
2014    8        7    12  30    4.39   470.0    4.4      39.956
2014    8        7    12  36    4.39   469.9    4.4      39.931
2014    8        7    12  41    4.39   469.7    4.4      39.906
2014    8        7    12  47    4.39   469.6    4.4      39.880
2014    8        7    12  52    4.39   469.4    4.4      39.855
2014    8        7    12  58    4.39   469.2    4.5      39.830
2014    8        7    13   3    4.39   469.1    4.5      39.805
2014    8        7    13   8    4.39   468.9    4.5      39.780
2014    8        7    13  14    4.39   468.8    4.5      39.754
2014    8        7    13  19    4.40   468.6    4.5      39.729
2014    8        7    13  25    4.40   468.4    4.5      39.704
2014    8        7    13  30    4.40   468.3    4.5      39.679
2014    8        7    13  36    4.40   468.1    4.5      39.653
2014    8        7    13  41    4.40   468.0    4.5      39.628
2014    8        7    13  47    4.40   467.8    4.5      39.602
2014    8        7    13  52    4.40   467.6    4.5      39.577
2014    8        7    13  58    4.40   467.5    4.5      39.551
2014    8        7    14   3    4.40   467.3    4.5      39.526
2014    8        7    14   9    4.40   467.2    4.5      39.500
2014    8        7    14  14    4.40   467.0    4.5      39.475
2014    8        7    14  19    4.40   466.8    4.5      39.449
2014    8        7    14  25    4.40   466.7    4.5      39.423
2014    8        7    14  30    4.40   466.5    4.5      39.397
2014    8        7    14  36    4.40   466.4    4.5      39.372
2014    8        7    14  41    4.40   466.2    4.5      39.346
2014    8        7    14  47    4.40   466.0    4.5      39.320
2014    8        7    14  52    4.40   465.9    4.5      39.294
2014    8        7    14  58    4.40   465.7    4.5      39.268
2014    8        7    15   3    4.40   465.6    4.5      39.242
2014    8        7    15   9    4.40   465.4    4.5      39.216
2014    8        7    15  14    4.40   465.2    4.5      39.190
2014    8        7    15  20    4.40   465.1    4.5      39.164
2014    8        7    15  25    4.40   464.9    4.5      39.137
2014    8        7    15  31    4.40   464.8    4.5      39.111
2014    8        7    15  36    4.40   464.6    4.5      39.085
2014    8        7    15  41    4.40   464.5    4.5      39.058
2014    8        7    15  47    4.40   464.3    4.5      39.032
2014    8        7    15  52    4.40   464.1    4.5      39.006
2014    8        7    15  58    4.40   464.0    4.6      38.979
2014    8        7    16   3    4.40   463.8    4.6      38.953
2014    8        7    16   9    4.40   463.7    4.6      38.926
2014    8        7    16  14    4.40   463.5    4.6      38.900
2014    8        7    16  20    4.40   463.3    4.6      38.873
2014    8        7    16  25    4.40   463.2    4.6      38.846
2014    8        7    16  31    4.40   463.0    4.6      38.820
2014    8        7    16  36    4.40   462.9    4.6      38.793
2014    8        7    16  41    4.40   462.7    4.6      38.766
2014    8        7    16  47    4.40   462.6    4.6      38.739
2014    8        7    16  52    4.40   462.4    4.6      38.713
2014    8        7    16  58    4.40   462.2    4.6      38.686
2014    8        7    17   3    4.40   462.1    4.6      38.659
2014    8        7    17   9    4.40   461.9    4.6      38.632
2014    8        7    17  14    4.40   461.8    4.6      38.605
2014    8        7    17  20    4.40   461.6    4.6      38.578
2014    8        7    17  25    4.40   461.4    4.6      38.551
2014    8        7    17  31    4.40   461.3    4.6      38.524
2014    8        7    17  36    4.40   461.1    4.6      38.497
2014    8        7    17  42    4.40   461.0    4.6      38.470
2014    8        7    17  47    4.40   460.8    4.6      38.443
2014    8        7    17  53    4.40   460.7    4.6      38.416
2014    8        7    17  58    4.40   460.5    4.6      38.388
2014    8        7    18   3    4.40   460.3    4.6      38.361
2014    8        7    18   9    4.40   460.2    4.6      38.334
2014    8        7    18  14    4.40   460.0    4.6      38.307
2014    8        7    18  20    4.40   459.9    4.6      38.280
2014    8        7    18  25    4.40   459.7    4.6      38.252
2014    8        7    18  31    4.40   459.6    4.6      38.225
2014    8        7    18  36    4.40   459.4    4.6      38.198
2014    8        7    18  42    4.40   459.2    4.6      38.171
2014    8        7    18  47    4.40   459.1    4.6      38.143
2014    8        7    18  53    4.40   458.9    4.6      38.116
2014    8        7    18  58    4.40   458.8    4.7      38.089
2014    8        7    19   4    4.40   458.6    4.7      38.061
2014    8        7    19   9    4.40   458.4    4.7      38.034
2014    8        7    19  14    4.40   458.3    4.7      38.007
2014    8        7    19  20    4.40   458.1    4.7      37.979
2014    8        7    19  25    4.40   458.0    4.7      37.952
2014    8        7    19  31    4.40   457.8    4.7      37.925
2014    8        7    19  36    4.40   457.7    4.7      37.897
2014    8        7    19  42    4.40   457.5    4.7      37.870
2014    8        7    19  47    4.40   457.3    4.7      37.843
2014    8        7    19  53    4.40   457.2    4.7      37.815
2014    8        7    19  58    4.40   457.0    4.7      37.788
2014    8        7    20   4    4.40   456.9    4.7      37.761
2014    8        7    20   9    4.40   456.7    4.7      37.733
2014    8        7    20  15    4.40   456.6    4.7      37.706
2014    8        7    20  20    4.40   456.4    4.7      37.678
2014    8        7    20  25    4.40   456.3    4.7      37.651
2014    8        7    20  31    4.40   456.1    4.7      37.623
2014    8        7    20  36    4.40   455.9    4.7      37.596
2014    8        7    20  42    4.40   455.8    4.7      37.568
2014    8        7    20  47    4.40   455.6    4.7      37.541
2014    8        7    20  53    4.40   455.5    4.7      37.513
2014    8        7    20  58    4.40   455.3    4.7      37.486
2014    8        7    21   4    4.40   455.2    4.7      37.458
2014    8        7    21   9    4.40   455.0    4.7      37.430
2014    8        7    21  15    4.40   454.9    4.7      37.403
2014    8        7    21  20    4.40   454.7    4.7      37.375
2014    8        7    21  26    4.40   454.5    4.7      37.347
2014    8        7    21  31    4.40   454.4    4.7      37.320
2014    8        7    21  36    4.40   454.2    4.7      37.292
2014    8        7    21  42    4.40   454.1    4.7      37.264
2014    8        7    21  47    4.40   453.9    4.7      37.236
2014    8        7    21  53    4.40   453.8    4.8      37.208
2014    8        7    21  58    4.40   453.6    4.8      37.180
2014    8        7    22   4    4.40   453.4    4.8      37.153
2014    8        7    22   9    4.40   453.3    4.8      37.125
2014    8        7    22  15    4.40   453.1    4.8      37.097
2014    8        7    22  20    4.40   453.0    4.8      37.069
2014    8        7    22  26    4.40   452.8    4.8      37.041
2014    8        7    22  31    4.40   452.7    4.8      37.013
2014    8        7    22  37    4.40   452.5    4.8      36.986
2014    8        7    22  42    4.40   452.3    4.8      36.958
2014    8        7    22  47    4.40   452.2    4.8      36.930
2014    8        7    22  53    4.40   452.0    4.8      36.902
2014    8        7    22  58    4.40   451.9    4.8      36.875
2014    8        7    23   4    4.40   451.7    4.8      36.847
2014    8        7    23   9    4.40   451.6    4.8      36.819
2014    8        7    23  15    4.40   451.4    4.8      36.791
2014    8        7    23  20    4.40   451.2    4.8      36.764
2014    8        7    23  26    4.40   451.1    4.8      36.736
2014    8        7    23  31    4.40   450.9    4.8      36.709
2014    8        7    23  37    4.40   450.8    4.8      36.681
2014    8        7    23  42    4.40   450.6    4.8      36.654
2014    8        7    23  48    4.40   450.5    4.8      36.626
2014    8        7    23  53    4.40   450.3    4.8      36.599
2014    8        7    23  58    4.40   450.1    4.8      36.572
2014    8        8     0   4    4.40   450.0    4.8      36.544
2014    8        8     0   9    4.40   449.8    4.8      36.517
2014    8        8     0  15    4.40   449.7    4.8      36.490
2014    8        8     0  20    4.40   449.5    4.8      36.462
2014    8        8     0  26    4.40   449.3    4.8      36.435
2014    8        8     0  31    4.40   449.2    4.8      36.408
2014    8        8     0  37    4.41   449.0    4.9      36.381
2014    8        8     0  42    4.41   448.9    4.9      36.353
2014    8        8     0  48    4.41   448.7    4.9      36.326
2014    8        8     0  53    4.41   448.5    4.9      36.299
2014    8        8     0  59    4.41   448.4    4.9      36.272
2014    8        8     1   4    4.41   448.2    4.9      36.244
2014    8        8     1   9    4.41   448.1    4.9      36.217
2014    8        8     1  15    4.41   447.9    4.9      36.190
2014    8        8     1  20    4.41   447.7    4.9      36.162
2014    8        8     1  26    4.41   447.6    4.9      36.135
2014    8        8     1  31    4.41   447.4    4.9      36.108
2014    8        8     1  37    4.41   447.3    4.9      36.080
2014    8        8     1  42    4.41   447.1    4.9      36.053
2014    8        8     1  48    4.41   446.9    4.9      36.025
2014    8        8     1  53    4.41   446.8    4.9      35.998
2014    8        8     1  59    4.41   446.6    4.9      35.970
2014    8        8     2   4    4.41   446.5    4.9      35.942
2014    8        8     2  10    4.41   446.3    4.9      35.915
2014    8        8     2  15    4.41   446.1    4.9      35.887
2014    8        8     2  20    4.41   446.0    4.9      35.859
2014    8        8     2  26    4.41   445.8    4.9      35.831
2014    8        8     2  31    4.41   445.7    4.9      35.803
2014    8        8     2  37    4.41   445.5    4.9      35.775
2014    8        8     2  42    4.41   445.3    4.9      35.747
2014    8        8     2  48    4.41   445.2    4.9      35.719
2014    8        8     2  53    4.41   445.0    4.9      35.691
2014    8        8     2  59    4.41   444.9    4.9      35.663
2014    8        8     3   4    4.41   444.7    4.9      35.635
2014    8        8     3  10    4.41   444.5    5.0      35.607
2014    8        8     3  15    4.41   444.4    5.0      35.579
2014    8        8     3  21    4.41   444.2    5.0      35.550
2014    8        8     3  26    4.41   444.0    5.0      35.522
2014    8        8     3  31    4.41   443.9    5.0      35.494
2014    8        8     3  37    4.41   443.7    5.0      35.466
2014    8        8     3  42    4.41   443.6    5.0      35.437
2014    8        8     3  48    4.41   443.4    5.0      35.409
2014    8        8     3  53    4.41   443.2    5.0      35.381
2014    8        8     3  59    4.41   443.1    5.0      35.353
2014    8        8     4   4    4.41   442.9    5.0      35.325
2014    8        8     4  10    4.41   442.7    5.0      35.297
2014    8        8     4  15    4.41   442.6    5.0      35.269
2014    8        8     4  21    4.41   442.4    5.0      35.241
2014    8        8     4  26    4.41   442.3    5.0      35.213
2014    8        8     4  32    4.41   442.1    5.0      35.185
2014    8        8     4  37    4.41   441.9    5.0      35.157
2014    8        8     4  42    4.42   441.8    5.0      35.130
2014    8        8     4  48    4.42   441.6    5.0      35.102
2014    8        8     4  53    4.42   441.4    5.0      35.075
2014    8        8     4  59    4.42   441.3    5.0      35.048
2014    8        8     5   4    4.42   441.1    5.0      35.020
2014    8        8     5  10    4.42   441.0    5.0      34.993
2014    8        8     5  15    4.42   440.8    5.0      34.966
2014    8        8     5  21    4.42   440.6    5.0      34.939
2014    8        8     5  26    4.42   440.5    5.0      34.912
2014    8        8     5  32    4.42   440.3    5.0      34.886
2014    8        8     5  37    4.42   440.2    5.1      34.859
2014    8        8     5  43    4.42   440.0    5.1      34.833
2014    8        8     5  48    4.42   439.8    5.1      34.806
2014    8        8     5  53    4.42   439.7    5.1      34.780
2014    8        8     5  59    4.42   439.5    5.1      34.753
2014    8        8     6   4    4.42   439.3    5.1      34.727
2014    8        8     6  10    4.42   439.2    5.1      34.701
2014    8        8     6  15    4.42   439.0    5.1      34.675
2014    8        8     6  21    4.42   438.9    5.1      34.649
2014    8        8     6  26    4.42   438.7    5.1      34.623
2014    8        8     6  32    4.42   438.5    5.1      34.597
2014    8        8     6  37    4.42   438.4    5.1      34.571
2014    8        8     6  43    4.42   438.2    5.1      34.546
2014    8        8     6  48    4.43   438.1    5.1      34.520
2014    8        8     6  54    4.43   437.9    5.1      34.494
2014    8        8     6  59    4.43   437.7    5.1      34.469
2014    8        8     7   4    4.43   437.6    5.1      34.443
2014    8        8     7  10    4.43   437.4    5.1      34.417
2014    8        8     7  15    4.43   437.3    5.1      34.392
2014    8        8     7  21    4.43   437.1    5.1      34.366
2014    8        8     7  26    4.43   436.9    5.1      34.341
2014    8        8     7  32    4.43   436.8    5.1      34.316
2014    8        8     7  37    4.43   436.6    5.1      34.290
2014    8        8     7  43    4.43   436.5    5.1      34.265
2014    8        8     7  48    4.43   436.3    5.2      34.239
2014    8        8     7  54    4.43   436.1    5.2      34.214
2014    8        8     7  59    4.43   436.0    5.2      34.189
2014    8        8     8   5    4.43   435.8    5.2      34.163
2014    8        8     8  10    4.43   435.6    5.2      34.138
2014    8        8     8  15    4.43   435.5    5.2      34.113
2014    8        8     8  21    4.43   435.3    5.2      34.087
2014    8        8     8  26    4.43   435.2    5.2      34.062
2014    8        8     8  32    4.44   435.0    5.2      34.037
2014    8        8     8  37    4.44   434.8    5.2      34.012
2014    8        8     8  43    4.44   434.7    5.2      33.986
2014    8        8     8  48    4.44   434.5    5.2      33.961
2014    8        8     8  54    4.44   434.4    5.2      33.936
2014    8        8     8  59    4.44   434.2    5.2      33.910
2014    8        8     9   5    4.44   434.0    5.2      33.885
2014    8        8     9  10    4.44   433.9    5.2      33.860
2014    8        8     9  16    4.44   433.7    5.2      33.835
2014    8        8     9  21    4.44   433.6    5.2      33.809
2014    8        8     9  26    4.44   433.4    5.2      33.784
2014    8        8     9  32    4.44   433.2    5.2      33.759
2014    8        8     9  37    4.44   433.1    5.2      33.733
2014    8        8     9  43    4.44   432.9    5.2      33.708
2014    8        8     9  48    4.44   432.8    5.2      33.683
2014    8        8     9  54    4.45   432.6    5.3      33.658
2014    8        8     9  59    4.45   432.4    5.3      33.632
2014    8        8    10   5    4.45   432.3    5.3      33.607
2014    8        8    10  10    4.45   432.1    5.3      33.582
2014    8        8    10  16    4.45   432.0    5.3      33.557
2014    8        8    10  21    4.45   431.8    5.3      33.532
2014    8        8    10  27    4.45   431.6    5.3      33.506
2014    8        8    10  32    4.45   431.5    5.3      33.481
2014    8        8    10  37    4.45   431.3    5.3      33.456
2014    8        8    10  43    4.45   431.1    5.3      33.431
2014    8        8    10  48    4.45   431.0    5.3      33.406
2014    8        8    10  54    4.45   430.8    5.3      33.381
2014    8        8    10  59    4.45   430.7    5.3      33.356
2014    8        8    11   5    4.46   430.5    5.3      33.331
2014    8        8    11  10    4.46   430.3    5.3      33.307
2014    8        8    11  16    4.46   430.2    5.3      33.282
2014    8        8    11  21    4.46   430.0    5.3      33.257
2014    8        8    11  27    4.46   429.8    5.3      33.233
2014    8        8    11  32    4.46   429.7    5.3      33.209
2014    8        8    11  38    4.46   429.5    5.3      33.184
2014    8        8    11  43    4.46   429.4    5.3      33.160
2014    8        8    11  48    4.46   429.2    5.3      33.136
2014    8        8    11  54    4.46   429.0    5.4      33.112
2014    8        8    11  59    4.46   428.9    5.4      33.088
2014    8        8    12   5    4.47   428.7    5.4      33.065
2014    8        8    12  10    4.47   428.5    5.4      33.041
2014    8        8    12  16    4.47   428.4    5.4      33.018
2014    8        8    12  21    4.47   428.2    5.4      32.994
2014    8        8    12  27    4.47   428.1    5.4      32.971
2014    8        8    12  32    4.47   427.9    5.4      32.948
2014    8        8    12  38    4.47   427.7    5.4      32.925
2014    8        8    12  43    4.47   427.6    5.4      32.902
2014    8        8    12  49    4.47   427.4    5.4      32.879
2014    8        8    12  54    4.47   427.3    5.4      32.856
2014    8        8    12  59    4.48   427.1    5.4      32.834
2014    8        8    13   5    4.48   427.0    5.4      32.811
2014    8        8    13  10    4.48   426.8    5.4      32.789
2014    8        8    13  16    4.48   426.6    5.4      32.766
2014    8        8    13  21    4.48   426.5    5.4      32.744
2014    8        8    13  27    4.48   426.3    5.4      32.722
2014    8        8    13  32    4.48   426.2    5.4      32.700
2014    8        8    13  38    4.48   426.0    5.4      32.677
2014    8        8    13  43    4.48   425.8    5.5      32.655
2014    8        8    13  49    4.49   425.7    5.5      32.633
2014    8        8    13  54    4.49   425.5    5.5      32.611
2014    8        8    14   0    4.49   425.4    5.5      32.590
2014    8        8    14   5    4.49   425.2    5.5      32.568
2014    8        8    14  10    4.49   425.1    5.5      32.546
2014    8        8    14  16    4.49   424.9    5.5      32.524
2014    8        8    14  21    4.49   424.8    5.5      32.502
2014    8        8    14  27    4.49   424.6    5.5      32.481
2014    8        8    14  32    4.50   424.4    5.5      32.459
2014    8        8    14  38    4.50   424.3    5.5      32.438
2014    8        8    14  43    4.50   424.1    5.5      32.416
2014    8        8    14  49    4.50   424.0    5.5      32.395
2014    8        8    14  54    4.50   423.8    5.5      32.373
2014    8        8    15   0    4.50   423.7    5.5      32.352
2014    8        8    15   5    4.50   423.5    5.5      32.331
2014    8        8    15  11    4.50   423.4    5.5      32.309
2014    8        8    15  16    4.51   423.2    5.5      32.288
2014    8        8    15  21    4.51   423.0    5.5      32.267
2014    8        8    15  27    4.51   422.9    5.5      32.246
2014    8        8    15  32    4.51   422.7    5.6      32.225
2014    8        8    15  38    4.51   422.6    5.6      32.204
2014    8        8    15  43    4.51   422.4    5.6      32.184
2014    8        8    15  49    4.51   422.3    5.6      32.163
2014    8        8    15  54    4.52   422.1    5.6      32.142
2014    8        8    16   0    4.52   422.0    5.6      32.122
2014    8        8    16   5    4.52   421.8    5.6      32.102
2014    8        8    16  11    4.52   421.7    5.6      32.081
2014    8        8    16  16    4.52   421.5    5.6      32.061
2014    8        8    16  22    4.52   421.4    5.6      32.041
2014    8        8    16  27    4.52   421.2    5.6      32.021
2014    8        8    16  32    4.53   421.1    5.6      32.001
2014    8        8    16  38    4.53   420.9    5.6      31.981
2014    8        8    16  43    4.53   420.8    5.6      31.962
2014    8        8    16  49    4.53   420.6    5.6      31.942
2014    8        8    16  54    4.53   420.5    5.6      31.923
2014    8        8    17   0    4.53   420.3    5.6      31.904
2014    8        8    17   5    4.53   420.2    5.6      31.885
2014    8        8    17  11    4.54   420.0    5.6      31.866
2014    8        8    17  16    4.54   419.9    5.7      31.847
2014    8        8    17  22    4.54   419.7    5.7      31.828
2014    8        8    17  27    4.54   419.6    5.7      31.809
2014    8        8    17  33    4.54   419.4    5.7      31.791
2014    8        8    17  38    4.54   419.3    5.7      31.772
2014    8        8    17  43    4.55   419.1    5.7      31.754
2014    8        8    17  49    4.55   419.0    5.7      31.735
2014    8        8    17  54    4.55   418.8    5.7      31.717
2014    8        8    18   0    4.55   418.7    5.7      31.699
2014    8        8    18   5    4.55   418.5    5.7      31.681
2014    8        8    18  11    4.55   418.4    5.7      31.663
2014    8        8    18  16    4.56   418.2    5.7      31.646
2014    8        8    18  22    4.56   418.1    5.7      31.628
2014    8        8    18  27    4.56   417.9    5.7      31.610
2014    8        8    18  33    4.56   417.8    5.7      31.593
2014    8        8    18  38    4.56   417.6    5.7      31.575
2014    8        8    18  44    4.56   417.5    5.7      31.558
2014    8        8    18  49    4.57   417.3    5.7      31.540
2014    8        8    18  54    4.57   417.2    5.7      31.523
2014    8        8    19   0    4.57   417.0    5.8      31.505
2014    8        8    19   5    4.57   416.9    5.8      31.488
2014    8        8    19  11    4.57   416.7    5.8      31.471
2014    8        8    19  16    4.57   416.6    5.8      31.454
2014    8        8    19  22    4.58   416.4    5.8      31.437
2014    8        8    19  27    4.58   416.3    5.8      31.419
2014    8        8    19  33    4.58   416.2    5.8      31.402
2014    8        8    19  38    4.58   416.0    5.8      31.385
2014    8        8    19  44    4.58   415.9    5.8      31.368
2014    8        8    19  49    4.59   415.7    5.8      31.351
2014    8        8    19  55    4.59   415.6    5.8      31.334
2014    8        8    20   0    4.59   415.4    5.8      31.317
2014    8        8    20   6    4.59   415.3    5.8      31.300
2014    8        8    20  11    4.59   415.1    5.8      31.283
2014    8        8    20  16    4.59   415.0    5.8      31.266
2014    8        8    20  22    4.60   414.8    5.8      31.249
2014    8        8    20  27    4.60   414.7    5.8      31.233
2014    8        8    20  33    4.60   414.5    5.8      31.216
2014    8        8    20  38    4.60   414.4    5.8      31.199
2014    8        8    20  44    4.60   414.3    5.8      31.182
2014    8        8    20  49    4.60   414.1    5.9      31.165
2014    8        8    20  55    4.61   414.0    5.9      31.148
2014    8        8    21   0    4.61   413.8    5.9      31.132
2014    8        8    21   6    4.61   413.7    5.9      31.115
2014    8        8    21  11    4.61   413.5    5.9      31.098
2014    8        8    21  16    4.61   413.4    5.9      31.081
2014    8        8    21  22    4.62   413.2    5.9      31.065
2014    8        8    21  27    4.62   413.1    5.9      31.048
2014    8        8    21  33    4.62   413.0    5.9      31.032
2014    8        8    21  38    4.62   412.8    5.9      31.015
2014    8        8    21  44    4.62   412.7    5.9      30.998
2014    8        8    21  49    4.63   412.5    5.9      30.982
2014    8        8    21  55    4.63   412.4    5.9      30.966
2014    8        8    22   0    4.63   412.2    5.9      30.949
2014    8        8    22   6    4.63   412.1    5.9      30.933
2014    8        8    22  11    4.63   412.0    5.9      30.917
2014    8        8    22  17    4.64   411.8    5.9      30.900
2014    8        8    22  22    4.64   411.7    5.9      30.884
2014    8        8    22  27    4.64   411.5    5.9      30.868
2014    8        8    22  33    4.64   411.4    5.9      30.852
2014    8        8    22  38    4.64   411.2    6.0      30.836
2014    8        8    22  44    4.65   411.1    6.0      30.820
2014    8        8    22  49    4.65   411.0    6.0      30.804
2014    8        8    22  55    4.65   410.8    6.0      30.789
2014    8        8    23   0    4.65   410.7    6.0      30.773
2014    8        8    23   6    4.66   410.6    6.0      30.758
2014    8        8    23  11    4.66   410.4    6.0      30.742
2014    8        8    23  17    4.66   410.3    6.0      30.727
2014    8        8    23  22    4.66   410.1    6.0      30.711
2014    8        8    23  28    4.66   410.0    6.0      30.696
2014    8        8    23  33    4.67   409.9    6.0      30.681
2014    8        8    23  38    4.67   409.7    6.0      30.666
2014    8        8    23  44    4.67   409.6    6.0      30.651
2014    8        8    23  49    4.67   409.5    6.0      30.637
2014    8        8    23  55    4.68   409.3    6.0      30.622
2014    8        9     0   0    4.68   409.2    6.0      30.608
2014    8        9     0   6    4.68   409.0    6.0      30.593
2014    8        9     0  11    4.68   408.9    6.0      30.579
2014    8        9     0  17    4.69   408.8    6.0      30.565
2014    8        9     0  22    4.69   408.6    6.0      30.551
2014    8        9     0  28    4.69   408.5    6.0      30.537
2014    8        9     0  33    4.69   408.4    6.0      30.524
2014    8        9     0  39    4.69   408.2    6.1      30.510
2014    8        9     0  44    4.70   408.1    6.1      30.497
2014    8        9     0  49    4.70   408.0    6.1      30.483
2014    8        9     0  55    4.70   407.8    6.1      30.470
2014    8        9     1   0    4.70   407.7    6.1      30.458
2014    8        9     1   6    4.71   407.6    6.1      30.445
2014    8        9     1  11    4.71   407.5    6.1      30.432
2014    8        9     1  17    4.71   407.3    6.1      30.420
2014    8        9     1  22    4.71   407.2    6.1      30.408
2014    8        9     1  28    4.72   407.1    6.1      30.396
2014    8        9     1  33    4.72   406.9    6.1      30.384
2014    8        9     1  39    4.72   406.8    6.1      30.372
2014    8        9     1  44    4.73   406.7    6.1      30.360
2014    8        9     1  50    4.73   406.6    6.1      30.349
2014    8        9     1  55    4.73   406.4    6.1      30.338
2014    8        9     2   1    4.73   406.3    6.1      30.327
2014    8        9     2   6    4.74   406.2    6.1      30.316
2014    8        9     2  11    4.74   406.1    6.1      30.305
2014    8        9     2  17    4.74   405.9    6.1      30.295
2014    8        9     2  22    4.74   405.8    6.1      30.284
2014    8        9     2  28    4.75   405.7    6.2      30.274
2014    8        9     2  33    4.75   405.6    6.2      30.264
2014    8        9     2  39    4.75   405.4    6.2      30.254
2014    8        9     2  44    4.75   405.3    6.2      30.245
2014    8        9     2  50    4.76   405.2    6.2      30.235
2014    8        9     2  55    4.76   405.1    6.2      30.226
2014    8        9     3   1    4.76   404.9    6.2      30.217
2014    8        9     3   6    4.77   404.8    6.2      30.207
2014    8        9     3  11    4.77   404.7    6.2      30.199
2014    8        9     3  17    4.77   404.6    6.2      30.190
2014    8        9     3  22    4.77   404.5    6.2      30.181
2014    8        9     3  28    4.78   404.3    6.2      30.173
2014    8        9     3  33    4.78   404.2    6.2      30.164
2014    8        9     3  39    4.78   404.1    6.2      30.156
2014    8        9     3  44    4.79   404.0    6.2      30.148
2014    8        9     3  50    4.79   403.9    6.2      30.140
2014    8        9     3  55    4.79   403.7    6.2      30.132
2014    8        9     4   1    4.79   403.6    6.2      30.124
2014    8        9     4   6    4.80   403.5    6.2      30.117
2014    8        9     4  12    4.80   403.4    6.2      30.109
2014    8        9     4  17    4.80   403.3    6.3      30.102
2014    8        9     4  22    4.80   403.1    6.3      30.095
2014    8        9     4  28    4.81   403.0    6.3      30.087
2014    8        9     4  33    4.81   402.9    6.3      30.080
2014    8        9     4  39    4.81   402.8    6.3      30.074
2014    8        9     4  44    4.82   402.7    6.3      30.067
2014    8        9     4  50    4.82   402.6    6.3      30.060
2014    8        9     4  55    4.82   402.5    6.3      30.054
2014    8        9     5   1    4.83   402.3    6.3      30.047
2014    8        9     5   6    4.83   402.2    6.3      30.041
2014    8        9     5  12    4.83   402.1    6.3      30.035
2014    8        9     5  17    4.83   402.0    6.3      30.029
2014    8        9     5  23    4.84   401.9    6.3      30.023
2014    8        9     5  28    4.84   401.8    6.3      30.017
2014    8        9     5  33    4.84   401.7    6.3      30.011
2014    8        9     5  39    4.85   401.5    6.3      30.005
2014    8        9     5  44    4.85   401.4    6.3      30.000
2014    8        9     5  50    4.85   401.3    6.3      29.994
2014    8        9     5  55    4.86   401.2    6.3      29.989
2014    8        9     6   1    4.86   401.1    6.4      29.984
2014    8        9     6   6    4.86   401.0    6.4      29.979
2014    8        9     6  12    4.87   400.9    6.4      29.974
2014    8        9     6  17    4.87   400.8    6.4      29.969
2014    8        9     6  23    4.87   400.7    6.4      29.965
2014    8        9     6  28    4.87   400.6    6.4      29.960
2014    8        9     6  34    4.88   400.4    6.4      29.956
2014    8        9     6  39    4.88   400.3    6.4      29.952
2014    8        9     6  44    4.88   400.2    6.4      29.948
2014    8        9     6  50    4.89   400.1    6.4      29.944
2014    8        9     6  55    4.89   400.0    6.4      29.940
2014    8        9     7   1    4.89   399.9    6.4      29.936
2014    8        9     7   6    4.90   399.8    6.4      29.933
2014    8        9     7  12    4.90   399.7    6.4      29.930
2014    8        9     7  17    4.90   399.6    6.4      29.926
2014    8        9     7  23    4.91   399.5    6.4      29.923
2014    8        9     7  28    4.91   399.4    6.4      29.921
2014    8        9     7  34    4.91   399.3    6.4      29.918
2014    8        9     7  39    4.92   399.2    6.4      29.915
2014    8        9     7  45    4.92   399.1    6.5      29.913
2014    8        9     7  50    4.92   399.0    6.5      29.911
2014    8        9     7  55    4.93   398.9    6.5      29.909
2014    8        9     8   1    4.93   398.8    6.5      29.907
2014    8        9     8   6    4.93   398.7    6.5      29.905
2014    8        9     8  12    4.94   398.6    6.5      29.904
2014    8        9     8  17    4.94   398.5    6.5      29.902
2014    8        9     8  23    4.94   398.4    6.5      29.901
2014    8        9     8  28    4.95   398.3    6.5      29.900
2014    8        9     8  34    4.95   398.2    6.5      29.900
2014    8        9     8  39    4.95   398.1    6.5      29.899
2014    8        9     8  45    4.96   398.0    6.5      29.898
2014    8        9     8  50    4.96   397.9    6.5      29.898
2014    8        9     8  56    4.97   397.8    6.5      29.898
2014    8        9     9   1    4.97   397.7    6.5      29.898
2014    8        9     9   6    4.97   397.6    6.5      29.898
2014    8        9     9  12    4.98   397.5    6.5      29.899
2014    8        9     9  17    4.98   397.4    6.5      29.899
2014    8        9     9  23    4.98   397.3    6.6      29.900
2014    8        9     9  28    4.99   397.2    6.6      29.901
2014    8        9     9  34    4.99   397.1    6.6      29.902
2014    8        9     9  39    4.99   397.0    6.6      29.903
2014    8        9     9  45    5.00   396.9    6.6      29.904
2014    8        9     9  50    5.00   396.8    6.6      29.905
2014    8        9     9  56    5.00   396.7    6.6      29.907
2014    8        9    10   1    5.01   396.6    6.6      29.908
2014    8        9    10   7    5.01   396.5    6.6      29.910
2014    8        9    10  12    5.01   396.5    6.6      29.912
2014    8        9    10  17    5.02   396.4    6.6      29.914
2014    8        9    10  23    5.02   396.3    6.6      29.916
2014    8        9    10  28    5.02   396.2    6.6      29.918
2014    8        9    10  34    5.03   396.1    6.6      29.920
2014    8        9    10  39    5.03   396.0    6.6      29.923
2014    8        9    10  45    5.03   395.9    6.7      29.925
2014    8        9    10  50    5.04   395.8    6.7      29.927
2014    8        9    10  56    5.04   395.7    6.7      29.930
2014    8        9    11   1    5.04   395.6    6.7      29.932
2014    8        9    11   7    5.05   395.6    6.7      29.935
2014    8        9    11  12    5.05   395.5    6.7      29.937
2014    8        9    11  18    5.06   395.4    6.7      29.940
2014    8        9    11  23    5.06   395.3    6.7      29.942
2014    8        9    11  28    5.06   395.2    6.7      29.945
2014    8        9    11  34    5.07   395.1    6.7      29.948
2014    8        9    11  39    5.07   395.0    6.7      29.950
2014    8        9    11  45    5.07   394.9    6.7      29.953
2014    8        9    11  50    5.08   394.9    6.7      29.955
2014    8        9    11  56    5.08   394.8    6.7      29.958
2014    8        9    12   1    5.08   394.7    6.7      29.960
2014    8        9    12   7    5.09   394.6    6.7      29.962
2014    8        9    12  12    5.09   394.5    6.8      29.965
2014    8        9    12  18    5.09   394.4    6.8      29.967
2014    8        9    12  23    5.10   394.3    6.8      29.970
2014    8        9    12  29    5.10   394.2    6.8      29.972
2014    8        9    12  34    5.10   394.2    6.8      29.974
2014    8        9    12  39    5.11   394.1    6.8      29.976
2014    8        9    12  45    5.11   394.0    6.8      29.979
2014    8        9    12  50    5.12   393.9    6.8      29.981
2014    8        9    12  56    5.12   393.8    6.8      29.983
2014    8        9    13   1    5.12   393.7    6.8      29.985
2014    8        9    13   7    5.13   393.6    6.8      29.987
2014    8        9    13  12    5.13   393.6    6.8      29.989
2014    8        9    13  18    5.13   393.5    6.8      29.991
2014    8        9    13  23    5.14   393.4    6.8      29.993
2014    8        9    13  29    5.14   393.3    6.8      29.995
2014    8        9    13  34    5.15   393.2    6.8      29.997
2014    8        9    13  40    5.15   393.1    6.8      29.998
2014    8        9    13  45    5.15   393.0    6.9      30.000
2014    8        9    13  50    5.16   393.0    6.9      30.002
2014    8        9    13  56    5.16   392.9    6.9      30.004
2014    8        9    14   1    5.16   392.8    6.9      30.006
2014    8        9    14   7    5.17   392.7    6.9      30.008
2014    8        9    14  12    5.17   392.6    6.9      30.010
2014    8        9    14  18    5.18   392.5    6.9      30.011
2014    8        9    14  23    5.18   392.5    6.9      30.013
2014    8        9    14  29    5.18   392.4    6.9      30.015
2014    8        9    14  34    5.19   392.3    6.9      30.017
2014    8        9    14  40    5.19   392.2    6.9      30.019
2014    8        9    14  45    5.20   392.1    6.9      30.021
2014    8        9    14  51    5.20   392.0    6.9      30.023
2014    8        9    14  56    5.21   392.0    6.9      30.026
2014    8        9    15   1    5.21   391.9    6.9      30.028
2014    8        9    15   7    5.21   391.8    6.9      30.030
2014    8        9    15  12    5.22   391.7    7.0      30.033
2014    8        9    15  18    5.22   391.6    7.0      30.036
2014    8        9    15  23    5.23   391.6    7.0      30.039
2014    8        9    15  29    5.23   391.5    7.0      30.042
2014    8        9    15  34    5.24   391.4    7.0      30.045
2014    8        9    15  40    5.24   391.3    7.0      30.048
2014    8        9    15  45    5.25   391.2    7.0      30.052
2014    8        9    15  51    5.25   391.2    7.0      30.056
2014    8        9    15  56    5.25   391.1    7.0      30.060
2014    8        9    16   2    5.26   391.0    7.0      30.065
2014    8        9    16   7    5.26   390.9    7.0      30.070
2014    8        9    16  12    5.27   390.8    7.0      30.075
2014    8        9    16  18    5.27   390.8    7.0      30.081
2014    8        9    16  23    5.28   390.7    7.0      30.087
2014    8        9    16  29    5.28   390.6    7.1      30.093
2014    8        9    16  34    5.29   390.5    7.1      30.100
2014    8        9    16  40    5.29   390.5    7.1      30.108
2014    8        9    16  45    5.30   390.4    7.1      30.116
2014    8        9    16  51    5.30   390.3    7.1      30.124
2014    8        9    16  56    5.31   390.2    7.1      30.133
2014    8        9    17   2    5.31   390.2    7.1      30.143
2014    8        9    17   7    5.32   390.1    7.1      30.153
2014    8        9    17  13    5.32   390.0    7.1      30.163
2014    8        9    17  18    5.33   390.0    7.1      30.175
2014    8        9    17  23    5.33   389.9    7.1      30.187
2014    8        9    17  29    5.34   389.8    7.2      30.200
2014    8        9    17  34    5.34   389.8    7.2      30.214
2014    8        9    17  40    5.35   389.7    7.2      30.229
2014    8        9    17  45    5.35   389.7    7.2      30.246
2014    8        9    17  51    5.36   389.6    7.2      30.264
2014    8        9    17  56    5.36   389.6    7.2      30.283
2014    8        9    18   2    5.37   389.5    7.2      30.302
2014    8        9    18   7    5.37   389.5    7.2      30.323
2014    8        9    18  13    5.38   389.4    7.2      30.344
2014    8        9    18  18    5.38   389.4    7.2      30.365
2014    8        9    18  24    5.39   389.3    7.3      30.387
2014    8        9    18  29    5.39   389.3    7.3      30.408
2014    8        9    18  34    5.40   389.2    7.3      30.430
2014    8        9    18  40    5.40   389.2    7.3      30.451
2014    8        9    18  45    5.41   389.1    7.3      30.473
2014    8        9    18  51    5.41   389.1    7.3      30.494
2014    8        9    18  56    5.42   389.0    7.3      30.516
2014    8        9    19   2    5.42   389.0    7.3      30.537
2014    8        9    19   7    5.43   388.9    7.3      30.559
2014    8        9    19  13    5.43   388.9    7.3      30.580
2014    8        9    19  18    5.44   388.8    7.4      30.601
2014    8        9    19  24    5.45   388.8    7.4      30.622
2014    8        9    19  29    5.45   388.7    7.4      30.643
2014    8        9    19  35    5.46   388.7    7.4      30.664
2014    8        9    19  40    5.46   388.7    7.4      30.685
2014    8        9    19  45    5.47   388.6    7.4      30.707
2014    8        9    19  51    5.47   388.6    7.4      30.728
2014    8        9    19  56    5.48   388.5    7.4      30.750
2014    8        9    20   2    5.48   388.5    7.4      30.772
2014    8        9    20   7    5.49   388.4    7.4      30.794
2014    8        9    20  13    5.49   388.4    7.4      30.816
2014    8        9    20  18    5.50   388.4    7.5      30.838
2014    8        9    20  24    5.50   388.3    7.5      30.861
2014    8        9    20  29    5.51   388.3    7.5      30.883
2014    8        9    20  35    5.51   388.2    7.5      30.906
2014    8        9    20  40    5.52   388.2    7.5      30.929
2014    8        9    20  46    5.52   388.1    7.5      30.952
2014    8        9    20  51    5.53   388.1    7.5      30.975
2014    8        9    20  56    5.53   388.1    7.5      30.998
2014    8        9    21   2    5.54   388.0    7.5      31.021
2014    8        9    21   7    5.54   388.0    7.5      31.043
2014    8        9    21  13    5.55   387.9    7.5      31.066
2014    8        9    21  18    5.55   387.9    7.5      31.088
2014    8        9    21  24    5.56   387.9    7.6      31.110
2014    8        9    21  29    5.56   387.8    7.6      31.132
2014    8        9    21  35    5.57   387.8    7.6      31.154
2014    8        9    21  40    5.57   387.7    7.6      31.175
2014    8        9    21  46    5.58   387.7    7.6      31.196
2014    8        9    21  51    5.59   387.7    7.6      31.217
2014    8        9    21  57    5.59   387.6    7.6      31.238
2014    8        9    22   2    5.60   387.6    7.6      31.259
2014    8        9    22   7    5.60   387.5    7.6      31.279
2014    8        9    22  13    5.61   387.5    7.6      31.299
2014    8        9    22  18    5.61   387.5    7.6      31.320
2014    8        9    22  24    5.62   387.4    7.6      31.339
2014    8        9    22  29    5.62   387.4    7.6      31.359
2014    8        9    22  35    5.63   387.3    7.6      31.379
2014    8        9    22  40    5.64   387.3    7.7      31.398
2014    8        9    22  46    5.64   387.3    7.7      31.418
2014    8        9    22  51    5.65   387.2    7.7      31.437
2014    8        9    22  57    5.65   387.2    7.7      31.456
2014    8        9    23   2    5.66   387.1    7.7      31.476
2014    8        9    23   8    5.67   387.1    7.7      31.495
2014    8        9    23  13    5.67   387.1    7.7      31.514
2014    8        9    23  18    5.68   387.0    7.7      31.533
2014    8        9    23  24    5.68   387.0    7.7      31.553
2014    8        9    23  29    5.69   387.0    7.7      31.572
2014    8        9    23  35    5.70   386.9    7.7      31.592
2014    8        9    23  40    5.70   386.9    7.7      31.612
2014    8        9    23  46    5.71   386.8    7.8      31.632
2014    8        9    23  51    5.72   386.8    7.8      31.652
2014    8        9    23  57    5.72   386.8    7.8      31.672
2014    8       10     0   2    5.73   386.7    7.8      31.693
2014    8       10     0   8    5.74   386.7    7.8      31.714
2014    8       10     0  13    5.74   386.7    7.8      31.735
2014    8       10     0  19    5.75   386.6    7.8      31.757
2014    8       10     0  24    5.76   386.6    7.8      31.779
2014    8       10     0  29    5.76   386.6    7.8      31.802
2014    8       10     0  35    5.77   386.5    7.8      31.825
2014    8       10     0  40    5.78   386.5    7.8      31.848
2014    8       10     0  46    5.78   386.5    7.9      31.872
2014    8       10     0  51    5.79   386.4    7.9      31.897
2014    8       10     0  57    5.80   386.4    7.9      31.922
2014    8       10     1   2    5.81   386.4    7.9      31.947
2014    8       10     1   8    5.81   386.4    7.9      31.974
2014    8       10     1  13    5.82   386.4    7.9      32.003
2014    8       10     1  19    5.83   386.4    7.9      32.033
2014    8       10     1  24    5.83   386.3    7.9      32.065
2014    8       10     1  30    5.84   386.3    7.9      32.099
2014    8       10     1  35    5.85   386.3    7.9      32.133
2014    8       10     1  40    5.86   386.3    8.0      32.169
2014    8       10     1  46    5.86   386.3    8.0      32.206
2014    8       10     1  51    5.87   386.3    8.0      32.243
2014    8       10     1  57    5.88   386.3    8.0      32.280
2014    8       10     2   2    5.88   386.3    8.0      32.316
2014    8       10     2   8    5.89   386.3    8.0      32.353
2014    8       10     2  13    5.90   386.3    8.0      32.389
2014    8       10     2  19    5.90   386.3    8.0      32.424
2014    8       10     2  24    5.91   386.3    8.0      32.460
2014    8       10     2  30    5.92   386.3    8.0      32.495
2014    8       10     2  35    5.93   386.3    8.1      32.530
2014    8       10     2  41    5.93   386.3    8.1      32.565
2014    8       10     2  46    5.94   386.3    8.1      32.600
2014    8       10     2  51    5.95   386.3    8.1      32.634
2014    8       10     2  57    5.95   386.3    8.1      32.668
2014    8       10     3   2    5.96   386.3    8.1      32.702
2014    8       10     3   8    5.97   386.3    8.1      32.736
2014    8       10     3  13    5.97   386.3    8.1      32.769
2014    8       10     3  19    5.98   386.3    8.1      32.803
2014    8       10     3  24    5.99   386.3    8.1      32.837
2014    8       10     3  30    5.99   386.3    8.1      32.871
2014    8       10     3  35    6.00   386.3    8.2      32.905
2014    8       10     3  41    6.01   386.3    8.2      32.938
2014    8       10     3  46    6.01   386.3    8.2      32.972
2014    8       10     3  52    6.02   386.3    8.2      33.006
2014    8       10     3  57    6.03   386.3    8.2      33.041
2014    8       10     4   2    6.04   386.3    8.2      33.075
2014    8       10     4   8    6.04   386.4    8.2      33.111
2014    8       10     4  13    6.05   386.4    8.2      33.146
2014    8       10     4  19    6.06   386.4    8.2      33.182
2014    8       10     4  24    6.06   386.4    8.2      33.218
2014    8       10     4  30    6.07   386.4    8.2      33.255
2014    8       10     4  35    6.08   386.4    8.3      33.293
2014    8       10     4  41    6.09   386.4    8.3      33.331
2014    8       10     4  46    6.09   386.4    8.3      33.369
2014    8       10     4  52    6.10   386.4    8.3      33.408
2014    8       10     4  57    6.11   386.5    8.3      33.446
2014    8       10     5   3    6.11   386.5    8.3      33.485
2014    8       10     5   8    6.12   386.5    8.3      33.524
2014    8       10     5  13    6.13   386.5    8.3      33.563
2014    8       10     5  19    6.14   386.5    8.3      33.602
2014    8       10     5  24    6.14   386.5    8.3      33.641
2014    8       10     5  30    6.15   386.5    8.4      33.680
2014    8       10     5  35    6.16   386.6    8.4      33.719
2014    8       10     5  41    6.17   386.6    8.4      33.757
2014    8       10     5  46    6.17   386.6    8.4      33.796
2014    8       10     5  52    6.18   386.6    8.4      33.834
2014    8       10     5  57    6.19   386.6    8.4      33.873
2014    8       10     6   3    6.20   386.7    8.4      33.912
2014    8       10     6   8    6.21   386.7    8.4      33.950
2014    8       10     6  14    6.21   386.7    8.4      33.989
2014    8       10     6  19    6.22   386.7    8.4      34.027
2014    8       10     6  24    6.23   386.7    8.5      34.066
2014    8       10     6  30    6.24   386.8    8.5      34.104
2014    8       10     6  35    6.25   386.8    8.5      34.143
2014    8       10     6  41    6.26   386.8    8.5      34.182
2014    8       10     6  46    6.26   386.8    8.5      34.221
2014    8       10     6  52    6.27   386.8    8.5      34.260
2014    8       10     6  57    6.28   386.9    8.5      34.300
2014    8       10     7   3    6.29   386.9    8.5      34.340
2014    8       10     7   8    6.30   386.9    8.5      34.380
2014    8       10     7  14    6.31   387.0    8.6      34.423
2014    8       10     7  19    6.32   387.0    8.6      34.468
2014    8       10     7  25    6.33   387.1    8.6      34.515
2014    8       10     7  30    6.34   387.1    8.6      34.565
2014    8       10     7  35    6.35   387.2    8.6      34.616
2014    8       10     7  41    6.36   387.2    8.6      34.669
2014    8       10     7  46    6.37   387.3    8.6      34.724
2014    8       10     7  52    6.38   387.4    8.6      34.780
2014    8       10     7  57    6.38   387.4    8.7      34.836
2014    8       10     8   3    6.39   387.5    8.7      34.892
2014    8       10     8   8    6.40   387.5    8.7      34.948
2014    8       10     8  14    6.41   387.6    8.7      35.004
2014    8       10     8  19    6.42   387.7    8.7      35.059
2014    8       10     8  25    6.43   387.7    8.7      35.115
2014    8       10     8  30    6.44   387.8    8.7      35.171
2014    8       10     8  36    6.45   387.9    8.7      35.226
2014    8       10     8  41    6.46   387.9    8.7      35.281
2014    8       10     8  46    6.47   388.0    8.8      35.337
2014    8       10     8  52    6.48   388.1    8.8      35.392
2014    8       10     8  57    6.49   388.1    8.8      35.447
2014    8       10     9   3    6.49   388.2    8.8      35.502
2014    8       10     9   8    6.50   388.3    8.8      35.558
2014    8       10     9  14    6.51   388.3    8.8      35.615
2014    8       10     9  19    6.52   388.4    8.8      35.672
2014    8       10     9  25    6.53   388.5    8.8      35.731
2014    8       10     9  30    6.54   388.6    8.8      35.790
2014    8       10     9  36    6.55   388.7    8.8      35.849
2014    8       10     9  41    6.56   388.7    8.9      35.909
2014    8       10     9  47    6.56   388.8    8.9      35.970
2014    8       10     9  52    6.57   388.9    8.9      36.030
2014    8       10     9  57    6.58   389.0    8.9      36.091
2014    8       10    10   3    6.59   389.1    8.9      36.152
2014    8       10    10   8    6.60   389.1    8.9      36.212
2014    8       10    10  14    6.60   389.2    8.9      36.273
2014    8       10    10  19    6.61   389.3    8.9      36.333
2014    8       10    10  25    6.62   389.4    8.9      36.392
2014    8       10    10  30    6.63   389.5    8.9      36.452
2014    8       10    10  36    6.64   389.5    8.9      36.511
2014    8       10    10  41    6.64   389.6    8.9      36.570
2014    8       10    10  47    6.65   389.7    8.9      36.629
2014    8       10    10  52    6.66   389.8    9.0      36.688
2014    8       10    10  57    6.67   389.9    9.0      36.746
2014    8       10    11   3    6.68   390.0    9.0      36.804
2014    8       10    11   8    6.68   390.0    9.0      36.861
2014    8       10    11  14    6.69   390.1    9.0      36.918
2014    8       10    11  19    6.70   390.2    9.0      36.975
2014    8       10    11  25    6.71   390.3    9.0      37.032
2014    8       10    11  30    6.72   390.4    9.0      37.088
2014    8       10    11  36    6.72   390.4    9.0      37.144
2014    8       10    11  41    6.73   390.5    9.0      37.200
2014    8       10    11  47    6.74   390.6    9.0      37.256
2014    8       10    11  52    6.75   390.7    9.0      37.311
2014    8       10    11  58    6.76   390.8    9.0      37.367
2014    8       10    12   3    6.76   390.9    9.0      37.422
2014    8       10    12   8    6.77   390.9    9.0      37.478
2014    8       10    12  14    6.78   391.0    9.0      37.533
2014    8       10    12  19    6.79   391.1    9.1      37.589
2014    8       10    12  25    6.80   391.2    9.1      37.645
2014    8       10    12  30    6.80   391.3    9.1      37.701
2014    8       10    12  36    6.81   391.4    9.1      37.757
2014    8       10    12  41    6.82   391.5    9.1      37.813
2014    8       10    12  47    6.83   391.5    9.1      37.870
2014    8       10    12  52    6.84   391.6    9.1      37.927
2014    8       10    12  58    6.85   391.7    9.1      37.985
2014    8       10    13   3    6.85   391.8    9.1      38.042
2014    8       10    13   9    6.86   391.9    9.1      38.101
2014    8       10    13  14    6.87   392.0    9.1      38.159
2014    8       10    13  19    6.88   392.1    9.1      38.219
2014    8       10    13  25    6.89   392.2    9.1      38.278
2014    8       10    13  30    6.90   392.3    9.1      38.339
2014    8       10    13  36    6.91   392.4    9.2      38.400
2014    8       10    13  41    6.92   392.5    9.2      38.462
2014    8       10    13  47    6.93   392.6    9.2      38.524
2014    8       10    13  52    6.94   392.7    9.2      38.587
2014    8       10    13  58    6.95   392.8    9.2      38.651
2014    8       10    14   3    6.96   392.9    9.2      38.717
2014    8       10    14   9    6.97   393.0    9.2      38.784
2014    8       10    14  14    6.98   393.1    9.2      38.854
2014    8       10    14  20    6.99   393.2    9.3      38.925
2014    8       10    14  25    7.00   393.4    9.3      38.999
2014    8       10    14  30    7.01   393.5    9.3      39.076
2014    8       10    14  36    7.02   393.6    9.3      39.156
2014    8       10    14  41    7.03   393.8    9.3      39.242
2014    8       10    14  47    7.04   393.9    9.3      39.333
2014    8       10    14  52    7.05   394.1    9.4      39.429
2014    8       10    14  58    7.06   394.3    9.4      39.528
2014    8       10    15   3    7.07   394.4    9.4      39.632
2014    8       10    15   9    7.08   394.6    9.4      39.739
2014    8       10    15  14    7.09   394.8    9.4      39.848
2014    8       10    15  20    7.10   395.0    9.4      39.960
2014    8       10    15  25    7.11   395.1    9.5      40.071
2014    8       10    15  31    7.12   395.3    9.5      40.181
2014    8       10    15  36    7.13   395.5    9.5      40.291
2014    8       10    15  41    7.14   395.7    9.5      40.400
2014    8       10    15  47    7.15   395.9    9.5      40.508
2014    8       10    15  52    7.16   396.0    9.5      40.616
2014    8       10    15  58    7.17   396.2    9.5      40.723
2014    8       10    16   3    7.18   396.4    9.5      40.829
2014    8       10    16   9    7.19   396.6    9.5      40.934
2014    8       10    16  14    7.19   396.8    9.6      41.038
2014    8       10    16  20    7.20   397.0    9.6      41.140
2014    8       10    16  25    7.21   397.1    9.6      41.242
2014    8       10    16  31    7.22   397.3    9.6      41.342
2014    8       10    16  36    7.23   397.5    9.6      41.441
2014    8       10    16  42    7.23   397.7    9.6      41.538
2014    8       10    16  47    7.24   397.9    9.6      41.635
2014    8       10    16  52    7.25   398.1    9.6      41.730
2014    8       10    16  58    7.26   398.2    9.6      41.824
2014    8       10    17   3    7.27   398.4    9.6      41.917
2014    8       10    17   9    7.27   398.6    9.6      42.009
2014    8       10    17  14    7.28   398.8    9.6      42.099
2014    8       10    17  20    7.29   399.0    9.6      42.189
2014    8       10    17  25    7.29   399.2    9.6      42.277
2014    8       10    17  31    7.30   399.3    9.6      42.365
2014    8       10    17  36    7.31   399.5    9.6      42.451
2014    8       10    17  42    7.31   399.7    9.6      42.536
2014    8       10    17  47    7.32   399.9    9.6      42.620
2014    8       10    17  53    7.33   400.1    9.6      42.704
2014    8       10    17  58    7.33   400.3    9.6      42.786
2014    8       10    18   3    7.34   400.4    9.6      42.868
2014    8       10    18   9    7.35   400.6    9.6      42.949
2014    8       10    18  14    7.35   400.8    9.6      43.029
2014    8       10    18  20    7.36   401.0    9.6      43.108
2014    8       10    18  25    7.37   401.2    9.6      43.186
2014    8       10    18  31    7.37   401.4    9.6      43.264
2014    8       10    18  36    7.38   401.5    9.6      43.341
2014    8       10    18  42    7.39   401.7    9.6      43.418
2014    8       10    18  47    7.39   401.9    9.6      43.494
2014    8       10    18  53    7.40   402.1    9.6      43.569
2014    8       10    18  58    7.41   402.3    9.6      43.645
2014    8       10    19   4    7.41   402.5    9.6      43.719
2014    8       10    19   9    7.42   402.6    9.6      43.794
2014    8       10    19  14    7.43   402.8    9.6      43.868
2014    8       10    19  20    7.43   403.0    9.6      43.943
2014    8       10    19  25    7.44   403.2    9.6      44.017
2014    8       10    19  31    7.45   403.4    9.6      44.091
2014    8       10    19  36    7.45   403.6    9.6      44.165
2014    8       10    19  42    7.46   403.8    9.6      44.239
2014    8       10    19  47    7.47   403.9    9.6      44.313
2014    8       10    19  53    7.47   404.1    9.6      44.387
2014    8       10    19  58    7.48   404.3    9.6      44.462
2014    8       10    20   4    7.49   404.5    9.6      44.536
2014    8       10    20   9    7.49   404.7    9.6      44.611
2014    8       10    20  15    7.50   404.9    9.6      44.685
2014    8       10    20  20    7.51   405.1    9.6      44.760
2014    8       10    20  25    7.52   405.2    9.6      44.835
2014    8       10    20  31    7.52   405.4    9.5      44.910
2014    8       10    20  36    7.53   405.6    9.5      44.986
2014    8       10    20  42    7.54   405.8    9.5      45.062
2014    8       10    20  47    7.54   406.0    9.5      45.138
2014    8       10    20  53    7.55   406.2    9.5      45.214
2014    8       10    20  58    7.56   406.4    9.5      45.291
2014    8       10    21   4    7.56   406.6    9.5      45.368
2014    8       10    21   9    7.57   406.7    9.5      45.446
2014    8       10    21  15    7.58   406.9    9.6      45.524
2014    8       10    21  20    7.59   407.1    9.6      45.602
2014    8       10    21  26    7.59   407.3    9.6      45.682
2014    8       10    21  31    7.60   407.5    9.6      45.763
2014    8       10    21  36    7.61   407.6    9.6      45.845
2014    8       10    21  42    7.61   407.8    9.6      45.926
2014    8       10    21  47    7.62   408.0    9.6      46.009
2014    8       10    21  53    7.63   408.2    9.6      46.093
2014    8       10    21  58    7.64   408.4    9.6      46.180
2014    8       10    22   4    7.64   408.6    9.6      46.272
2014    8       10    22   9    7.65   408.7    9.6      46.368
2014    8       10    22  15    7.66   408.9    9.6      46.469
2014    8       10    22  20    7.67   409.1    9.6      46.574
2014    8       10    22  26    7.68   409.3    9.6      46.684
2014    8       10    22  31    7.68   409.5    9.7      46.800
2014    8       10    22  37    7.69   409.7    9.7      46.921
2014    8       10    22  42    7.70   410.0    9.7      47.045
2014    8       10    22  47    7.71   410.2    9.7      47.169
2014    8       10    22  53    7.71   410.3    9.7      47.294
2014    8       10    22  58    7.72   410.6    9.7      47.422
2014    8       10    23   4    7.73   410.8    9.7      47.557
2014    8       10    23   9    7.74   411.0    9.8      47.696
2014    8       10    23  15    7.74   411.2    9.8      47.841
2014    8       10    23  20    7.75   411.5    9.8      47.989
2014    8       10    23  26    7.76   411.7    9.8      48.140
2014    8       10    23  31    7.77   412.0    9.8      48.294
2014    8       10    23  37    7.77   412.3    9.8      48.451
2014    8       10    23  42    7.78   412.6    9.8      48.610
2014    8       10    23  48    7.79   412.9    9.8      48.766
2014    8       10    23  53    7.80   413.1    9.9      48.920
2014    8       10    23  58    7.80   413.4    9.9      49.070
2014    8       11     0   4    7.81   413.7    9.9      49.218
2014    8       11     0   9    7.81   414.0    9.9      49.363
2014    8       11     0  15    7.82   414.3    9.9      49.505
2014    8       11     0  20    7.83   414.6    9.9      49.645
2014    8       11     0  26    7.83   414.9    9.9      49.782
2014    8       11     0  31    7.84   415.2    9.9      49.916
2014    8       11     0  37    7.84   415.5    9.9      50.047
2014    8       11     0  42    7.85   415.8    9.9      50.174
2014    8       11     0  48    7.85   416.1    9.9      50.299
2014    8       11     0  53    7.86   416.4    9.9      50.422
2014    8       11     0  59    7.86   416.7    9.9      50.542
2014    8       11     1   4    7.87   417.1    9.9      50.660
2014    8       11     1   9    7.87   417.4    9.9      50.775
2014    8       11     1  15    7.88   417.7    9.9      50.889
2014    8       11     1  20    7.88   418.0    9.9      51.001
2014    8       11     1  26    7.88   418.3    9.9      51.111
2014    8       11     1  31    7.89   418.6    9.9      51.219
2014    8       11     1  37    7.89   419.0    9.9      51.325
2014    8       11     1  42    7.90   419.3    9.9      51.430
2014    8       11     1  48    7.90   419.6    9.9      51.533
2014    8       11     1  53    7.91   419.9    9.8      51.635
2014    8       11     1  59    7.91   420.3    9.8      51.736
2014    8       11     2   4    7.92   420.6    9.8      51.836
2014    8       11     2  10    7.92   420.9    9.8      51.935
2014    8       11     2  15    7.93   421.2    9.8      52.033
2014    8       11     2  20    7.93   421.6    9.8      52.129
2014    8       11     2  26    7.93   421.9    9.8      52.226
2014    8       11     2  31    7.94   422.2    9.8      52.321
2014    8       11     2  37    7.94   422.5    9.8      52.416
2014    8       11     2  42    7.95   422.9    9.8      52.510
2014    8       11     2  48    7.95   423.2    9.8      52.604
2014    8       11     2  53    7.96   423.5    9.8      52.697
2014    8       11     2  59    7.96   423.8    9.7      52.790
2014    8       11     3   4    7.97   424.2    9.7      52.883
2014    8       11     3  10    7.97   424.5    9.7      52.976
2014    8       11     3  15    7.98   424.8    9.7      53.069
2014    8       11     3  20    7.98   425.2    9.7      53.163
2014    8       11     3  26    7.99   425.5    9.7      53.257
2014    8       11     3  31    7.99   425.8    9.7      53.351
2014    8       11     3  37    8.00   426.2    9.7      53.446
2014    8       11     3  42    8.00   426.5    9.7      53.542
2014    8       11     3  48    8.01   426.9    9.7      53.639
2014    8       11     3  53    8.01   427.2    9.6      53.736
2014    8       11     3  59    8.01   427.6    9.6      53.833
2014    8       11     4   4    8.02   427.9    9.6      53.931
2014    8       11     4  10    8.02   428.2    9.6      54.029
2014    8       11     4  15    8.03   428.6    9.6      54.127
2014    8       11     4  21    8.03   428.9    9.6      54.225
2014    8       11     4  26    8.03   429.3    9.6      54.323
2014    8       11     4  32    8.04   429.6    9.6      54.420
2014    8       11     4  37    8.04   429.9    9.6      54.517
2014    8       11     4  42    8.04   430.2    9.5      54.615
2014    8       11     4  48    8.05   430.6    9.5      54.712
2014    8       11     4  53    8.05   430.9    9.5      54.810
2014    8       11     4  59    8.06   431.2    9.5      54.908
2014    8       11     5   4    8.06   431.6    9.5      55.007
2014    8       11     5  10    8.06   431.9    9.5      55.106
2014    8       11     5  15    8.07   432.2    9.5      55.205
2014    8       11     5  21    8.07   432.5    9.5      55.306
2014    8       11     5  26    8.07   432.9    9.5      55.406
2014    8       11     5  32    8.07   433.2    9.5      55.507
2014    8       11     5  37    8.08   433.5    9.5      55.609
2014    8       11     5  42    8.08   433.8    9.5      55.711
2014    8       11     5  48    8.08   434.1    9.4      55.815
2014    8       11     5  53    8.09   434.4    9.4      55.920
2014    8       11     5  59    8.09   434.8    9.4      56.027
2014    8       11     6   4    8.09   435.1    9.4      56.134
2014    8       11     6  10    8.10   435.4    9.4      56.240
2014    8       11     6  15    8.10   435.7    9.4      56.348
2014    8       11     6  21    8.11   436.0    9.4      56.461
2014    8       11     6  26    8.11   436.3    9.4      56.580
2014    8       11     6  32    8.11   436.6    9.4      56.702
2014    8       11     6  37    8.12   436.9    9.4      56.829
2014    8       11     6  43    8.12   437.3    9.4      56.959
2014    8       11     6  48    8.12   437.6    9.4      57.092
2014    8       11     6  53    8.13   438.0    9.4      57.230
2014    8       11     6  59    8.13   438.3    9.4      57.373
2014    8       11     7   4    8.13   438.7    9.4      57.513
2014    8       11     7  10    8.14   439.1    9.4      57.653
2014    8       11     7  15    8.14   439.4    9.4      57.791
2014    8       11     7  21    8.14   439.8    9.4      57.928
2014    8       11     7  26    8.14   440.2    9.4      58.063
2014    8       11     7  32    8.15   440.6    9.4      58.198
2014    8       11     7  37    8.15   441.0    9.4      58.331
2014    8       11     7  43    8.15   441.3    9.4      58.463
2014    8       11     7  48    8.15   441.7    9.4      58.594
2014    8       11     7  54    8.15   442.1    9.4      58.722
2014    8       11     7  59    8.15   442.5    9.4      58.848
2014    8       11     8   4    8.15   442.9    9.4      58.973
2014    8       11     8  10    8.16   443.3    9.4      59.096
2014    8       11     8  15    8.16   443.8    9.4      59.217
2014    8       11     8  21    8.16   444.2    9.4      59.337
2014    8       11     8  26    8.16   444.6    9.4      59.455
2014    8       11     8  32    8.16   445.0    9.4      59.572
2014    8       11     8  37    8.16   445.4    9.4      59.687
2014    8       11     8  43    8.16   445.8    9.3      59.801
2014    8       11     8  48    8.16   446.3    9.3      59.913
2014    8       11     8  54    8.16   446.7    9.3      60.023
2014    8       11     8  59    8.16   447.1    9.3      60.133
2014    8       11     9   5    8.16   447.5    9.3      60.240
2014    8       11     9  10    8.16   448.0    9.3      60.347
2014    8       11     9  15    8.15   448.4    9.3      60.452
2014    8       11     9  21    8.15   448.8    9.3      60.557
2014    8       11     9  26    8.15   449.3    9.2      60.660
2014    8       11     9  32    8.15   449.7    9.2      60.761
2014    8       11     9  37    8.15   450.1    9.2      60.862
2014    8       11     9  43    8.15   450.6    9.2      60.962
2014    8       11     9  48    8.15   451.0    9.2      61.060
2014    8       11     9  54    8.15   451.5    9.2      61.158
2014    8       11     9  59    8.15   451.9    9.2      61.255
2014    8       11    10   5    8.15   452.3    9.2      61.351
2014    8       11    10  10    8.15   452.8    9.1      61.446
2014    8       11    10  16    8.15   453.2    9.1      61.540
2014    8       11    10  21    8.15   453.6    9.1      61.632
2014    8       11    10  26    8.15   454.1    9.1      61.725
2014    8       11    10  32    8.15   454.5    9.1      61.816
2014    8       11    10  37    8.15   454.9    9.1      61.907
2014    8       11    10  43    8.15   455.4    9.1      61.998
2014    8       11    10  48    8.15   455.8    9.0      62.088
2014    8       11    10  54    8.15   456.3    9.0      62.179
2014    8       11    10  59    8.15   456.7    9.0      62.270
2014    8       11    11   5    8.15   457.2    9.0      62.362
2014    8       11    11  10    8.15   457.6    9.0      62.453
2014    8       11    11  16    8.15   458.1    9.0      62.545
2014    8       11    11  21    8.15   458.5    9.0      62.637
2014    8       11    11  27    8.14   459.0    8.9      62.729
2014    8       11    11  32    8.14   459.5    8.9      62.820
2014    8       11    11  37    8.14   459.9    8.9      62.912
2014    8       11    11  43    8.14   460.4    8.9      63.002
2014    8       11    11  48    8.14   460.8    8.9      63.092
2014    8       11    11  54    8.14   461.3    8.9      63.181
2014    8       11    11  59    8.14   461.7    8.8      63.270
2014    8       11    12   5    8.13   462.2    8.8      63.358
2014    8       11    12  10    8.13   462.7    8.8      63.446
2014    8       11    12  16    8.13   463.2    8.8      63.535
2014    8       11    12  21    8.13   463.7    8.8      63.625
2014    8       11    12  27    8.13   464.1    8.8      63.716
2014    8       11    12  32    8.12   464.6    8.7      63.807
2014    8       11    12  38    8.12   465.1    8.7      63.899
2014    8       11    12  43    8.12   465.7    8.7      63.992
2014    8       11    12  48    8.12   466.2    8.7      64.085
2014    8       11    12  54    8.11   466.7    8.7      64.176
2014    8       11    12  59    8.11   467.2    8.6      64.265
2014    8       11    13   5    8.11   467.7    8.6      64.352
2014    8       11    13  10    8.10   468.2    8.6      64.436
2014    8       11    13  16    8.10   468.7    8.6      64.518
2014    8       11    13  21    8.09   469.3    8.6      64.599
2014    8       11    13  27    8.09   469.8    8.5      64.672
2014    8       11    13  32    8.08   470.3    8.5      64.739
2014    8       11    13  38    8.08   470.8    8.5      64.801
2014    8       11    13  43    8.07   471.3    8.4      64.859
2014    8       11    13  49    8.06   471.8    8.4      64.914
2014    8       11    13  54    8.06   472.3    8.4      64.967
2014    8       11    13  59    8.05   472.7    8.4      65.017
2014    8       11    14   5    8.04   473.2    8.3      65.063
2014    8       11    14  10    8.03   473.6    8.3      65.109
2014    8       11    14  16    8.02   474.1    8.3      65.157
2014    8       11    14  21    8.02   474.6    8.3      65.207
2014    8       11    14  27    8.01   475.0    8.2      65.257
2014    8       11    14  32    8.00   475.5    8.2      65.307
2014    8       11    14  38    7.99   476.0    8.2      65.357
2014    8       11    14  43    7.98   476.4    8.2      65.407
2014    8       11    14  49    7.97   476.9    8.1      65.456
2014    8       11    14  54    7.96   477.3    8.1      65.504
2014    8       11    15   0    7.95   477.8    8.1      65.551
2014    8       11    15   5    7.94   478.3    8.1      65.598
2014    8       11    15  10    7.93   478.7    8.0      65.643
2014    8       11    15  16    7.93   479.2    8.0      65.686
2014    8       11    15  21    7.92   479.6    8.0      65.729
2014    8       11    15  27    7.91   480.0    8.0      65.770
2014    8       11    15  32    7.89   480.5    7.9      65.810
2014    8       11    15  38    7.88   480.9    7.9      65.848
2014    8       11    15  43    7.87   481.3    7.9      65.884
2014    8       11    15  49    7.86   481.8    7.9      65.920
2014    8       11    15  54    7.85   482.2    7.8      65.956
2014    8       11    16   0    7.84   482.6    7.8      65.990
2014    8       11    16   5    7.83   483.0    7.8      66.024
2014    8       11    16  10    7.82   483.5    7.8      66.056
2014    8       11    16  16    7.81   483.9    7.7      66.088
2014    8       11    16  21    7.80   484.3    7.7      66.119
2014    8       11    16  27    7.79   484.7    7.7      66.149
2014    8       11    16  32    7.78   485.1    7.7      66.178
2014    8       11    16  38    7.77   485.6    7.6      66.206
2014    8       11    16  43    7.76   486.0    7.6      66.234
2014    8       11    16  49    7.75   486.4    7.6      66.260
2014    8       11    16  54    7.74   486.8    7.6      66.287
2014    8       11    17   0    7.73   487.2    7.6      66.312
2014    8       11    17   5    7.72   487.6    7.5      66.336
2014    8       11    17  11    7.71   488.0    7.5      66.360
2014    8       11    17  16    7.70   488.4    7.5      66.383
2014    8       11    17  21    7.69   488.8    7.5      66.405
2014    8       11    17  27    7.68   489.2    7.4      66.427
2014    8       11    17  32    7.67   489.6    7.4      66.447
2014    8       11    17  38    7.66   490.0    7.4      66.466
2014    8       11    17  43    7.65   490.4    7.4      66.485
2014    8       11    17  49    7.64   490.8    7.4      66.502
2014    8       11    17  54    7.63   491.2    7.3      66.518
2014    8       11    18   0    7.62   491.6    7.3      66.533
2014    8       11    18   5    7.61   492.0    7.3      66.547
2014    8       11    18  11    7.60   492.4    7.3      66.560
2014    8       11    18  16    7.59   492.7    7.3      66.571
2014    8       11    18  22    7.58   493.1    7.2      66.581
2014    8       11    18  27    7.57   493.5    7.2      66.589
2014    8       11    18  32    7.56   493.9    7.2      66.596
2014    8       11    18  38    7.55   494.3    7.2      66.601
2014    8       11    18  43    7.54   494.7    7.2      66.606
2014    8       11    18  49    7.53   495.0    7.1      66.609
2014    8       11    18  54    7.52   495.4    7.1      66.610
2014    8       11    19   0    7.51   495.8    7.1      66.609
2014    8       11    19   5    7.50   496.2    7.1      66.608
2014    8       11    19  11    7.49   496.5    7.1      66.605
2014    8       11    19  16    7.48   496.9    7.1      66.602
2014    8       11    19  22    7.47   497.3    7.0      66.598
2014    8       11    19  27    7.46   497.7    7.0      66.593
2014    8       11    19  33    7.45   498.1    7.0      66.590
2014    8       11    19  38    7.44   498.5    7.0      66.587
2014    8       11    19  43    7.43   498.9    7.0      66.586
2014    8       11    19  49    7.42   499.3    6.9      66.585
2014    8       11    19  54    7.41   499.7    6.9      66.585
2014    8       11    20   0    7.40   500.2    6.9      66.586
2014    8       11    20   5    7.38   500.6    6.9      66.587
2014    8       11    20  11    7.37   501.0    6.9      66.587
2014    8       11    20  16    7.36   501.4    6.8      66.585
2014    8       11    20  22    7.35   501.8    6.8      66.581
2014    8       11    20  27    7.34   502.3    6.8      66.574
2014    8       11    20  33    7.33   502.7    6.8      66.567
2014    8       11    20  38    7.31   503.1    6.8      66.557
2014    8       11    20  44    7.30   503.6    6.7      66.539
2014    8       11    20  49    7.29   504.0    6.7      66.515
2014    8       11    20  54    7.28   504.4    6.7      66.486
2014    8       11    21   0    7.26   504.8    6.7      66.452
2014    8       11    21   5    7.25   505.1    6.6      66.416
2014    8       11    21  11    7.23   505.5    6.6      66.377
2014    8       11    21  16    7.22   505.9    6.6      66.335
2014    8       11    21  22    7.21   506.2    6.6      66.289
2014    8       11    21  27    7.19   506.6    6.5      66.244
2014    8       11    21  33    7.18   506.9    6.5      66.200
2014    8       11    21  38    7.16   507.3    6.5      66.157
2014    8       11    21  44    7.15   507.6    6.5      66.114
2014    8       11    21  49    7.14   508.0    6.5      66.070
2014    8       11    21  55    7.12   508.3    6.4      66.024
2014    8       11    22   0    7.11   508.7    6.4      65.977
2014    8       11    22   5    7.09   509.1    6.4      65.926
2014    8       11    22  11    7.08   509.4    6.4      65.874
2014    8       11    22  16    7.06   509.8    6.3      65.820
2014    8       11    22  22    7.05   510.2    6.3      65.763
2014    8       11    22  27    7.04   510.5    6.3      65.705
2014    8       11    22  33    7.02   510.9    6.3      65.646
2014    8       11    22  38    7.01   511.2    6.3      65.586
2014    8       11    22  44    6.99   511.5    6.2      65.525
2014    8       11    22  49    6.98   511.9    6.2      65.461
2014    8       11    22  55    6.96   512.2    6.2      65.395
2014    8       11    23   0    6.95   512.5    6.2      65.328
2014    8       11    23   6    6.93   512.8    6.1      65.260
2014    8       11    23  11    6.92   513.1    6.1      65.191
2014    8       11    23  16    6.91   513.4    6.1      65.121
2014    8       11    23  22    6.89   513.7    6.1      65.051
2014    8       11    23  27    6.88   514.0    6.1      64.980
2014    8       11    23  33    6.86   514.3    6.0      64.909
2014    8       11    23  38    6.85   514.6    6.0      64.839
2014    8       11    23  44    6.84   514.9    6.0      64.769
2014    8       11    23  49    6.82   515.2    6.0      64.700
2014    8       11    23  55    6.81   515.4    6.0      64.631
2014    8       12     0   0    6.80   515.7    6.0      64.562
2014    8       12     0   6    6.78   516.0    5.9      64.493
2014    8       12     0  11    6.77   516.2    5.9      64.424
2014    8       12     0  17    6.76   516.5    5.9      64.356
2014    8       12     0  22    6.74   516.7    5.9      64.288
2014    8       12     0  27    6.73   517.0    5.9      64.221
2014    8       12     0  33    6.72   517.2    5.8      64.153
2014    8       12     0  38    6.70   517.5    5.8      64.085
2014    8       12     0  44    6.69   517.7    5.8      64.017
2014    8       12     0  49    6.68   518.0    5.8      63.949
2014    8       12     0  55    6.67   518.2    5.8      63.880
2014    8       12     1   0    6.65   518.4    5.8      63.812
2014    8       12     1   6    6.64   518.6    5.7      63.743
2014    8       12     1  11    6.63   518.8    5.7      63.674
2014    8       12     1  17    6.62   519.0    5.7      63.604
2014    8       12     1  22    6.60   519.2    5.7      63.535
2014    8       12     1  28    6.59   519.4    5.7      63.465
2014    8       12     1  33    6.58   519.6    5.7      63.394
2014    8       12     1  38    6.57   519.8    5.6      63.324
2014    8       12     1  44    6.56   520.0    5.6      63.253
2014    8       12     1  49    6.54   520.2    5.6      63.181
2014    8       12     1  55    6.53   520.4    5.6      63.110
2014    8       12     2   0    6.52   520.6    5.6      63.038
2014    8       12     2   6    6.51   520.7    5.6      62.966
2014    8       12     2  11    6.50   520.9    5.6      62.894
2014    8       12     2  17    6.48   521.1    5.5      62.821
2014    8       12     2  22    6.47   521.3    5.5      62.748
2014    8       12     2  28    6.46   521.5    5.5      62.675
2014    8       12     2  33    6.45   521.6    5.5      62.601
2014    8       12     2  39    6.44   521.8    5.5      62.526
2014    8       12     2  44    6.43   522.0    5.5      62.452
2014    8       12     2  49    6.42   522.1    5.5      62.377
2014    8       12     2  55    6.40   522.3    5.5      62.302
2014    8       12     3   0    6.39   522.4    5.4      62.227
2014    8       12     3   6    6.38   522.6    5.4      62.153
2014    8       12     3  11    6.37   522.7    5.4      62.078
2014    8       12     3  17    6.36   522.9    5.4      62.004
2014    8       12     3  22    6.35   523.0    5.4      61.930
2014    8       12     3  28    6.34   523.1    5.4      61.856
2014    8       12     3  33    6.33   523.2    5.4      61.784
2014    8       12     3  39    6.32   523.3    5.4      61.712
2014    8       12     3  44    6.31   523.4    5.4      61.640
2014    8       12     3  49    6.29   523.5    5.3      61.570
2014    8       12     3  55    6.28   523.6    5.3      61.500
2014    8       12     4   0    6.27   523.7    5.3      61.431
2014    8       12     4   6    6.26   523.8    5.3      61.365
2014    8       12     4  11    6.25   523.9    5.3      61.300
2014    8       12     4  17    6.24   523.9    5.3      61.237
2014    8       12     4  22    6.23   524.0    5.3      61.174
2014    8       12     4  28    6.22   524.0    5.3      61.113
2014    8       12     4  33    6.21   524.1    5.3      61.054
2014    8       12     4  39    6.20   524.2    5.3      60.998
2014    8       12     4  44    6.20   524.2    5.3      60.942
2014    8       12     4  50    6.19   524.3    5.2      60.886
2014    8       12     4  55    6.18   524.4    5.2      60.832
2014    8       12     5   0    6.17   524.5    5.2      60.777
2014    8       12     5   6    6.16   524.6    5.2      60.722
2014    8       12     5  11    6.15   524.6    5.2      60.667
2014    8       12     5  17    6.14   524.7    5.2      60.611
2014    8       12     5  22    6.13   524.9    5.2      60.555
2014    8       12     5  28    6.12   525.0    5.2      60.497
2014    8       12     5  33    6.11   525.1    5.2      60.439
2014    8       12     5  39    6.10   525.2    5.2      60.380
2014    8       12     5  44    6.09   525.3    5.2      60.322
2014    8       12     5  50    6.09   525.4    5.2      60.264
2014    8       12     5  55    6.08   525.5    5.2      60.207
2014    8       12     6   1    6.07   525.6    5.2      60.149
2014    8       12     6   6    6.06   525.7    5.1      60.092
2014    8       12     6  11    6.05   525.8    5.1      60.033
2014    8       12     6  17    6.04   525.9    5.1      59.974
2014    8       12     6  22    6.03   526.0    5.1      59.915
2014    8       12     6  28    6.02   526.1    5.1      59.855
2014    8       12     6  33    6.02   526.2    5.1      59.795
2014    8       12     6  39    6.01   526.3    5.1      59.734
2014    8       12     6  44    6.00   526.4    5.1      59.675
2014    8       12     6  50    5.99   526.5    5.1      59.616
2014    8       12     6  55    5.98   526.6    5.1      59.557
2014    8       12     7   1    5.97   526.7    5.1      59.500
2014    8       12     7   6    5.96   526.8    5.1      59.443
2014    8       12     7  12    5.96   526.9    5.1      59.386
2014    8       12     7  17    5.95   527.0    5.0      59.330
2014    8       12     7  22    5.94   527.1    5.0      59.273
2014    8       12     7  28    5.93   527.2    5.0      59.218
2014    8       12     7  33    5.92   527.3    5.0      59.162
2014    8       12     7  39    5.91   527.4    5.0      59.107
2014    8       12     7  44    5.91   527.5    5.0      59.051
2014    8       12     7  50    5.90   527.6    5.0      58.996
2014    8       12     7  55    5.89   527.7    5.0      58.940
2014    8       12     8   1    5.88   527.8    5.0      58.885
2014    8       12     8   6    5.88   527.8    5.0      58.829
2014    8       12     8  12    5.87   527.9    5.0      58.773
2014    8       12     8  17    5.86   528.0    5.0      58.717
2014    8       12     8  23    5.85   528.1    5.0      58.662
2014    8       12     8  28    5.84   528.1    4.9      58.606
2014    8       12     8  33    5.84   528.2    4.9      58.551
2014    8       12     8  39    5.83   528.2    4.9      58.496
2014    8       12     8  44    5.82   528.3    4.9      58.441
2014    8       12     8  50    5.82   528.3    4.9      58.386
2014    8       12     8  55    5.81   528.4    4.9      58.332
2014    8       12     9   1    5.80   528.5    4.9      58.278
2014    8       12     9   6    5.79   528.5    4.9      58.224
2014    8       12     9  12    5.79   528.6    4.9      58.171
2014    8       12     9  17    5.78   528.6    4.9      58.118
2014    8       12     9  23    5.77   528.7    4.9      58.065
2014    8       12     9  28    5.77   528.7    4.9      58.013
2014    8       12     9  34    5.76   528.8    4.9      57.960
2014    8       12     9  39    5.75   528.9    4.8      57.907
2014    8       12     9  44    5.75   528.9    4.8      57.854
2014    8       12     9  50    5.74   529.0    4.8      57.801
2014    8       12     9  55    5.73   529.0    4.8      57.747
2014    8       12    10   1    5.73   529.1    4.8      57.693
2014    8       12    10   6    5.72   529.1    4.8      57.639
2014    8       12    10  12    5.71   529.2    4.8      57.585
2014    8       12    10  17    5.71   529.2    4.8      57.532
2014    8       12    10  23    5.70   529.3    4.8      57.477
2014    8       12    10  28    5.69   529.3    4.8      57.423
2014    8       12    10  34    5.69   529.4    4.8      57.369
2014    8       12    10  39    5.68   529.4    4.8      57.315
2014    8       12    10  45    5.68   529.5    4.8      57.261
2014    8       12    10  50    5.67   529.5    4.8      57.207
2014    8       12    10  55    5.66   529.5    4.8      57.153
2014    8       12    11   1    5.66   529.6    4.8      57.099
2014    8       12    11   6    5.65   529.6    4.7      57.045
2014    8       12    11  12    5.65   529.6    4.7      56.992
2014    8       12    11  17    5.64   529.6    4.7      56.940
2014    8       12    11  23    5.64   529.7    4.7      56.888
2014    8       12    11  28    5.63   529.7    4.7      56.837
2014    8       12    11  34    5.62   529.7    4.7      56.787
2014    8       12    11  39    5.62   529.7    4.7      56.737
2014    8       12    11  45    5.61   529.7    4.7      56.689
2014    8       12    11  50    5.61   529.7    4.7      56.642
2014    8       12    11  56    5.60   529.8    4.7      56.596
2014    8       12    12   1    5.60   529.8    4.7      56.552
2014    8       12    12   6    5.59   529.8    4.7      56.509
2014    8       12    12  12    5.59   529.8    4.7      56.466
2014    8       12    12  17    5.58   529.8    4.7      56.424
2014    8       12    12  23    5.58   529.9    4.7      56.383
2014    8       12    12  28    5.57   529.9    4.7      56.343
2014    8       12    12  34    5.57   529.9    4.7      56.303
2014    8       12    12  39    5.56   529.9    4.7      56.263
2014    8       12    12  45    5.55   530.0    4.7      56.222
2014    8       12    12  50    5.55   530.0    4.7      56.181
2014    8       12    12  56    5.54   530.0    4.7      56.141
2014    8       12    13   1    5.54   530.0    4.7      56.099
2014    8       12    13   7    5.53   530.0    4.7      56.058
2014    8       12    13  12    5.53   530.1    4.7      56.017
2014    8       12    13  17    5.52   530.1    4.7      55.976
2014    8       12    13  23    5.52   530.1    4.6      55.934
2014    8       12    13  28    5.51   530.1    4.6      55.892
2014    8       12    13  34    5.51   530.1    4.6      55.850
2014    8       12    13  39    5.50   530.2    4.6      55.808
2014    8       12    13  45    5.50   530.2    4.6      55.766
2014    8       12    13  50    5.49   530.2    4.6      55.724
2014    8       12    13  56    5.49   530.2    4.6      55.682
2014    8       12    14   1    5.48   530.2    4.6      55.640
2014    8       12    14   7    5.48   530.2    4.6      55.597
2014    8       12    14  12    5.47   530.2    4.6      55.555
2014    8       12    14  17    5.47   530.2    4.6      55.512
2014    8       12    14  23    5.46   530.3    4.6      55.470
2014    8       12    14  28    5.46   530.3    4.6      55.427
2014    8       12    14  34    5.45   530.3    4.6      55.384
2014    8       12    14  39    5.45   530.3    4.6      55.341
2014    8       12    14  45    5.44   530.3    4.6      55.299
2014    8       12    14  50    5.44   530.3    4.6      55.256
2014    8       12    14  56    5.43   530.3    4.6      55.213
2014    8       12    15   1    5.43   530.3    4.6      55.170
2014    8       12    15   7    5.42   530.3    4.6      55.127
2014    8       12    15  12    5.42   530.3    4.6      55.083
2014    8       12    15  18    5.42   530.3    4.6      55.040
2014    8       12    15  23    5.41   530.3    4.6      54.997
2014    8       12    15  28    5.41   530.3    4.6      54.954
2014    8       12    15  34    5.40   530.3    4.5      54.910
2014    8       12    15  39    5.40   530.3    4.5      54.867
2014    8       12    15  45    5.39   530.3    4.5      54.824
2014    8       12    15  50    5.39   530.3    4.5      54.780
2014    8       12    15  56    5.38   530.3    4.5      54.737
2014    8       12    16   1    5.38   530.3    4.5      54.694
2014    8       12    16   7    5.37   530.3    4.5      54.651
2014    8       12    16  12    5.37   530.3    4.5      54.609
2014    8       12    16  18    5.37   530.3    4.5      54.566
2014    8       12    16  23    5.36   530.2    4.5      54.524
2014    8       12    16  29    5.36   530.2    4.5      54.482
2014    8       12    16  34    5.35   530.2    4.5      54.440
2014    8       12    16  39    5.35   530.2    4.5      54.399
2014    8       12    16  45    5.34   530.2    4.5      54.358
2014    8       12    16  50    5.34   530.2    4.5      54.317
2014    8       12    16  56    5.34   530.1    4.5      54.276
2014    8       12    17   1    5.33   530.1    4.5      54.236
2014    8       12    17   7    5.33   530.1    4.5      54.196
2014    8       12    17  12    5.32   530.1    4.5      54.157
2014    8       12    17  18    5.32   530.1    4.5      54.118
2014    8       12    17  23    5.31   530.0    4.5      54.079
2014    8       12    17  29    5.31   530.0    4.5      54.041
2014    8       12    17  34    5.31   530.0    4.5      54.003
2014    8       12    17  40    5.30   530.0    4.5      53.966
2014    8       12    17  45    5.30   529.9    4.5      53.929
2014    8       12    17  50    5.30   529.9    4.5      53.892
2014    8       12    17  56    5.29   529.9    4.5      53.855
2014    8       12    18   1    5.29   529.9    4.4      53.819
2014    8       12    18   7    5.28   529.8    4.4      53.783
2014    8       12    18  12    5.28   529.8    4.4      53.748
2014    8       12    18  18    5.28   529.8    4.4      53.713
2014    8       12    18  23    5.27   529.8    4.4      53.678
2014    8       12    18  29    5.27   529.7    4.4      53.643
2014    8       12    18  34    5.26   529.7    4.4      53.609
2014    8       12    18  40    5.26   529.7    4.4      53.575
2014    8       12    18  45    5.26   529.7    4.4      53.541
2014    8       12    18  51    5.25   529.6    4.4      53.507
2014    8       12    18  56    5.25   529.6    4.4      53.473
2014    8       12    19   1    5.25   529.6    4.4      53.440
2014    8       12    19   7    5.24   529.5    4.4      53.407
2014    8       12    19  12    5.24   529.5    4.4      53.374
2014    8       12    19  18    5.24   529.5    4.4      53.341
2014    8       12    19  23    5.23   529.5    4.4      53.308
2014    8       12    19  29    5.23   529.4    4.4      53.275
2014    8       12    19  34    5.23   529.4    4.4      53.242
2014    8       12    19  40    5.22   529.4    4.4      53.209
2014    8       12    19  45    5.22   529.3    4.4      53.177
2014    8       12    19  51    5.22   529.3    4.4      53.144
2014    8       12    19  56    5.21   529.3    4.4      53.112
2014    8       12    20   2    5.21   529.2    4.4      53.080
2014    8       12    20   7    5.21   529.2    4.4      53.047
2014    8       12    20  12    5.20   529.2    4.4      53.015
2014    8       12    20  18    5.20   529.1    4.4      52.982
2014    8       12    20  23    5.20   529.1    4.4      52.950
2014    8       12    20  29    5.19   529.1    4.4      52.918
2014    8       12    20  34    5.19   529.0    4.4      52.886
2014    8       12    20  40    5.19   529.0    4.4      52.854
2014    8       12    20  45    5.18   529.0    4.4      52.822
2014    8       12    20  51    5.18   528.9    4.4      52.790
2014    8       12    20  56    5.18   528.9    4.4      52.758
2014    8       12    21   2    5.17   528.8    4.4      52.726
2014    8       12    21   7    5.17   528.8    4.4      52.695
2014    8       12    21  13    5.17   528.8    4.4      52.663
2014    8       12    21  18    5.16   528.7    4.4      52.632
2014    8       12    21  23    5.16   528.7    4.4      52.601
2014    8       12    21  29    5.16   528.6    4.4      52.570
2014    8       12    21  34    5.15   528.6    4.4      52.540
2014    8       12    21  40    5.15   528.6    4.4      52.509
2014    8       12    21  45    5.15   528.5    4.4      52.479
2014    8       12    21  51    5.14   528.5    4.4      52.450
2014    8       12    21  56    5.14   528.4    4.4      52.420
2014    8       12    22   2    5.14   528.4    4.4      52.391
2014    8       12    22   7    5.14   528.4    4.4      52.362
2014    8       12    22  13    5.13   528.3    4.4      52.333
2014    8       12    22  18    5.13   528.3    4.4      52.304
2014    8       12    22  23    5.13   528.2    4.4      52.276
2014    8       12    22  29    5.12   528.2    4.4      52.248
2014    8       12    22  34    5.12   528.2    4.3      52.220
2014    8       12    22  40    5.12   528.1    4.3      52.192
2014    8       12    22  45    5.11   528.1    4.3      52.164
2014    8       12    22  51    5.11   528.0    4.3      52.136
2014    8       12    22  56    5.11   528.0    4.3      52.108
2014    8       12    23   2    5.11   528.0    4.3      52.080
2014    8       12    23   7    5.10   527.9    4.3      52.053
2014    8       12    23  13    5.10   527.9    4.3      52.025
2014    8       12    23  18    5.10   527.8    4.3      51.998
2014    8       12    23  24    5.09   527.8    4.3      51.970
2014    8       12    23  29    5.09   527.7    4.3      51.943
2014    8       12    23  34    5.09   527.7    4.3      51.915
2014    8       12    23  40    5.08   527.6    4.3      51.887
2014    8       12    23  45    5.08   527.6    4.3      51.860
2014    8       12    23  51    5.08   527.5    4.3      51.832
2014    8       12    23  56    5.07   527.5    4.3      51.804
2014    8       13     0   2    5.07   527.4    4.3      51.777
2014    8       13     0   7    5.07   527.4    4.3      51.749
2014    8       13     0  13    5.07   527.3    4.3      51.721
2014    8       13     0  18    5.06   527.3    4.3      51.694
2014    8       13     0  24    5.06   527.2    4.3      51.666
2014    8       13     0  29    5.06   527.2    4.3      51.638
2014    8       13     0  35    5.05   527.1    4.3      51.611
2014    8       13     0  40    5.05   527.0    4.3      51.583
2014    8       13     0  45    5.05   527.0    4.3      51.556
2014    8       13     0  51    5.05   526.9    4.3      51.529
2014    8       13     0  56    5.04   526.9    4.3      51.501
2014    8       13     1   2    5.04   526.8    4.3      51.474
2014    8       13     1   7    5.04   526.8    4.3      51.447
2014    8       13     1  13    5.03   526.7    4.3      51.419
2014    8       13     1  18    5.03   526.6    4.3      51.392
2014    8       13     1  24    5.03   526.6    4.3      51.365
2014    8       13     1  29    5.03   526.5    4.3      51.338
2014    8       13     1  35    5.02   526.5    4.3      51.311
2014    8       13     1  40    5.02   526.4    4.3      51.284
2014    8       13     1  46    5.02   526.3    4.3      51.257
2014    8       13     1  51    5.01   526.3    4.3      51.230
2014    8       13     1  56    5.01   526.2    4.3      51.202
2014    8       13     2   2    5.01   526.1    4.3      51.175
2014    8       13     2   7    5.01   526.1    4.3      51.148
2014    8       13     2  13    5.00   526.0    4.3      51.120
2014    8       13     2  18    5.00   525.9    4.3      51.092
2014    8       13     2  24    5.00   525.9    4.3      51.065
2014    8       13     2  29    5.00   525.8    4.3      51.037
2014    8       13     2  35    4.99   525.8    4.3      51.009
2014    8       13     2  40    4.99   525.7    4.3      50.980
2014    8       13     2  46    4.99   525.6    4.3      50.952
2014    8       13     2  51    4.99   525.6    4.3      50.923
2014    8       13     2  57    4.98   525.5    4.3      50.894
2014    8       13     3   2    4.98   525.4    4.3      50.865
2014    8       13     3   7    4.98   525.3    4.3      50.836
2014    8       13     3  13    4.98   525.3    4.3      50.806
2014    8       13     3  18    4.97   525.2    4.3      50.777
2014    8       13     3  24    4.97   525.1    4.3      50.747
2014    8       13     3  29    4.97   525.1    4.3      50.717
2014    8       13     3  35    4.97   525.0    4.3      50.687
2014    8       13     3  40    4.97   524.9    4.3      50.656
2014    8       13     3  46    4.96   524.9    4.3      50.626
2014    8       13     3  51    4.96   524.8    4.3      50.595
2014    8       13     3  57    4.96   524.7    4.3      50.565
2014    8       13     4   2    4.96   524.6    4.3      50.534
2014    8       13     4   8    4.95   524.6    4.3      50.504
2014    8       13     4  13    4.95   524.5    4.3      50.473
2014    8       13     4  18    4.95   524.4    4.3      50.443
2014    8       13     4  24    4.95   524.4    4.3      50.413
2014    8       13     4  29    4.94   524.3    4.3      50.383
2014    8       13     4  35    4.94   524.2    4.3      50.353
2014    8       13     4  40    4.94   524.1    4.3      50.323
2014    8       13     4  46    4.94   524.1    4.3      50.294
2014    8       13     4  51    4.94   524.0    4.3      50.265
2014    8       13     4  57    4.93   523.9    4.3      50.237
2014    8       13     5   2    4.93   523.9    4.3      50.208
2014    8       13     5   8    4.93   523.8    4.3      50.181
2014    8       13     5  13    4.93   523.7    4.2      50.153
2014    8       13     5  19    4.92   523.7    4.2      50.126
2014    8       13     5  24    4.92   523.6    4.2      50.100
2014    8       13     5  29    4.92   523.5    4.2      50.074
2014    8       13     5  35    4.92   523.4    4.2      50.048
2014    8       13     5  40    4.92   523.4    4.2      50.023
2014    8       13     5  46    4.91   523.3    4.2      49.998
2014    8       13     5  51    4.91   523.3    4.2      49.973
2014    8       13     5  57    4.91   523.2    4.2      49.949
2014    8       13     6   2    4.91   523.1    4.2      49.925
2014    8       13     6   8    4.90   523.1    4.2      49.901
2014    8       13     6  13    4.90   523.0    4.2      49.877
2014    8       13     6  19    4.90   522.9    4.2      49.854
2014    8       13     6  24    4.90   522.9    4.2      49.830
2014    8       13     6  29    4.90   522.8    4.2      49.807
2014    8       13     6  35    4.89   522.7    4.2      49.784
2014    8       13     6  40    4.89   522.6    4.2      49.761
2014    8       13     6  46    4.89   522.6    4.2      49.738
2014    8       13     6  51    4.89   522.5    4.2      49.715
2014    8       13     6  57    4.88   522.4    4.2      49.692
2014    8       13     7   2    4.88   522.4    4.2      49.668
2014    8       13     7   8    4.88   522.3    4.2      49.645
2014    8       13     7  13    4.88   522.2    4.2      49.622
2014    8       13     7  19    4.87   522.1    4.2      49.598
2014    8       13     7  24    4.87   522.1    4.2      49.575
2014    8       13     7  30    4.87   522.0    4.2      49.552
2014    8       13     7  35    4.87   521.9    4.2      49.528
2014    8       13     7  41    4.87   521.8    4.2      49.505
2014    8       13     7  46    4.86   521.7    4.2      49.481
2014    8       13     7  51    4.86   521.7    4.2      49.458
2014    8       13     7  57    4.86   521.6    4.2      49.435
2014    8       13     8   2    4.86   521.5    4.2      49.411
2014    8       13     8   8    4.85   521.4    4.2      49.388
2014    8       13     8  13    4.85   521.3    4.2      49.365
2014    8       13     8  19    4.85   521.3    4.2      49.342
2014    8       13     8  24    4.85   521.2    4.2      49.319
2014    8       13     8  30    4.84   521.1    4.2      49.297
2014    8       13     8  35    4.84   521.0    4.2      49.274
2014    8       13     8  41    4.84   520.9    4.2      49.251
2014    8       13     8  46    4.84   520.8    4.2      49.229
2014    8       13     8  51    4.84   520.8    4.2      49.207
2014    8       13     8  57    4.83   520.7    4.2      49.185
2014    8       13     9   2    4.83   520.6    4.2      49.163
2014    8       13     9   8    4.83   520.5    4.2      49.142
2014    8       13     9  13    4.83   520.4    4.2      49.120
2014    8       13     9  19    4.83   520.3    4.2      49.099
2014    8       13     9  24    4.82   520.2    4.2      49.078
2014    8       13     9  30    4.82   520.2    4.2      49.058
2014    8       13     9  35    4.82   520.1    4.2      49.038
2014    8       13     9  41    4.82   520.0    4.2      49.018
2014    8       13     9  46    4.82   519.9    4.2      49.000
2014    8       13     9  52    4.81   519.8    4.2      48.981
2014    8       13     9  57    4.81   519.7    4.2      48.963
2014    8       13    10   2    4.81   519.6    4.2      48.945
2014    8       13    10   8    4.81   519.6    4.2      48.927
2014    8       13    10  13    4.81   519.5    4.2      48.909
2014    8       13    10  19    4.80   519.4    4.2      48.890
2014    8       13    10  24    4.80   519.3    4.2      48.871
2014    8       13    10  30    4.80   519.2    4.2      48.852
2014    8       13    10  35    4.80   519.1    4.2      48.832
2014    8       13    10  41    4.80   519.0    4.2      48.812
2014    8       13    10  46    4.79   519.0    4.2      48.792
2014    8       13    10  52    4.79   518.9    4.2      48.771
2014    8       13    10  57    4.79   518.8    4.2      48.750
2014    8       13    11   3    4.79   518.7    4.2      48.728
2014    8       13    11   8    4.79   518.6    4.2      48.706
2014    8       13    11  13    4.78   518.5    4.2      48.683
2014    8       13    11  19    4.78   518.4    4.2      48.661
2014    8       13    11  24    4.78   518.3    4.2      48.638
2014    8       13    11  30    4.78   518.3    4.2      48.614
2014    8       13    11  35    4.78   518.2    4.2      48.590
2014    8       13    11  41    4.78   518.1    4.2      48.566
2014    8       13    11  46    4.77   518.0    4.2      48.542
2014    8       13    11  52    4.77   517.9    4.2      48.517
2014    8       13    11  57    4.77   517.8    4.2      48.492
2014    8       13    12   3    4.77   517.7    4.2      48.467
2014    8       13    12   8    4.77   517.6    4.2      48.442
2014    8       13    12  14    4.76   517.5    4.2      48.417
2014    8       13    12  19    4.76   517.4    4.2      48.391
2014    8       13    12  24    4.76   517.4    4.2      48.365
2014    8       13    12  30    4.76   517.3    4.2      48.340
2014    8       13    12  35    4.76   517.2    4.2      48.314
2014    8       13    12  41    4.75   517.1    4.2      48.288
2014    8       13    12  46    4.75   517.0    4.2      48.262
2014    8       13    12  52    4.75   516.9    4.2      48.235
2014    8       13    12  57    4.75   516.8    4.2      48.209
2014    8       13    13   3    4.75   516.7    4.2      48.183
2014    8       13    13   8    4.75   516.6    4.2      48.156
2014    8       13    13  14    4.74   516.5    4.2      48.130
2014    8       13    13  19    4.74   516.5    4.2      48.103
2014    8       13    13  25    4.74   516.4    4.2      48.076
2014    8       13    13  30    4.74   516.3    4.2      48.049
2014    8       13    13  35    4.74   516.2    4.2      48.022
2014    8       13    13  41    4.73   516.1    4.2      47.995
2014    8       13    13  46    4.73   516.0    4.2      47.968
2014    8       13    13  52    4.73   515.9    4.2      47.941
2014    8       13    13  57    4.73   515.8    4.2      47.914
2014    8       13    14   3    4.73   515.7    4.2      47.886
2014    8       13    14   8    4.72   515.6    4.2      47.859
2014    8       13    14  14    4.72   515.5    4.2      47.831
2014    8       13    14  19    4.72   515.4    4.2      47.803
2014    8       13    14  25    4.72   515.4    4.2      47.775
2014    8       13    14  30    4.72   515.3    4.2      47.747
2014    8       13    14  36    4.71   515.2    4.2      47.719
2014    8       13    14  41    4.71   515.1    4.2      47.690
2014    8       13    14  46    4.71   515.0    4.2      47.662
2014    8       13    14  52    4.71   514.9    4.2      47.634
2014    8       13    14  57    4.71   514.8    4.2      47.605
2014    8       13    15   3    4.70   514.7    4.2      47.577
2014    8       13    15   8    4.70   514.6    4.2      47.549
2014    8       13    15  14    4.70   514.5    4.2      47.521
2014    8       13    15  19    4.70   514.4    4.2      47.494
2014    8       13    15  25    4.70   514.3    4.2      47.466
2014    8       13    15  30    4.69   514.2    4.2      47.439
2014    8       13    15  36    4.69   514.1    4.2      47.412
2014    8       13    15  41    4.69   514.0    4.2      47.386
2014    8       13    15  47    4.69   513.9    4.2      47.360
2014    8       13    15  52    4.69   513.8    4.2      47.335
2014    8       13    15  57    4.69   513.7    4.2      47.310
2014    8       13    16   3    4.68   513.6    4.2      47.286
2014    8       13    16   8    4.68   513.5    4.2      47.262
2014    8       13    16  14    4.68   513.4    4.2      47.238
2014    8       13    16  19    4.68   513.3    4.2      47.216
2014    8       13    16  25    4.68   513.2    4.2      47.194
2014    8       13    16  30    4.67   513.1    4.2      47.172
2014    8       13    16  36    4.67   513.0    4.2      47.151
2014    8       13    16  41    4.67   512.9    4.2      47.130
2014    8       13    16  47    4.67   512.8    4.2      47.111
2014    8       13    16  52    4.67   512.7    4.2      47.092
2014    8       13    16  57    4.67   512.6    4.2      47.074
2014    8       13    17   3    4.66   512.5    4.2      47.057
2014    8       13    17   8    4.66   512.4    4.2      47.041
2014    8       13    17  14    4.66   512.3    4.2      47.025
2014    8       13    17  19    4.66   512.2    4.2      47.009
2014    8       13    17  25    4.66   512.1    4.2      46.994
2014    8       13    17  30    4.66   512.1    4.2      46.978
2014    8       13    17  36    4.65   512.0    4.2      46.962
2014    8       13    17  41    4.65   511.9    4.2      46.946
2014    8       13    17  47    4.65   511.8    4.2      46.930
2014    8       13    17  52    4.65   511.7    4.2      46.914
2014    8       13    17  58    4.65   511.6    4.2      46.897
2014    8       13    18   3    4.65   511.5    4.2      46.880
2014    8       13    18   8    4.64   511.4    4.2      46.863
2014    8       13    18  14    4.64   511.3    4.2      46.845
2014    8       13    18  19    4.64   511.2    4.2      46.827
2014    8       13    18  25    4.64   511.1    4.2      46.809
2014    8       13    18  30    4.64   511.0    4.2      46.790
2014    8       13    18  36    4.63   510.9    4.2      46.771
2014    8       13    18  41    4.63   510.8    4.2      46.752
2014    8       13    18  47    4.63   510.7    4.2      46.732
2014    8       13    18  52    4.63   510.6    4.2      46.712
2014    8       13    18  58    4.63   510.5    4.2      46.692
2014    8       13    19   3    4.62   510.4    4.2      46.672
2014    8       13    19   9    4.62   510.3    4.2      46.652
2014    8       13    19  14    4.62   510.2    4.2      46.631
2014    8       13    19  19    4.62   510.1    4.2      46.610
2014    8       13    19  25    4.62   510.0    4.2      46.589
2014    8       13    19  30    4.62   509.9    4.2      46.568
2014    8       13    19  36    4.61   509.7    4.2      46.547
2014    8       13    19  41    4.61   509.6    4.2      46.525
2014    8       13    19  47    4.61   509.5    4.2      46.504
2014    8       13    19  52    4.61   509.4    4.2      46.482
2014    8       13    19  58    4.61   509.3    4.2      46.460
2014    8       13    20   3    4.60   509.2    4.2      46.438
2014    8       13    20   9    4.60   509.1    4.2      46.416
2014    8       13    20  14    4.60   509.0    4.2      46.394
2014    8       13    20  20    4.60   508.9    4.2      46.371
2014    8       13    20  25    4.60   508.8    4.2      46.349
2014    8       13    20  30    4.60   508.7    4.2      46.327
2014    8       13    20  36    4.59   508.6    4.2      46.305
2014    8       13    20  41    4.59   508.5    4.2      46.282
2014    8       13    20  47    4.59   508.3    4.2      46.260
2014    8       13    20  52    4.59   508.2    4.2      46.238
2014    8       13    20  58    4.59   508.1    4.2      46.216
2014    8       13    21   3    4.59   508.0    4.2      46.194
2014    8       13    21   9    4.58   507.9    4.2      46.172
2014    8       13    21  14    4.58   507.8    4.2      46.150
2014    8       13    21  20    4.58   507.7    4.2      46.129
2014    8       13    21  25    4.58   507.6    4.2      46.107
2014    8       13    21  31    4.58   507.5    4.2      46.085
2014    8       13    21  36    4.58   507.4    4.2      46.064
2014    8       13    21  41    4.57   507.3    4.2      46.042
2014    8       13    21  47    4.57   507.2    4.2      46.021
2014    8       13    21  52    4.57   507.1    4.2      46.000
2014    8       13    21  58    4.57   507.0    4.2      45.978
2014    8       13    22   3    4.57   506.9    4.2      45.957
2014    8       13    22   9    4.57   506.8    4.2      45.936
2014    8       13    22  14    4.56   506.7    4.2      45.914
2014    8       13    22  20    4.56   506.5    4.2      45.892
2014    8       13    22  25    4.56   506.4    4.2      45.870
2014    8       13    22  31    4.56   506.3    4.2      45.848
2014    8       13    22  36    4.56   506.2    4.2      45.826
2014    8       13    22  42    4.56   506.1    4.2      45.803
2014    8       13    22  47    4.55   506.0    4.2      45.780
2014    8       13    22  52    4.55   505.9    4.2      45.758
2014    8       13    22  58    4.55   505.8    4.2      45.735
2014    8       13    23   3    4.55   505.7    4.2      45.711
2014    8       13    23   9    4.55   505.6    4.2      45.688
2014    8       13    23  14    4.55   505.5    4.2      45.665
2014    8       13    23  20    4.54   505.4    4.2      45.642
2014    8       13    23  25    4.54   505.3    4.2      45.618
2014    8       13    23  31    4.54   505.2    4.2      45.595
2014    8       13    23  36    4.54   505.1    4.2      45.572
2014    8       13    23  42    4.54   505.0    4.2      45.548
2014    8       13    23  47    4.54   504.9    4.2      45.525
2014    8       13    23  53    4.53   504.7    4.2      45.501
2014    8       13    23  58    4.53   504.6    4.2      45.478
2014    8       14     0   3    4.53   504.5    4.2      45.454
