year    month   day   hour  minute  B_enl V_enl   n_enl       T_enl
[year] [month] [day] [hour][minute] [nT]  [km/s]  [cm-3]      [kK]
2014    7       31     0   1    5.63   374.6    9.4      33.789
2014    7       31     0   7    5.63   374.6    9.4      33.815
2014    7       31     0  13    5.63   374.7    9.4      33.842
2014    7       31     0  19    5.64   374.7    9.4      33.869
2014    7       31     0  24    5.64   374.8    9.4      33.896
2014    7       31     0  30    5.65   374.9    9.4      33.924
2014    7       31     0  36    5.65   374.9    9.5      33.952
2014    7       31     0  42    5.66   375.0    9.5      33.980
2014    7       31     0  47    5.66   375.0    9.5      34.009
2014    7       31     0  53    5.67   375.1    9.5      34.037
2014    7       31     0  59    5.67   375.1    9.5      34.065
2014    7       31     1   5    5.68   375.2    9.5      34.093
2014    7       31     1  10    5.68   375.2    9.5      34.122
2014    7       31     1  16    5.69   375.3    9.5      34.150
2014    7       31     1  22    5.69   375.4    9.5      34.177
2014    7       31     1  28    5.69   375.4    9.5      34.204
2014    7       31     1  33    5.70   375.5    9.5      34.231
2014    7       31     1  39    5.70   375.5    9.5      34.257
2014    7       31     1  45    5.71   375.6    9.5      34.283
2014    7       31     1  51    5.71   375.6    9.5      34.309
2014    7       31     1  56    5.72   375.7    9.5      34.334
2014    7       31     2   2    5.72   375.8    9.5      34.358
2014    7       31     2   8    5.72   375.8    9.5      34.383
2014    7       31     2  13    5.73   375.9    9.5      34.407
2014    7       31     2  19    5.73   375.9    9.5      34.430
2014    7       31     2  25    5.74   376.0    9.5      34.454
2014    7       31     2  31    5.74   376.0    9.6      34.477
2014    7       31     2  36    5.75   376.1    9.6      34.499
2014    7       31     2  42    5.75   376.2    9.6      34.522
2014    7       31     2  48    5.75   376.2    9.6      34.544
2014    7       31     2  54    5.76   376.3    9.6      34.566
2014    7       31     2  59    5.76   376.3    9.6      34.587
2014    7       31     3   5    5.77   376.4    9.6      34.608
2014    7       31     3  11    5.77   376.4    9.6      34.630
2014    7       31     3  17    5.78   376.5    9.6      34.650
2014    7       31     3  22    5.78   376.6    9.6      34.671
2014    7       31     3  28    5.78   376.6    9.6      34.691
2014    7       31     3  34    5.79   376.7    9.6      34.711
2014    7       31     3  40    5.79   376.7    9.6      34.731
2014    7       31     3  45    5.80   376.8    9.6      34.751
2014    7       31     3  51    5.80   376.8    9.6      34.770
2014    7       31     3  57    5.80   376.9    9.6      34.790
2014    7       31     4   3    5.81   377.0    9.6      34.809
2014    7       31     4   8    5.81   377.0    9.6      34.828
2014    7       31     4  14    5.82   377.1    9.6      34.847
2014    7       31     4  20    5.82   377.1    9.6      34.866
2014    7       31     4  26    5.82   377.2    9.6      34.885
2014    7       31     4  31    5.83   377.3    9.6      34.903
2014    7       31     4  37    5.83   377.3    9.6      34.922
2014    7       31     4  43    5.84   377.4    9.6      34.941
2014    7       31     4  49    5.84   377.4    9.6      34.959
2014    7       31     4  54    5.85   377.5    9.6      34.978
2014    7       31     5   0    5.85   377.6    9.6      34.996
2014    7       31     5   6    5.85   377.6    9.6      35.015
2014    7       31     5  11    5.86   377.7    9.6      35.033
2014    7       31     5  17    5.86   377.7    9.6      35.052
2014    7       31     5  23    5.87   377.8    9.6      35.071
2014    7       31     5  29    5.87   377.9    9.6      35.090
2014    7       31     5  34    5.88   377.9    9.6      35.108
2014    7       31     5  40    5.88   378.0    9.6      35.128
2014    7       31     5  46    5.88   378.1    9.6      35.147
2014    7       31     5  52    5.89   378.1    9.6      35.166
2014    7       31     5  57    5.89   378.2    9.6      35.186
2014    7       31     6   3    5.90   378.2    9.6      35.206
2014    7       31     6   9    5.90   378.3    9.6      35.226
2014    7       31     6  15    5.91   378.4    9.6      35.246
2014    7       31     6  20    5.91   378.4    9.7      35.267
2014    7       31     6  26    5.92   378.5    9.7      35.288
2014    7       31     6  32    5.92   378.6    9.7      35.309
2014    7       31     6  38    5.93   378.6    9.7      35.330
2014    7       31     6  43    5.93   378.7    9.7      35.352
2014    7       31     6  49    5.94   378.8    9.7      35.374
2014    7       31     6  55    5.94   378.9    9.7      35.396
2014    7       31     7   1    5.94   378.9    9.7      35.419
2014    7       31     7   6    5.95   379.0    9.7      35.443
2014    7       31     7  12    5.95   379.1    9.7      35.467
2014    7       31     7  18    5.96   379.2    9.7      35.492
2014    7       31     7  23    5.96   379.2    9.7      35.518
2014    7       31     7  29    5.97   379.3    9.7      35.545
2014    7       31     7  35    5.97   379.4    9.7      35.572
2014    7       31     7  41    5.98   379.5    9.7      35.599
2014    7       31     7  46    5.98   379.5    9.7      35.627
2014    7       31     7  52    5.99   379.6    9.7      35.656
2014    7       31     7  58    5.99   379.7    9.7      35.685
2014    7       31     8   4    6.00   379.8    9.7      35.716
2014    7       31     8   9    6.00   379.9    9.8      35.747
2014    7       31     8  15    6.01   380.0    9.8      35.779
2014    7       31     8  21    6.01   380.1    9.8      35.812
2014    7       31     8  27    6.02   380.2    9.8      35.845
2014    7       31     8  32    6.02   380.3    9.8      35.878
2014    7       31     8  38    6.03   380.3    9.8      35.911
2014    7       31     8  44    6.03   380.4    9.8      35.945
2014    7       31     8  50    6.03   380.5    9.8      35.979
2014    7       31     8  55    6.04   380.6    9.8      36.012
2014    7       31     9   1    6.04   380.7    9.8      36.046
2014    7       31     9   7    6.05   380.8    9.8      36.079
2014    7       31     9  13    6.05   380.9    9.8      36.113
2014    7       31     9  18    6.06   381.0    9.8      36.147
2014    7       31     9  24    6.06   381.1    9.8      36.180
2014    7       31     9  30    6.07   381.2    9.8      36.212
2014    7       31     9  35    6.07   381.3    9.8      36.244
2014    7       31     9  41    6.07   381.4    9.8      36.276
2014    7       31     9  47    6.08   381.5    9.8      36.307
2014    7       31     9  53    6.08   381.6    9.8      36.338
2014    7       31     9  58    6.09   381.7    9.8      36.368
2014    7       31    10   4    6.09   381.8    9.8      36.398
2014    7       31    10  10    6.09   381.9    9.8      36.427
2014    7       31    10  16    6.10   382.0    9.8      36.456
2014    7       31    10  21    6.10   382.1    9.8      36.485
2014    7       31    10  27    6.11   382.2    9.8      36.513
2014    7       31    10  33    6.11   382.3    9.9      36.541
2014    7       31    10  39    6.11   382.4    9.9      36.568
2014    7       31    10  44    6.12   382.5    9.9      36.595
2014    7       31    10  50    6.12   382.6    9.9      36.621
2014    7       31    10  56    6.13   382.6    9.9      36.647
2014    7       31    11   2    6.13   382.7    9.9      36.673
2014    7       31    11   7    6.13   382.8    9.9      36.699
2014    7       31    11  13    6.14   382.9    9.9      36.724
2014    7       31    11  19    6.14   383.0    9.9      36.748
2014    7       31    11  25    6.15   383.1    9.9      36.773
2014    7       31    11  30    6.15   383.2    9.9      36.797
2014    7       31    11  36    6.15   383.3    9.9      36.821
2014    7       31    11  42    6.16   383.4    9.9      36.844
2014    7       31    11  48    6.16   383.5    9.9      36.867
2014    7       31    11  53    6.17   383.6    9.9      36.890
2014    7       31    11  59    6.17   383.7    9.9      36.913
2014    7       31    12   5    6.17   383.8    9.9      36.936
2014    7       31    12  11    6.18   383.9    9.9      36.958
2014    7       31    12  16    6.18   384.0    9.9      36.980
2014    7       31    12  22    6.18   384.1    9.9      37.002
2014    7       31    12  28    6.19   384.2    9.9      37.023
2014    7       31    12  33    6.19   384.3    9.9      37.045
2014    7       31    12  39    6.20   384.4    9.9      37.066
2014    7       31    12  45    6.20   384.5    9.9      37.088
2014    7       31    12  51    6.20   384.6    9.9      37.109
2014    7       31    12  56    6.21   384.7    9.9      37.130
2014    7       31    13   2    6.21   384.8    9.9      37.151
2014    7       31    13   8    6.22   384.9    9.9      37.172
2014    7       31    13  14    6.22   384.9    9.9      37.193
2014    7       31    13  19    6.22   385.0    9.8      37.214
2014    7       31    13  25    6.23   385.1    9.8      37.235
2014    7       31    13  31    6.23   385.2    9.8      37.256
2014    7       31    13  37    6.23   385.3    9.8      37.277
2014    7       31    13  42    6.24   385.4    9.8      37.298
2014    7       31    13  48    6.24   385.5    9.8      37.319
2014    7       31    13  54    6.25   385.6    9.8      37.340
2014    7       31    14   0    6.25   385.7    9.8      37.362
2014    7       31    14   5    6.26   385.8    9.8      37.384
2014    7       31    14  11    6.26   385.9    9.8      37.405
2014    7       31    14  17    6.26   386.0    9.8      37.427
2014    7       31    14  23    6.27   386.1    9.8      37.450
2014    7       31    14  28    6.27   386.2    9.8      37.472
2014    7       31    14  34    6.28   386.3    9.8      37.495
2014    7       31    14  40    6.28   386.5    9.9      37.518
2014    7       31    14  45    6.28   386.6    9.9      37.541
2014    7       31    14  51    6.29   386.7    9.9      37.565
2014    7       31    14  57    6.29   386.8    9.9      37.589
2014    7       31    15   3    6.30   386.9    9.9      37.613
2014    7       31    15   8    6.30   387.0    9.9      37.638
2014    7       31    15  14    6.31   387.1    9.9      37.664
2014    7       31    15  20    6.31   387.2    9.9      37.690
2014    7       31    15  26    6.31   387.3    9.9      37.718
2014    7       31    15  31    6.32   387.4    9.9      37.746
2014    7       31    15  37    6.32   387.5    9.9      37.774
2014    7       31    15  43    6.33   387.7    9.9      37.804
2014    7       31    15  49    6.33   387.8    9.9      37.834
2014    7       31    15  54    6.34   387.9    9.9      37.865
2014    7       31    16   0    6.34   388.0    9.9      37.896
2014    7       31    16   6    6.34   388.1    9.9      37.928
2014    7       31    16  12    6.35   388.2    9.9      37.961
2014    7       31    16  17    6.35   388.4    9.9      37.994
2014    7       31    16  23    6.36   388.5    9.9      38.028
2014    7       31    16  29    6.36   388.6    9.9      38.063
2014    7       31    16  35    6.37   388.7    9.9      38.098
2014    7       31    16  40    6.37   388.9    9.9      38.133
2014    7       31    16  46    6.38   389.0    9.9      38.168
2014    7       31    16  52    6.38   389.1    9.9      38.204
2014    7       31    16  57    6.38   389.2    9.9      38.241
2014    7       31    17   3    6.39   389.4    9.9      38.279
2014    7       31    17   9    6.39   389.5    9.9      38.317
2014    7       31    17  15    6.40   389.6    9.9      38.355
2014    7       31    17  20    6.40   389.8    9.9      38.395
2014    7       31    17  26    6.41   389.9    9.9      38.434
2014    7       31    17  32    6.41   390.0    9.9      38.474
2014    7       31    17  38    6.41   390.1    9.9      38.514
2014    7       31    17  43    6.42   390.3    9.9      38.555
2014    7       31    17  49    6.42   390.4   10.0      38.595
2014    7       31    17  55    6.43   390.5   10.0      38.635
2014    7       31    18   1    6.43   390.7   10.0      38.675
2014    7       31    18   6    6.43   390.8   10.0      38.716
2014    7       31    18  12    6.44   391.0   10.0      38.756
2014    7       31    18  18    6.44   391.1   10.0      38.796
2014    7       31    18  24    6.45   391.2   10.0      38.835
2014    7       31    18  29    6.45   391.4   10.0      38.874
2014    7       31    18  35    6.45   391.5   10.0      38.912
2014    7       31    18  41    6.46   391.6   10.0      38.949
2014    7       31    18  47    6.46   391.8   10.0      38.986
2014    7       31    18  52    6.47   391.9   10.0      39.021
2014    7       31    18  58    6.47   392.1   10.0      39.057
2014    7       31    19   4    6.47   392.2   10.0      39.091
2014    7       31    19  10    6.48   392.3   10.0      39.125
2014    7       31    19  15    6.48   392.5   10.0      39.158
2014    7       31    19  21    6.49   392.6   10.0      39.191
2014    7       31    19  27    6.49   392.7   10.0      39.223
2014    7       31    19  33    6.49   392.9   10.0      39.255
2014    7       31    19  38    6.50   393.0   10.0      39.286
2014    7       31    19  44    6.50   393.2   10.0      39.316
2014    7       31    19  50    6.50   393.3   10.0      39.346
2014    7       31    19  55    6.51   393.4   10.0      39.376
2014    7       31    20   1    6.51   393.6   10.0      39.405
2014    7       31    20   7    6.51   393.7    9.9      39.434
2014    7       31    20  13    6.52   393.9    9.9      39.462
2014    7       31    20  18    6.52   394.0    9.9      39.490
2014    7       31    20  24    6.53   394.1    9.9      39.517
2014    7       31    20  30    6.53   394.3    9.9      39.544
2014    7       31    20  36    6.53   394.4    9.9      39.571
2014    7       31    20  41    6.54   394.6    9.9      39.597
2014    7       31    20  47    6.54   394.7    9.9      39.624
2014    7       31    20  53    6.54   394.8    9.9      39.649
2014    7       31    20  59    6.55   395.0    9.9      39.675
2014    7       31    21   4    6.55   395.1    9.9      39.700
2014    7       31    21  10    6.55   395.3    9.9      39.725
2014    7       31    21  16    6.56   395.4    9.9      39.750
2014    7       31    21  22    6.56   395.5    9.9      39.774
2014    7       31    21  27    6.56   395.7    9.9      39.799
2014    7       31    21  33    6.57   395.8    9.9      39.823
2014    7       31    21  39    6.57   396.0    9.9      39.847
2014    7       31    21  45    6.57   396.1    9.9      39.871
2014    7       31    21  50    6.58   396.3    9.9      39.895
2014    7       31    21  56    6.58   396.4    9.9      39.919
2014    7       31    22   2    6.58   396.5    9.9      39.943
2014    7       31    22   7    6.59   396.7    9.9      39.967
2014    7       31    22  13    6.59   396.8    9.9      39.991
2014    7       31    22  19    6.60   397.0    9.9      40.015
2014    7       31    22  25    6.60   397.1    9.9      40.039
2014    7       31    22  30    6.60   397.3    9.9      40.063
2014    7       31    22  36    6.61   397.4    9.9      40.087
2014    7       31    22  42    6.61   397.5    9.9      40.111
2014    7       31    22  48    6.61   397.7    9.9      40.136
2014    7       31    22  53    6.62   397.8    9.9      40.161
2014    7       31    22  59    6.62   398.0    9.9      40.186
2014    7       31    23   5    6.62   398.1    9.9      40.211
2014    7       31    23  11    6.63   398.3    9.9      40.237
2014    7       31    23  16    6.63   398.4    9.9      40.263
2014    7       31    23  22    6.63   398.6    9.9      40.289
2014    7       31    23  28    6.64   398.7    9.9      40.316
2014    7       31    23  34    6.64   398.8    9.9      40.344
2014    7       31    23  39    6.65   399.0    9.9      40.372
2014    7       31    23  45    6.65   399.1    9.9      40.400
2014    7       31    23  51    6.65   399.3    9.9      40.429
2014    7       31    23  57    6.66   399.4    9.9      40.459
2014    8        1     0   2    6.66   399.6    9.9      40.491
2014    8        1     0   8    6.67   399.7    9.9      40.526
2014    8        1     0  14    6.67   399.9    9.9      40.563
2014    8        1     0  19    6.68   400.0    9.9      40.601
2014    8        1     0  25    6.68   400.2    9.9      40.639
2014    8        1     0  31    6.68   400.3    9.9      40.680
2014    8        1     0  37    6.69   400.5    9.9      40.722
2014    8        1     0  42    6.69   400.7    9.9      40.766
2014    8        1     0  48    6.70   400.8    9.9      40.811
2014    8        1     0  54    6.70   401.0    9.9      40.858
2014    8        1     1   0    6.71   401.2    9.9      40.906
2014    8        1     1   5    6.71   401.3    9.9      40.955
2014    8        1     1  11    6.72   401.5    9.9      41.005
2014    8        1     1  17    6.72   401.7    9.9      41.057
2014    8        1     1  23    6.73   401.9    9.9      41.109
2014    8        1     1  28    6.73   402.0    9.9      41.161
2014    8        1     1  34    6.74   402.2    9.9      41.213
2014    8        1     1  40    6.74   402.4    9.9      41.264
2014    8        1     1  46    6.75   402.6    9.9      41.315
2014    8        1     1  51    6.75   402.8    9.9      41.366
2014    8        1     1  57    6.75   403.0    9.9      41.416
2014    8        1     2   3    6.76   403.2    9.9      41.465
2014    8        1     2   9    6.76   403.3    9.9      41.514
2014    8        1     2  14    6.77   403.5    9.9      41.562
2014    8        1     2  20    6.77   403.7    9.9      41.609
2014    8        1     2  26    6.77   403.9    9.9      41.654
2014    8        1     2  32    6.78   404.1    9.9      41.699
2014    8        1     2  37    6.78   404.3    9.9      41.743
2014    8        1     2  43    6.79   404.5    9.9      41.787
2014    8        1     2  49    6.79   404.7    9.9      41.829
2014    8        1     2  55    6.79   404.9    9.9      41.871
2014    8        1     3   0    6.80   405.1    9.9      41.912
2014    8        1     3   6    6.80   405.3    9.9      41.953
2014    8        1     3  12    6.81   405.5    9.9      41.992
2014    8        1     3  17    6.81   405.7    9.9      42.032
2014    8        1     3  23    6.81   405.9    9.9      42.070
2014    8        1     3  29    6.82   406.1    9.9      42.109
2014    8        1     3  35    6.82   406.3    9.9      42.146
2014    8        1     3  40    6.82   406.5    9.9      42.184
2014    8        1     3  46    6.83   406.7    9.9      42.220
2014    8        1     3  52    6.83   406.9    9.9      42.257
2014    8        1     3  58    6.83   407.1    9.9      42.293
2014    8        1     4   3    6.84   407.3    9.9      42.328
2014    8        1     4   9    6.84   407.5    9.9      42.364
2014    8        1     4  15    6.84   407.7    9.9      42.398
2014    8        1     4  21    6.85   407.9    9.8      42.433
2014    8        1     4  26    6.85   408.1    9.8      42.467
2014    8        1     4  32    6.86   408.3    9.8      42.501
2014    8        1     4  38    6.86   408.5    9.8      42.534
2014    8        1     4  44    6.86   408.7    9.8      42.568
2014    8        1     4  49    6.87   408.9    9.8      42.600
2014    8        1     4  55    6.87   409.2    9.8      42.633
2014    8        1     5   1    6.87   409.4    9.8      42.665
2014    8        1     5   7    6.87   409.6    9.8      42.697
2014    8        1     5  12    6.88   409.8    9.8      42.729
2014    8        1     5  18    6.88   410.0    9.8      42.761
2014    8        1     5  24    6.88   410.2    9.8      42.792
2014    8        1     5  29    6.89   410.4    9.8      42.823
2014    8        1     5  35    6.89   410.6    9.8      42.854
2014    8        1     5  41    6.89   410.8    9.8      42.885
2014    8        1     5  47    6.90   411.0    9.8      42.916
2014    8        1     5  52    6.90   411.2    9.8      42.946
2014    8        1     5  58    6.90   411.5    9.8      42.976
2014    8        1     6   4    6.91   411.7    9.7      43.006
2014    8        1     6  10    6.91   411.9    9.7      43.036
2014    8        1     6  15    6.91   412.1    9.7      43.066
2014    8        1     6  21    6.92   412.3    9.7      43.096
2014    8        1     6  27    6.92   412.5    9.7      43.126
2014    8        1     6  33    6.92   412.7    9.7      43.156
2014    8        1     6  38    6.93   412.9    9.7      43.186
2014    8        1     6  44    6.93   413.1    9.7      43.216
2014    8        1     6  50    6.93   413.4    9.7      43.246
2014    8        1     6  56    6.94   413.6    9.7      43.277
2014    8        1     7   1    6.94   413.8    9.7      43.307
2014    8        1     7   7    6.94   414.0    9.7      43.338
2014    8        1     7  13    6.95   414.2    9.7      43.369
2014    8        1     7  19    6.95   414.4    9.7      43.401
2014    8        1     7  24    6.95   414.6    9.7      43.434
2014    8        1     7  30    6.96   414.8    9.7      43.466
2014    8        1     7  36    6.96   415.0    9.7      43.499
2014    8        1     7  41    6.96   415.2    9.7      43.532
2014    8        1     7  47    6.97   415.4    9.7      43.566
2014    8        1     7  53    6.97   415.7    9.7      43.601
2014    8        1     7  59    6.97   415.9    9.7      43.639
2014    8        1     8   4    6.98   416.1    9.6      43.677
2014    8        1     8  10    6.98   416.3    9.6      43.717
2014    8        1     8  16    6.98   416.5    9.6      43.759
2014    8        1     8  22    6.99   416.8    9.6      43.801
2014    8        1     8  27    6.99   417.0    9.6      43.845
2014    8        1     8  33    6.99   417.2    9.6      43.890
2014    8        1     8  39    7.00   417.5    9.6      43.934
2014    8        1     8  45    7.00   417.7    9.6      43.977
2014    8        1     8  50    7.01   417.9    9.6      44.019
2014    8        1     8  56    7.01   418.2    9.6      44.062
2014    8        1     9   2    7.01   418.4    9.6      44.103
2014    8        1     9   8    7.02   418.6    9.6      44.144
2014    8        1     9  13    7.02   418.9    9.6      44.185
2014    8        1     9  19    7.02   419.1    9.6      44.226
2014    8        1     9  25    7.02   419.4    9.6      44.266
2014    8        1     9  31    7.03   419.6    9.6      44.305
2014    8        1     9  36    7.03   419.8    9.6      44.344
2014    8        1     9  42    7.03   420.1    9.6      44.383
2014    8        1     9  48    7.04   420.3    9.6      44.422
2014    8        1     9  54    7.04   420.6    9.6      44.460
2014    8        1     9  59    7.04   420.8    9.6      44.498
2014    8        1    10   5    7.05   421.1    9.5      44.536
2014    8        1    10  11    7.05   421.3    9.5      44.574
2014    8        1    10  17    7.05   421.5    9.5      44.611
2014    8        1    10  22    7.05   421.8    9.5      44.649
2014    8        1    10  28    7.06   422.0    9.5      44.686
2014    8        1    10  34    7.06   422.3    9.5      44.723
2014    8        1    10  39    7.06   422.5    9.5      44.760
2014    8        1    10  45    7.06   422.8    9.5      44.797
2014    8        1    10  51    7.07   423.0    9.5      44.834
2014    8        1    10  57    7.07   423.3    9.5      44.870
2014    8        1    11   2    7.07   423.5    9.5      44.907
2014    8        1    11   8    7.08   423.8    9.5      44.943
2014    8        1    11  14    7.08   424.0    9.5      44.979
2014    8        1    11  20    7.08   424.3    9.5      45.015
2014    8        1    11  25    7.08   424.5    9.4      45.051
2014    8        1    11  31    7.09   424.8    9.4      45.087
2014    8        1    11  37    7.09   425.1    9.4      45.124
2014    8        1    11  43    7.09   425.3    9.4      45.160
2014    8        1    11  48    7.09   425.6    9.4      45.196
2014    8        1    11  54    7.10   425.8    9.4      45.232
2014    8        1    12   0    7.10   426.1    9.4      45.269
2014    8        1    12   6    7.10   426.3    9.4      45.306
2014    8        1    12  11    7.10   426.6    9.4      45.342
2014    8        1    12  17    7.11   426.9    9.4      45.379
2014    8        1    12  23    7.11   427.1    9.4      45.417
2014    8        1    12  29    7.11   427.4    9.4      45.454
2014    8        1    12  34    7.11   427.7    9.3      45.492
2014    8        1    12  40    7.11   427.9    9.3      45.530
2014    8        1    12  46    7.12   428.2    9.3      45.568
2014    8        1    12  51    7.12   428.5    9.3      45.606
2014    8        1    12  57    7.12   428.7    9.3      45.644
2014    8        1    13   3    7.12   429.0    9.3      45.682
2014    8        1    13   9    7.13   429.3    9.3      45.719
2014    8        1    13  14    7.13   429.5    9.3      45.757
2014    8        1    13  20    7.13   429.8    9.3      45.794
2014    8        1    13  26    7.13   430.1    9.3      45.831
2014    8        1    13  32    7.13   430.4    9.3      45.868
2014    8        1    13  37    7.14   430.6    9.2      45.904
2014    8        1    13  43    7.14   430.9    9.2      45.941
2014    8        1    13  49    7.14   431.2    9.2      45.978
2014    8        1    13  55    7.14   431.5    9.2      46.014
2014    8        1    14   0    7.14   431.7    9.2      46.050
2014    8        1    14   6    7.15   432.0    9.2      46.087
2014    8        1    14  12    7.15   432.3    9.2      46.123
2014    8        1    14  18    7.15   432.6    9.2      46.159
2014    8        1    14  23    7.15   432.8    9.2      46.195
2014    8        1    14  29    7.15   433.1    9.2      46.231
2014    8        1    14  35    7.16   433.4    9.2      46.267
2014    8        1    14  41    7.16   433.7    9.1      46.303
2014    8        1    14  46    7.16   433.9    9.1      46.339
2014    8        1    14  52    7.16   434.2    9.1      46.375
2014    8        1    14  58    7.16   434.5    9.1      46.411
2014    8        1    15   3    7.17   434.8    9.1      46.447
2014    8        1    15   9    7.17   435.1    9.1      46.483
2014    8        1    15  15    7.17   435.3    9.1      46.520
2014    8        1    15  21    7.17   435.6    9.1      46.556
2014    8        1    15  26    7.17   435.9    9.1      46.592
2014    8        1    15  32    7.18   436.2    9.1      46.628
2014    8        1    15  38    7.18   436.5    9.0      46.664
2014    8        1    15  44    7.18   436.8    9.0      46.701
2014    8        1    15  49    7.18   437.0    9.0      46.737
2014    8        1    15  55    7.18   437.3    9.0      46.774
2014    8        1    16   1    7.19   437.6    9.0      46.811
2014    8        1    16   7    7.19   437.9    9.0      46.848
2014    8        1    16  12    7.19   438.2    9.0      46.885
2014    8        1    16  18    7.19   438.5    9.0      46.922
2014    8        1    16  24    7.19   438.8    9.0      46.960
2014    8        1    16  30    7.19   439.0    9.0      46.998
2014    8        1    16  35    7.20   439.3    8.9      47.035
2014    8        1    16  41    7.20   439.6    8.9      47.074
2014    8        1    16  47    7.20   439.9    8.9      47.112
2014    8        1    16  52    7.20   440.2    8.9      47.150
2014    8        1    16  58    7.20   440.5    8.9      47.189
2014    8        1    17   4    7.20   440.8    8.9      47.229
2014    8        1    17  10    7.21   441.1    8.9      47.269
2014    8        1    17  15    7.21   441.4    8.9      47.309
2014    8        1    17  21    7.21   441.7    8.9      47.349
2014    8        1    17  27    7.21   442.0    8.9      47.390
2014    8        1    17  33    7.21   442.2    8.9      47.431
2014    8        1    17  38    7.21   442.5    8.8      47.472
2014    8        1    17  44    7.21   442.8    8.8      47.513
2014    8        1    17  50    7.22   443.1    8.8      47.554
2014    8        1    17  56    7.22   443.4    8.8      47.596
2014    8        1    18   1    7.22   443.7    8.8      47.637
2014    8        1    18   7    7.22   444.0    8.8      47.678
2014    8        1    18  13    7.22   444.3    8.8      47.720
2014    8        1    18  19    7.22   444.6    8.8      47.761
2014    8        1    18  24    7.22   444.9    8.8      47.802
2014    8        1    18  30    7.22   445.2    8.8      47.843
2014    8        1    18  36    7.23   445.5    8.7      47.884
2014    8        1    18  41    7.23   445.8    8.7      47.924
2014    8        1    18  47    7.23   446.1    8.7      47.965
2014    8        1    18  53    7.23   446.4    8.7      48.006
2014    8        1    18  59    7.23   446.7    8.7      48.047
2014    8        1    19   4    7.23   447.0    8.7      48.089
2014    8        1    19  10    7.23   447.3    8.7      48.130
2014    8        1    19  16    7.23   447.6    8.7      48.172
2014    8        1    19  22    7.23   447.9    8.7      48.214
2014    8        1    19  27    7.24   448.2    8.7      48.257
2014    8        1    19  33    7.24   448.5    8.6      48.299
2014    8        1    19  39    7.24   448.8    8.6      48.342
2014    8        1    19  45    7.24   449.1    8.6      48.384
2014    8        1    19  50    7.24   449.4    8.6      48.427
2014    8        1    19  56    7.24   449.7    8.6      48.470
2014    8        1    20   2    7.24   450.0    8.6      48.513
2014    8        1    20   8    7.24   450.3    8.6      48.555
2014    8        1    20  13    7.24   450.6    8.6      48.598
2014    8        1    20  19    7.24   450.9    8.6      48.640
2014    8        1    20  25    7.24   451.2    8.5      48.683
2014    8        1    20  31    7.25   451.6    8.5      48.725
2014    8        1    20  36    7.25   451.9    8.5      48.767
2014    8        1    20  42    7.25   452.2    8.5      48.809
2014    8        1    20  48    7.25   452.5    8.5      48.851
2014    8        1    20  53    7.25   452.8    8.5      48.893
2014    8        1    20  59    7.25   453.1    8.5      48.935
2014    8        1    21   5    7.25   453.4    8.5      48.977
2014    8        1    21  11    7.25   453.7    8.5      49.019
2014    8        1    21  16    7.25   454.0    8.4      49.061
2014    8        1    21  22    7.25   454.4    8.4      49.103
2014    8        1    21  28    7.25   454.7    8.4      49.145
2014    8        1    21  34    7.25   455.0    8.4      49.187
2014    8        1    21  39    7.25   455.3    8.4      49.230
2014    8        1    21  45    7.25   455.6    8.4      49.272
2014    8        1    21  51    7.25   455.9    8.4      49.316
2014    8        1    21  57    7.25   456.2    8.4      49.359
2014    8        1    22   2    7.26   456.6    8.4      49.403
2014    8        1    22   8    7.26   456.9    8.4      49.447
2014    8        1    22  14    7.26   457.2    8.3      49.492
2014    8        1    22  20    7.26   457.5    8.3      49.538
2014    8        1    22  25    7.26   457.8    8.3      49.584
2014    8        1    22  31    7.26   458.1    8.3      49.631
2014    8        1    22  37    7.26   458.5    8.3      49.679
2014    8        1    22  43    7.26   458.8    8.3      49.727
2014    8        1    22  48    7.26   459.1    8.3      49.776
2014    8        1    22  54    7.26   459.4    8.3      49.826
2014    8        1    23   0    7.26   459.7    8.3      49.878
2014    8        1    23   6    7.26   460.1    8.3      49.932
2014    8        1    23  11    7.26   460.4    8.3      49.986
2014    8        1    23  17    7.26   460.7    8.3      50.042
2014    8        1    23  23    7.27   461.1    8.2      50.099
2014    8        1    23  28    7.27   461.4    8.2      50.158
2014    8        1    23  34    7.27   461.7    8.2      50.216
2014    8        1    23  40    7.27   462.1    8.2      50.275
2014    8        1    23  46    7.27   462.4    8.2      50.333
2014    8        1    23  51    7.27   462.8    8.2      50.391
2014    8        1    23  57    7.27   463.1    8.2      50.449
2014    8        2     0   3    7.27   463.5    8.2      50.505
2014    8        2     0   9    7.27   463.8    8.2      50.560
2014    8        2     0  14    7.27   464.1    8.2      50.614
2014    8        2     0  20    7.27   464.5    8.2      50.669
2014    8        2     0  26    7.27   464.8    8.1      50.724
2014    8        2     0  32    7.27   465.2    8.1      50.778
2014    8        2     0  37    7.27   465.5    8.1      50.832
2014    8        2     0  43    7.27   465.9    8.1      50.886
2014    8        2     0  49    7.27   466.2    8.1      50.938
2014    8        2     0  55    7.27   466.6    8.1      50.990
2014    8        2     1   0    7.27   466.9    8.1      51.041
2014    8        2     1   6    7.27   467.3    8.1      51.091
2014    8        2     1  12    7.27   467.6    8.1      51.141
2014    8        2     1  18    7.27   468.0    8.1      51.189
2014    8        2     1  23    7.27   468.3    8.0      51.237
2014    8        2     1  29    7.27   468.7    8.0      51.284
2014    8        2     1  35    7.27   469.0    8.0      51.331
2014    8        2     1  40    7.27   469.4    8.0      51.377
2014    8        2     1  46    7.27   469.7    8.0      51.423
2014    8        2     1  52    7.26   470.1    8.0      51.468
2014    8        2     1  58    7.26   470.4    8.0      51.514
2014    8        2     2   3    7.26   470.7    8.0      51.558
2014    8        2     2   9    7.26   471.1    8.0      51.603
2014    8        2     2  15    7.26   471.4    7.9      51.647
2014    8        2     2  21    7.26   471.8    7.9      51.691
2014    8        2     2  26    7.26   472.1    7.9      51.735
2014    8        2     2  32    7.26   472.5    7.9      51.778
2014    8        2     2  38    7.26   472.8    7.9      51.820
2014    8        2     2  44    7.26   473.2    7.9      51.863
2014    8        2     2  49    7.26   473.5    7.9      51.904
2014    8        2     2  55    7.26   473.9    7.9      51.946
2014    8        2     3   1    7.26   474.3    7.8      51.987
2014    8        2     3   7    7.26   474.6    7.8      52.029
2014    8        2     3  12    7.25   475.0    7.8      52.069
2014    8        2     3  18    7.25   475.3    7.8      52.110
2014    8        2     3  24    7.25   475.7    7.8      52.150
2014    8        2     3  30    7.25   476.1    7.8      52.189
2014    8        2     3  35    7.25   476.4    7.8      52.228
2014    8        2     3  41    7.25   476.8    7.8      52.265
2014    8        2     3  47    7.25   477.1    7.7      52.302
2014    8        2     3  52    7.25   477.4    7.7      52.338
2014    8        2     3  58    7.25   477.8    7.7      52.374
2014    8        2     4   4    7.24   478.1    7.7      52.410
2014    8        2     4  10    7.24   478.4    7.7      52.447
2014    8        2     4  15    7.24   478.8    7.7      52.484
2014    8        2     4  21    7.24   479.1    7.7      52.522
2014    8        2     4  27    7.24   479.5    7.7      52.561
2014    8        2     4  33    7.24   479.8    7.6      52.603
2014    8        2     4  38    7.24   480.2    7.6      52.646
2014    8        2     4  44    7.24   480.5    7.6      52.693
2014    8        2     4  50    7.24   480.9    7.6      52.742
2014    8        2     4  56    7.24   481.3    7.6      52.794
2014    8        2     5   1    7.23   481.7    7.6      52.847
2014    8        2     5   7    7.23   482.0    7.6      52.902
2014    8        2     5  13    7.23   482.4    7.6      52.958
2014    8        2     5  19    7.23   482.8    7.6      53.013
2014    8        2     5  24    7.23   483.1    7.5      53.069
2014    8        2     5  30    7.23   483.5    7.5      53.126
2014    8        2     5  36    7.23   483.9    7.5      53.184
2014    8        2     5  42    7.23   484.3    7.5      53.242
2014    8        2     5  47    7.23   484.6    7.5      53.300
2014    8        2     5  53    7.23   485.0    7.5      53.358
2014    8        2     5  59    7.22   485.4    7.5      53.418
2014    8        2     6   5    7.22   485.7    7.5      53.479
2014    8        2     6  10    7.22   486.1    7.5      53.541
2014    8        2     6  16    7.22   486.5    7.5      53.602
2014    8        2     6  22    7.22   486.9    7.4      53.665
2014    8        2     6  27    7.22   487.3    7.4      53.728
2014    8        2     6  33    7.22   487.6    7.4      53.791
2014    8        2     6  39    7.21   488.0    7.4      53.854
2014    8        2     6  45    7.21   488.4    7.4      53.915
2014    8        2     6  50    7.21   488.8    7.4      53.975
2014    8        2     6  56    7.21   489.2    7.4      54.033
2014    8        2     7   2    7.21   489.6    7.4      54.089
2014    8        2     7   8    7.20   489.9    7.4      54.142
2014    8        2     7  13    7.20   490.3    7.3      54.194
2014    8        2     7  19    7.20   490.8    7.3      54.245
2014    8        2     7  25    7.20   491.2    7.3      54.294
2014    8        2     7  31    7.20   491.6    7.3      54.345
2014    8        2     7  36    7.19   492.1    7.3      54.393
2014    8        2     7  42    7.19   492.5    7.3      54.439
2014    8        2     7  48    7.19   493.0    7.3      54.483
2014    8        2     7  54    7.18   493.4    7.2      54.524
2014    8        2     7  59    7.18   493.8    7.2      54.561
2014    8        2     8   5    7.18   494.2    7.2      54.593
2014    8        2     8  11    7.17   494.6    7.2      54.622
2014    8        2     8  17    7.17   494.9    7.2      54.651
2014    8        2     8  22    7.17   495.3    7.2      54.676
2014    8        2     8  28    7.16   495.6    7.2      54.700
2014    8        2     8  34    7.16   495.9    7.1      54.723
2014    8        2     8  39    7.16   496.3    7.1      54.746
2014    8        2     8  45    7.16   496.6    7.1      54.770
2014    8        2     8  51    7.15   496.9    7.1      54.795
2014    8        2     8  57    7.15   497.2    7.1      54.823
2014    8        2     9   2    7.15   497.5    7.1      54.854
2014    8        2     9   8    7.15   497.8    7.1      54.892
2014    8        2     9  14    7.14   498.2    7.1      54.936
2014    8        2     9  20    7.14   498.6    7.0      54.983
2014    8        2     9  25    7.14   499.0    7.0      55.032
2014    8        2     9  31    7.14   499.4    7.0      55.084
2014    8        2     9  37    7.13   499.8    7.0      55.136
2014    8        2     9  43    7.13   500.2    7.0      55.189
2014    8        2     9  48    7.13   500.6    7.0      55.237
2014    8        2     9  54    7.13   500.9    7.0      55.283
2014    8        2    10   0    7.13   501.3    7.0      55.326
2014    8        2    10   6    7.12   501.7    6.9      55.368
2014    8        2    10  11    7.12   502.1    6.9      55.408
2014    8        2    10  17    7.12   502.4    6.9      55.448
2014    8        2    10  23    7.11   502.8    6.9      55.487
2014    8        2    10  29    7.11   503.2    6.9      55.525
2014    8        2    10  34    7.11   503.6    6.9      55.563
2014    8        2    10  40    7.10   504.0    6.9      55.600
2014    8        2    10  46    7.10   504.4    6.8      55.638
2014    8        2    10  51    7.10   504.8    6.8      55.675
2014    8        2    10  57    7.09   505.2    6.8      55.711
2014    8        2    11   3    7.09   505.6    6.8      55.748
2014    8        2    11   9    7.09   506.0    6.8      55.784
2014    8        2    11  14    7.08   506.3    6.8      55.820
2014    8        2    11  20    7.08   506.7    6.8      55.857
2014    8        2    11  26    7.08   507.1    6.8      55.893
2014    8        2    11  32    7.07   507.5    6.7      55.929
2014    8        2    11  37    7.07   507.9    6.7      55.966
2014    8        2    11  43    7.07   508.3    6.7      56.004
2014    8        2    11  49    7.06   508.7    6.7      56.043
2014    8        2    11  55    7.06   509.1    6.7      56.084
2014    8        2    12   0    7.05   509.6    6.7      56.127
2014    8        2    12   6    7.05   510.0    6.7      56.172
2014    8        2    12  12    7.05   510.5    6.6      56.217
2014    8        2    12  18    7.04   511.0    6.6      56.263
2014    8        2    12  23    7.04   511.4    6.6      56.307
2014    8        2    12  29    7.03   511.8    6.6      56.349
2014    8        2    12  35    7.03   512.2    6.6      56.388
2014    8        2    12  41    7.02   512.6    6.6      56.422
2014    8        2    12  46    7.02   513.0    6.6      56.455
2014    8        2    12  52    7.01   513.4    6.5      56.487
2014    8        2    12  58    7.01   513.7    6.5      56.518
2014    8        2    13   4    7.00   514.1    6.5      56.548
2014    8        2    13   9    7.00   514.5    6.5      56.575
2014    8        2    13  15    6.99   514.8    6.5      56.603
2014    8        2    13  21    6.99   515.1    6.5      56.630
2014    8        2    13  26    6.98   515.5    6.5      56.659
2014    8        2    13  32    6.98   515.8    6.4      56.689
2014    8        2    13  38    6.98   516.1    6.4      56.721
2014    8        2    13  44    6.97   516.5    6.4      56.757
2014    8        2    13  49    6.97   516.8    6.4      56.798
2014    8        2    13  55    6.96   517.2    6.4      56.840
2014    8        2    14   1    6.96   517.6    6.4      56.883
2014    8        2    14   7    6.95   518.0    6.4      56.926
2014    8        2    14  12    6.95   518.4    6.4      56.967
2014    8        2    14  18    6.94   518.8    6.3      57.006
2014    8        2    14  24    6.94   519.2    6.3      57.039
2014    8        2    14  30    6.93   519.6    6.3      57.069
2014    8        2    14  35    6.93   520.0    6.3      57.095
2014    8        2    14  41    6.92   520.4    6.3      57.122
2014    8        2    14  47    6.92   520.8    6.3      57.147
2014    8        2    14  53    6.91   521.3    6.2      57.170
2014    8        2    14  58    6.91   521.7    6.2      57.190
2014    8        2    15   4    6.90   522.1    6.2      57.206
2014    8        2    15  10    6.90   522.5    6.2      57.217
2014    8        2    15  16    6.89   522.8    6.2      57.223
2014    8        2    15  21    6.88   523.2    6.2      57.225
2014    8        2    15  27    6.88   523.5    6.2      57.225
2014    8        2    15  33    6.87   523.7    6.1      57.222
2014    8        2    15  38    6.87   524.0    6.1      57.219
2014    8        2    15  44    6.86   524.2    6.1      57.215
2014    8        2    15  50    6.86   524.5    6.1      57.214
2014    8        2    15  56    6.85   524.7    6.1      57.218
2014    8        2    16   1    6.85   525.0    6.1      57.225
2014    8        2    16   7    6.84   525.2    6.1      57.238
2014    8        2    16  13    6.84   525.5    6.1      57.260
2014    8        2    16  19    6.83   525.8    6.0      57.291
2014    8        2    16  24    6.83   526.2    6.0      57.327
2014    8        2    16  30    6.82   526.6    6.0      57.365
2014    8        2    16  36    6.82   527.0    6.0      57.405
2014    8        2    16  42    6.81   527.3    6.0      57.445
2014    8        2    16  47    6.81   527.7    6.0      57.484
2014    8        2    16  53    6.80   528.1    6.0      57.518
2014    8        2    16  59    6.80   528.4    6.0      57.548
2014    8        2    17   5    6.79   528.7    6.0      57.573
2014    8        2    17  10    6.79   529.1    5.9      57.596
2014    8        2    17  16    6.78   529.4    5.9      57.617
2014    8        2    17  22    6.78   529.7    5.9      57.636
2014    8        2    17  28    6.77   530.0    5.9      57.654
2014    8        2    17  33    6.77   530.4    5.9      57.670
2014    8        2    17  39    6.76   530.7    5.9      57.686
2014    8        2    17  45    6.76   531.0    5.9      57.700
2014    8        2    17  50    6.75   531.3    5.9      57.714
2014    8        2    17  56    6.74   531.7    5.8      57.727
2014    8        2    18   2    6.74   532.0    5.8      57.740
2014    8        2    18   8    6.73   532.3    5.8      57.752
2014    8        2    18  13    6.73   532.6    5.8      57.765
2014    8        2    18  19    6.72   533.0    5.8      57.778
2014    8        2    18  25    6.71   533.3    5.8      57.792
2014    8        2    18  31    6.71   533.6    5.8      57.806
2014    8        2    18  36    6.70   534.0    5.8      57.821
2014    8        2    18  42    6.70   534.3    5.7      57.836
2014    8        2    18  48    6.69   534.6    5.7      57.852
2014    8        2    18  54    6.68   535.0    5.7      57.869
2014    8        2    18  59    6.68   535.3    5.7      57.886
2014    8        2    19   5    6.67   535.7    5.7      57.904
2014    8        2    19  11    6.67   536.1    5.7      57.921
2014    8        2    19  17    6.66   536.5    5.7      57.937
2014    8        2    19  22    6.65   536.9    5.7      57.953
2014    8        2    19  28    6.65   537.3    5.6      57.967
2014    8        2    19  34    6.64   537.6    5.6      57.978
2014    8        2    19  40    6.63   538.0    5.6      57.986
2014    8        2    19  45    6.63   538.3    5.6      57.990
2014    8        2    19  51    6.62   538.6    5.6      57.990
2014    8        2    19  57    6.61   538.9    5.6      57.988
2014    8        2    20   2    6.60   539.2    5.6      57.984
2014    8        2    20   8    6.60   539.5    5.6      57.978
2014    8        2    20  14    6.59   539.8    5.5      57.969
2014    8        2    20  20    6.59   540.0    5.5      57.960
2014    8        2    20  25    6.58   540.3    5.5      57.952
2014    8        2    20  31    6.57   540.5    5.5      57.944
2014    8        2    20  37    6.57   540.7    5.5      57.938
2014    8        2    20  43    6.56   540.9    5.5      57.933
2014    8        2    20  48    6.56   541.2    5.5      57.934
2014    8        2    20  54    6.55   541.4    5.5      57.940
2014    8        2    21   0    6.54   541.7    5.4      57.950
2014    8        2    21   6    6.54   542.0    5.4      57.963
2014    8        2    21  11    6.53   542.3    5.4      57.977
2014    8        2    21  17    6.53   542.6    5.4      57.993
2014    8        2    21  23    6.52   542.9    5.4      58.010
2014    8        2    21  29    6.51   543.1    5.4      58.023
2014    8        2    21  34    6.51   543.4    5.4      58.034
2014    8        2    21  40    6.50   543.7    5.4      58.041
2014    8        2    21  46    6.50   543.9    5.4      58.047
2014    8        2    21  52    6.49   544.2    5.4      58.053
2014    8        2    21  57    6.49   544.5    5.3      58.059
2014    8        2    22   3    6.48   544.8    5.3      58.064
2014    8        2    22   9    6.47   545.0    5.3      58.068
2014    8        2    22  15    6.47   545.3    5.3      58.071
2014    8        2    22  20    6.46   545.6    5.3      58.072
2014    8        2    22  26    6.45   545.8    5.3      58.071
2014    8        2    22  32    6.45   546.0    5.3      58.069
2014    8        2    22  37    6.44   546.3    5.3      58.066
2014    8        2    22  43    6.44   546.5    5.3      58.064
2014    8        2    22  49    6.43   546.7    5.3      58.062
2014    8        2    22  55    6.43   546.9    5.2      58.062
2014    8        2    23   0    6.42   547.1    5.2      58.065
2014    8        2    23   6    6.41   547.4    5.2      58.071
2014    8        2    23  12    6.41   547.6    5.2      58.080
2014    8        2    23  18    6.40   547.9    5.2      58.090
2014    8        2    23  23    6.40   548.2    5.2      58.101
2014    8        2    23  29    6.39   548.5    5.2      58.112
2014    8        2    23  35    6.39   548.7    5.2      58.122
2014    8        2    23  41    6.38   549.0    5.2      58.130
2014    8        2    23  46    6.38   549.3    5.2      58.136
2014    8        2    23  52    6.37   549.6    5.2      58.138
2014    8        2    23  58    6.36   549.8    5.1      58.139
2014    8        3     0   4    6.36   550.1    5.1      58.137
2014    8        3     0   9    6.35   550.3    5.1      58.134
2014    8        3     0  15    6.35   550.6    5.1      58.130
2014    8        3     0  21    6.34   550.8    5.1      58.124
2014    8        3     0  26    6.33   551.1    5.1      58.118
2014    8        3     0  32    6.33   551.4    5.1      58.112
2014    8        3     0  38    6.32   551.6    5.1      58.104
2014    8        3     0  44    6.32   551.9    5.1      58.095
2014    8        3     0  49    6.31   552.1    5.1      58.085
2014    8        3     0  55    6.30   552.3    5.1      58.073
2014    8        3     1   1    6.30   552.6    5.0      58.061
2014    8        3     1   7    6.29   552.8    5.0      58.047
2014    8        3     1  12    6.28   553.0    5.0      58.033
2014    8        3     1  18    6.28   553.2    5.0      58.019
2014    8        3     1  24    6.27   553.4    5.0      58.005
2014    8        3     1  30    6.27   553.6    5.0      57.990
2014    8        3     1  35    6.26   553.8    5.0      57.976
2014    8        3     1  41    6.25   554.1    5.0      57.963
2014    8        3     1  47    6.25   554.3    5.0      57.950
2014    8        3     1  53    6.24   554.5    5.0      57.937
2014    8        3     1  58    6.24   554.7    5.0      57.925
2014    8        3     2   4    6.23   554.9    4.9      57.915
2014    8        3     2  10    6.22   555.1    4.9      57.905
2014    8        3     2  16    6.22   555.4    4.9      57.896
2014    8        3     2  21    6.21   555.6    4.9      57.887
2014    8        3     2  27    6.21   555.8    4.9      57.879
2014    8        3     2  33    6.20   556.0    4.9      57.871
2014    8        3     2  39    6.19   556.2    4.9      57.862
2014    8        3     2  44    6.19   556.4    4.9      57.854
2014    8        3     2  50    6.18   556.7    4.9      57.845
2014    8        3     2  56    6.18   556.9    4.9      57.836
2014    8        3     3   1    6.17   557.1    4.9      57.827
2014    8        3     3   7    6.17   557.3    4.9      57.818
2014    8        3     3  13    6.16   557.5    4.8      57.808
2014    8        3     3  19    6.15   557.7    4.8      57.798
2014    8        3     3  24    6.15   557.9    4.8      57.788
2014    8        3     3  30    6.14   558.1    4.8      57.778
2014    8        3     3  36    6.14   558.3    4.8      57.768
2014    8        3     3  42    6.13   558.5    4.8      57.759
2014    8        3     3  47    6.13   558.7    4.8      57.749
2014    8        3     3  53    6.12   558.9    4.8      57.739
2014    8        3     3  59    6.11   559.1    4.8      57.730
2014    8        3     4   5    6.11   559.3    4.8      57.721
2014    8        3     4  10    6.10   559.5    4.8      57.712
2014    8        3     4  16    6.10   559.7    4.8      57.703
2014    8        3     4  22    6.09   559.9    4.7      57.695
2014    8        3     4  28    6.09   560.0    4.7      57.687
2014    8        3     4  33    6.08   560.2    4.7      57.679
2014    8        3     4  39    6.07   560.4    4.7      57.672
2014    8        3     4  45    6.07   560.6    4.7      57.665
2014    8        3     4  51    6.06   560.8    4.7      57.658
2014    8        3     4  56    6.06   561.0    4.7      57.652
2014    8        3     5   2    6.05   561.1    4.7      57.645
2014    8        3     5   8    6.05   561.3    4.7      57.639
2014    8        3     5  13    6.04   561.5    4.7      57.634
2014    8        3     5  19    6.04   561.7    4.7      57.628
2014    8        3     5  25    6.03   561.8    4.7      57.622
2014    8        3     5  31    6.03   562.0    4.7      57.617
2014    8        3     5  36    6.02   562.2    4.7      57.611
2014    8        3     5  42    6.01   562.4    4.6      57.605
2014    8        3     5  48    6.01   562.5    4.6      57.600
2014    8        3     5  54    6.00   562.7    4.6      57.594
2014    8        3     5  59    6.00   562.9    4.6      57.588
2014    8        3     6   5    5.99   563.0    4.6      57.582
2014    8        3     6  11    5.99   563.2    4.6      57.576
2014    8        3     6  17    5.98   563.4    4.6      57.570
2014    8        3     6  22    5.98   563.6    4.6      57.563
2014    8        3     6  28    5.97   563.7    4.6      57.556
2014    8        3     6  34    5.97   563.9    4.6      57.549
2014    8        3     6  40    5.96   564.1    4.6      57.541
2014    8        3     6  45    5.96   564.2    4.6      57.532
2014    8        3     6  51    5.95   564.4    4.6      57.523
2014    8        3     6  57    5.95   564.5    4.6      57.513
2014    8        3     7   3    5.94   564.7    4.6      57.503
2014    8        3     7   8    5.93   564.9    4.6      57.492
2014    8        3     7  14    5.93   565.0    4.5      57.481
2014    8        3     7  20    5.92   565.2    4.5      57.470
2014    8        3     7  25    5.92   565.3    4.5      57.458
2014    8        3     7  31    5.91   565.5    4.5      57.446
2014    8        3     7  37    5.91   565.7    4.5      57.434
2014    8        3     7  43    5.90   565.8    4.5      57.421
2014    8        3     7  48    5.90   566.0    4.5      57.408
2014    8        3     7  54    5.89   566.1    4.5      57.394
2014    8        3     8   0    5.89   566.3    4.5      57.380
2014    8        3     8   6    5.88   566.4    4.5      57.366
2014    8        3     8  11    5.88   566.6    4.5      57.351
2014    8        3     8  17    5.87   566.7    4.5      57.336
2014    8        3     8  23    5.87   566.9    4.5      57.321
2014    8        3     8  29    5.86   567.0    4.5      57.305
2014    8        3     8  34    5.85   567.2    4.5      57.288
2014    8        3     8  40    5.85   567.3    4.5      57.272
2014    8        3     8  46    5.84   567.4    4.5      57.255
2014    8        3     8  52    5.84   567.6    4.4      57.237
2014    8        3     8  57    5.83   567.7    4.4      57.220
2014    8        3     9   3    5.83   567.9    4.4      57.202
2014    8        3     9   9    5.82   568.0    4.4      57.184
2014    8        3     9  15    5.82   568.1    4.4      57.165
2014    8        3     9  20    5.81   568.3    4.4      57.147
2014    8        3     9  26    5.81   568.4    4.4      57.128
2014    8        3     9  32    5.80   568.5    4.4      57.109
2014    8        3     9  37    5.80   568.7    4.4      57.090
2014    8        3     9  43    5.79   568.8    4.4      57.070
2014    8        3     9  49    5.79   568.9    4.4      57.051
2014    8        3     9  55    5.78   569.0    4.4      57.032
2014    8        3    10   0    5.77   569.2    4.4      57.013
2014    8        3    10   6    5.77   569.3    4.4      56.993
2014    8        3    10  12    5.76   569.4    4.4      56.974
2014    8        3    10  18    5.76   569.5    4.4      56.955
2014    8        3    10  23    5.75   569.6    4.3      56.937
2014    8        3    10  29    5.75   569.8    4.3      56.918
2014    8        3    10  35    5.74   569.9    4.3      56.900
2014    8        3    10  41    5.74   570.0    4.3      56.882
2014    8        3    10  46    5.73   570.1    4.3      56.864
2014    8        3    10  52    5.73   570.2    4.3      56.847
2014    8        3    10  58    5.72   570.3    4.3      56.830
2014    8        3    11   4    5.72   570.4    4.3      56.813
2014    8        3    11   9    5.71   570.5    4.3      56.796
2014    8        3    11  15    5.71   570.6    4.3      56.780
2014    8        3    11  21    5.70   570.7    4.3      56.764
2014    8        3    11  27    5.70   570.9    4.3      56.748
2014    8        3    11  32    5.69   571.0    4.3      56.733
2014    8        3    11  38    5.69   571.1    4.3      56.718
2014    8        3    11  44    5.68   571.2    4.3      56.702
2014    8        3    11  50    5.68   571.3    4.3      56.687
2014    8        3    11  55    5.67   571.4    4.3      56.672
2014    8        3    12   1    5.67   571.5    4.3      56.657
2014    8        3    12   7    5.66   571.6    4.2      56.642
2014    8        3    12  12    5.66   571.6    4.2      56.627
2014    8        3    12  18    5.65   571.7    4.2      56.612
2014    8        3    12  24    5.65   571.8    4.2      56.597
2014    8        3    12  30    5.64   571.9    4.2      56.582
2014    8        3    12  35    5.64   572.0    4.2      56.567
2014    8        3    12  41    5.63   572.1    4.2      56.552
2014    8        3    12  47    5.63   572.2    4.2      56.537
2014    8        3    12  53    5.62   572.3    4.2      56.522
2014    8        3    12  58    5.62   572.4    4.2      56.506
2014    8        3    13   4    5.61   572.5    4.2      56.491
2014    8        3    13  10    5.61   572.6    4.2      56.475
2014    8        3    13  16    5.60   572.7    4.2      56.460
2014    8        3    13  21    5.60   572.7    4.2      56.444
2014    8        3    13  27    5.59   572.8    4.2      56.428
2014    8        3    13  33    5.59   572.9    4.2      56.413
2014    8        3    13  39    5.59   573.0    4.2      56.397
2014    8        3    13  44    5.58   573.1    4.2      56.381
2014    8        3    13  50    5.58   573.2    4.2      56.365
2014    8        3    13  56    5.57   573.2    4.2      56.349
2014    8        3    14   1    5.57   573.3    4.2      56.333
2014    8        3    14   7    5.56   573.4    4.2      56.317
2014    8        3    14  13    5.56   573.5    4.1      56.301
2014    8        3    14  19    5.55   573.6    4.1      56.285
2014    8        3    14  24    5.55   573.6    4.1      56.269
2014    8        3    14  30    5.54   573.7    4.1      56.253
2014    8        3    14  36    5.54   573.8    4.1      56.237
2014    8        3    14  42    5.53   573.9    4.1      56.222
2014    8        3    14  47    5.53   574.0    4.1      56.206
2014    8        3    14  53    5.52   574.0    4.1      56.190
2014    8        3    14  59    5.52   574.1    4.1      56.174
2014    8        3    15   5    5.52   574.2    4.1      56.158
2014    8        3    15  10    5.51   574.3    4.1      56.142
2014    8        3    15  16    5.51   574.3    4.1      56.126
2014    8        3    15  22    5.50   574.4    4.1      56.110
2014    8        3    15  28    5.50   574.5    4.1      56.093
2014    8        3    15  33    5.49   574.5    4.1      56.076
2014    8        3    15  39    5.49   574.6    4.1      56.059
2014    8        3    15  45    5.48   574.7    4.1      56.042
2014    8        3    15  51    5.48   574.7    4.1      56.025
2014    8        3    15  56    5.47   574.8    4.1      56.007
2014    8        3    16   2    5.47   574.9    4.1      55.990
2014    8        3    16   8    5.46   574.9    4.1      55.972
2014    8        3    16  13    5.46   575.0    4.1      55.953
2014    8        3    16  19    5.45   575.0    4.1      55.935
2014    8        3    16  25    5.45   575.1    4.1      55.917
2014    8        3    16  31    5.45   575.2    4.1      55.898
2014    8        3    16  36    5.44   575.2    4.0      55.879
2014    8        3    16  42    5.44   575.3    4.0      55.860
2014    8        3    16  48    5.43   575.3    4.0      55.840
2014    8        3    16  54    5.43   575.4    4.0      55.821
2014    8        3    16  59    5.42   575.4    4.0      55.801
2014    8        3    17   5    5.42   575.5    4.0      55.781
2014    8        3    17  11    5.41   575.5    4.0      55.761
2014    8        3    17  17    5.41   575.6    4.0      55.740
2014    8        3    17  22    5.40   575.6    4.0      55.720
2014    8        3    17  28    5.40   575.7    4.0      55.700
2014    8        3    17  34    5.39   575.7    4.0      55.679
2014    8        3    17  40    5.39   575.8    4.0      55.658
2014    8        3    17  45    5.39   575.8    4.0      55.637
2014    8        3    17  51    5.38   575.9    4.0      55.616
2014    8        3    17  57    5.38   575.9    4.0      55.595
2014    8        3    18   3    5.37   575.9    4.0      55.574
2014    8        3    18   8    5.37   576.0    4.0      55.553
2014    8        3    18  14    5.36   576.0    4.0      55.531
2014    8        3    18  20    5.36   576.1    4.0      55.510
2014    8        3    18  26    5.35   576.1    4.0      55.488
2014    8        3    18  31    5.35   576.1    4.0      55.467
2014    8        3    18  37    5.34   576.2    4.0      55.445
2014    8        3    18  43    5.34   576.2    4.0      55.423
2014    8        3    18  48    5.34   576.2    4.0      55.401
2014    8        3    18  54    5.33   576.3    4.0      55.379
2014    8        3    19   0    5.33   576.3    3.9      55.357
2014    8        3    19   6    5.32   576.3    3.9      55.334
2014    8        3    19  11    5.32   576.3    3.9      55.312
2014    8        3    19  17    5.31   576.4    3.9      55.289
2014    8        3    19  23    5.31   576.4    3.9      55.267
2014    8        3    19  29    5.31   576.4    3.9      55.244
2014    8        3    19  34    5.30   576.4    3.9      55.221
2014    8        3    19  40    5.30   576.5    3.9      55.198
2014    8        3    19  46    5.29   576.5    3.9      55.175
2014    8        3    19  52    5.29   576.5    3.9      55.152
2014    8        3    19  57    5.28   576.5    3.9      55.129
2014    8        3    20   3    5.28   576.5    3.9      55.105
2014    8        3    20   9    5.28   576.6    3.9      55.082
2014    8        3    20  15    5.27   576.6    3.9      55.059
2014    8        3    20  20    5.27   576.6    3.9      55.036
2014    8        3    20  26    5.26   576.6    3.9      55.013
2014    8        3    20  32    5.26   576.6    3.9      54.990
2014    8        3    20  38    5.26   576.6    3.9      54.967
2014    8        3    20  43    5.25   576.7    3.9      54.944
2014    8        3    20  49    5.25   576.7    3.9      54.922
2014    8        3    20  55    5.24   576.7    3.9      54.900
2014    8        3    21   0    5.24   576.7    3.9      54.877
2014    8        3    21   6    5.24   576.7    3.9      54.855
2014    8        3    21  12    5.23   576.7    3.9      54.834
2014    8        3    21  18    5.23   576.7    3.9      54.812
2014    8        3    21  23    5.22   576.7    3.9      54.791
2014    8        3    21  29    5.22   576.8    3.9      54.770
2014    8        3    21  35    5.22   576.8    3.9      54.749
2014    8        3    21  41    5.21   576.8    3.9      54.728
2014    8        3    21  46    5.21   576.8    3.9      54.708
2014    8        3    21  52    5.20   576.8    3.9      54.688
2014    8        3    21  58    5.20   576.8    3.8      54.669
2014    8        3    22   4    5.20   576.8    3.8      54.649
2014    8        3    22   9    5.19   576.8    3.8      54.630
2014    8        3    22  15    5.19   576.8    3.8      54.611
2014    8        3    22  21    5.18   576.8    3.8      54.593
2014    8        3    22  27    5.18   576.8    3.8      54.574
2014    8        3    22  32    5.18   576.8    3.8      54.556
2014    8        3    22  38    5.17   576.8    3.8      54.538
2014    8        3    22  44    5.17   576.8    3.8      54.521
2014    8        3    22  49    5.17   576.8    3.8      54.504
2014    8        3    22  55    5.16   576.8    3.8      54.486
2014    8        3    23   1    5.16   576.9    3.8      54.469
2014    8        3    23   7    5.15   576.9    3.8      54.453
2014    8        3    23  12    5.15   576.9    3.8      54.436
2014    8        3    23  18    5.15   576.9    3.8      54.419
2014    8        3    23  24    5.14   576.8    3.8      54.403
2014    8        3    23  30    5.14   576.8    3.8      54.387
2014    8        3    23  35    5.13   576.8    3.8      54.370
2014    8        3    23  41    5.13   576.8    3.8      54.354
2014    8        3    23  47    5.13   576.8    3.8      54.338
2014    8        3    23  53    5.12   576.8    3.8      54.322
2014    8        3    23  58    5.12   576.8    3.8      54.306
2014    8        4     0   4    5.11   576.8    3.8      54.290
2014    8        4     0  10    5.11   576.8    3.8      54.273
2014    8        4     0  16    5.11   576.8    3.8      54.257
2014    8        4     0  21    5.10   576.8    3.8      54.240
2014    8        4     0  27    5.10   576.8    3.8      54.224
2014    8        4     0  33    5.09   576.8    3.8      54.207
2014    8        4     0  39    5.09   576.8    3.8      54.190
2014    8        4     0  44    5.09   576.7    3.8      54.173
2014    8        4     0  50    5.08   576.7    3.8      54.156
2014    8        4     0  56    5.08   576.7    3.8      54.139
2014    8        4     1   1    5.07   576.7    3.8      54.121
2014    8        4     1   7    5.07   576.7    3.8      54.103
2014    8        4     1  13    5.07   576.7    3.8      54.085
2014    8        4     1  19    5.06   576.6    3.8      54.066
2014    8        4     1  24    5.06   576.6    3.8      54.047
2014    8        4     1  30    5.06   576.6    3.8      54.028
2014    8        4     1  36    5.05   576.6    3.8      54.009
2014    8        4     1  42    5.05   576.6    3.8      53.989
2014    8        4     1  47    5.04   576.5    3.8      53.969
2014    8        4     1  53    5.04   576.5    3.7      53.949
2014    8        4     1  59    5.04   576.5    3.7      53.929
2014    8        4     2   5    5.03   576.5    3.7      53.908
2014    8        4     2  10    5.03   576.4    3.7      53.886
2014    8        4     2  16    5.02   576.4    3.7      53.865
2014    8        4     2  22    5.02   576.4    3.7      53.843
2014    8        4     2  28    5.02   576.3    3.7      53.820
2014    8        4     2  33    5.01   576.3    3.7      53.797
2014    8        4     2  39    5.01   576.3    3.7      53.774
2014    8        4     2  45    5.01   576.2    3.7      53.751
2014    8        4     2  51    5.00   576.2    3.7      53.727
2014    8        4     2  56    5.00   576.2    3.7      53.703
2014    8        4     3   2    5.00   576.1    3.7      53.678
2014    8        4     3   8    4.99   576.1    3.7      53.654
2014    8        4     3  13    4.99   576.0    3.7      53.628
2014    8        4     3  19    4.98   576.0    3.7      53.603
2014    8        4     3  25    4.98   576.0    3.7      53.577
2014    8        4     3  31    4.98   575.9    3.7      53.550
2014    8        4     3  36    4.97   575.9    3.7      53.524
2014    8        4     3  42    4.97   575.8    3.7      53.497
2014    8        4     3  48    4.97   575.8    3.7      53.469
2014    8        4     3  54    4.96   575.8    3.7      53.442
2014    8        4     3  59    4.96   575.7    3.7      53.414
2014    8        4     4   5    4.96   575.7    3.7      53.386
2014    8        4     4  11    4.95   575.6    3.7      53.358
2014    8        4     4  17    4.95   575.6    3.7      53.330
2014    8        4     4  22    4.95   575.5    3.7      53.301
2014    8        4     4  28    4.94   575.5    3.7      53.273
2014    8        4     4  34    4.94   575.4    3.7      53.244
2014    8        4     4  40    4.94   575.4    3.7      53.215
2014    8        4     4  45    4.93   575.3    3.7      53.186
2014    8        4     4  51    4.93   575.3    3.7      53.157
2014    8        4     4  57    4.93   575.2    3.7      53.129
2014    8        4     5   3    4.92   575.2    3.7      53.100
2014    8        4     5   8    4.92   575.1    3.7      53.071
2014    8        4     5  14    4.92   575.0    3.7      53.042
2014    8        4     5  20    4.91   575.0    3.7      53.013
2014    8        4     5  25    4.91   574.9    3.7      52.984
2014    8        4     5  31    4.91   574.9    3.7      52.956
2014    8        4     5  37    4.90   574.8    3.7      52.927
2014    8        4     5  43    4.90   574.8    3.7      52.898
2014    8        4     5  48    4.90   574.7    3.7      52.870
2014    8        4     5  54    4.89   574.6    3.7      52.842
2014    8        4     6   0    4.89   574.6    3.6      52.814
2014    8        4     6   6    4.89   574.5    3.6      52.786
2014    8        4     6  11    4.88   574.5    3.6      52.758
2014    8        4     6  17    4.88   574.4    3.6      52.730
2014    8        4     6  23    4.88   574.3    3.6      52.703
2014    8        4     6  29    4.87   574.3    3.6      52.676
2014    8        4     6  34    4.87   574.2    3.6      52.648
2014    8        4     6  40    4.87   574.1    3.6      52.621
2014    8        4     6  46    4.86   574.1    3.6      52.594
2014    8        4     6  52    4.86   574.0    3.6      52.567
2014    8        4     6  57    4.86   574.0    3.6      52.541
2014    8        4     7   3    4.85   573.9    3.6      52.514
2014    8        4     7   9    4.85   573.8    3.6      52.487
2014    8        4     7  15    4.85   573.8    3.6      52.460
2014    8        4     7  20    4.84   573.7    3.6      52.433
2014    8        4     7  26    4.84   573.6    3.6      52.406
2014    8        4     7  32    4.84   573.5    3.6      52.379
2014    8        4     7  37    4.83   573.5    3.6      52.352
2014    8        4     7  43    4.83   573.4    3.6      52.325
2014    8        4     7  49    4.83   573.3    3.6      52.297
2014    8        4     7  55    4.82   573.3    3.6      52.270
2014    8        4     8   0    4.82   573.2    3.6      52.242
2014    8        4     8   6    4.82   573.1    3.6      52.215
2014    8        4     8  12    4.81   573.0    3.6      52.187
2014    8        4     8  18    4.81   573.0    3.6      52.159
2014    8        4     8  23    4.81   572.9    3.6      52.130
2014    8        4     8  29    4.80   572.8    3.6      52.102
2014    8        4     8  35    4.80   572.7    3.6      52.074
2014    8        4     8  41    4.80   572.6    3.6      52.045
2014    8        4     8  46    4.79   572.6    3.6      52.017
2014    8        4     8  52    4.79   572.5    3.6      51.988
2014    8        4     8  58    4.79   572.4    3.6      51.959
2014    8        4     9   4    4.78   572.3    3.6      51.931
2014    8        4     9   9    4.78   572.2    3.6      51.902
2014    8        4     9  15    4.78   572.1    3.6      51.873
2014    8        4     9  21    4.77   572.0    3.6      51.844
2014    8        4     9  27    4.77   571.9    3.6      51.816
2014    8        4     9  32    4.77   571.9    3.6      51.787
2014    8        4     9  38    4.77   571.8    3.6      51.759
2014    8        4     9  44    4.76   571.7    3.6      51.730
2014    8        4     9  49    4.76   571.6    3.6      51.702
2014    8        4     9  55    4.76   571.5    3.6      51.674
2014    8        4    10   1    4.75   571.4    3.6      51.646
2014    8        4    10   7    4.75   571.3    3.5      51.618
2014    8        4    10  12    4.75   571.2    3.5      51.590
2014    8        4    10  18    4.74   571.1    3.5      51.562
2014    8        4    10  24    4.74   571.0    3.5      51.535
2014    8        4    10  30    4.74   570.9    3.5      51.507
2014    8        4    10  35    4.74   570.8    3.5      51.480
2014    8        4    10  41    4.73   570.7    3.5      51.453
2014    8        4    10  47    4.73   570.7    3.5      51.426
2014    8        4    10  53    4.73   570.6    3.5      51.399
2014    8        4    10  58    4.72   570.5    3.5      51.372
2014    8        4    11   4    4.72   570.4    3.5      51.345
2014    8        4    11  10    4.72   570.3    3.5      51.318
2014    8        4    11  16    4.72   570.2    3.5      51.291
2014    8        4    11  21    4.71   570.1    3.5      51.264
2014    8        4    11  27    4.71   570.0    3.5      51.237
2014    8        4    11  33    4.71   569.9    3.5      51.211
2014    8        4    11  39    4.70   569.8    3.5      51.184
2014    8        4    11  44    4.70   569.7    3.5      51.157
2014    8        4    11  50    4.70   569.6    3.5      51.129
2014    8        4    11  56    4.70   569.5    3.5      51.102
2014    8        4    12   1    4.69   569.4    3.5      51.075
2014    8        4    12   7    4.69   569.3    3.5      51.048
2014    8        4    12  13    4.69   569.2    3.5      51.020
2014    8        4    12  19    4.69   569.1    3.5      50.993
2014    8        4    12  24    4.68   569.0    3.5      50.965
2014    8        4    12  30    4.68   568.9    3.5      50.937
2014    8        4    12  36    4.68   568.8    3.5      50.909
2014    8        4    12  42    4.67   568.7    3.5      50.882
2014    8        4    12  47    4.67   568.6    3.5      50.853
2014    8        4    12  53    4.67   568.5    3.5      50.825
2014    8        4    12  59    4.67   568.4    3.5      50.797
2014    8        4    13   5    4.66   568.3    3.5      50.769
2014    8        4    13  10    4.66   568.2    3.5      50.741
2014    8        4    13  16    4.66   568.1    3.5      50.712
2014    8        4    13  22    4.66   568.0    3.5      50.684
2014    8        4    13  28    4.65   567.9    3.5      50.656
2014    8        4    13  33    4.65   567.8    3.5      50.627
2014    8        4    13  39    4.65   567.7    3.5      50.598
2014    8        4    13  45    4.64   567.6    3.5      50.570
2014    8        4    13  51    4.64   567.5    3.5      50.541
2014    8        4    13  56    4.64   567.4    3.5      50.512
2014    8        4    14   2    4.64   567.3    3.5      50.483
2014    8        4    14   8    4.63   567.1    3.5      50.455
2014    8        4    14  13    4.63   567.0    3.5      50.426
2014    8        4    14  19    4.63   566.9    3.5      50.397
2014    8        4    14  25    4.63   566.8    3.5      50.367
2014    8        4    14  31    4.62   566.7    3.5      50.338
2014    8        4    14  36    4.62   566.6    3.5      50.309
2014    8        4    14  42    4.62   566.5    3.5      50.279
2014    8        4    14  48    4.62   566.4    3.5      50.250
2014    8        4    14  54    4.61   566.3    3.5      50.220
2014    8        4    14  59    4.61   566.2    3.5      50.190
2014    8        4    15   5    4.61   566.1    3.5      50.160
2014    8        4    15  11    4.61   566.0    3.5      50.130
2014    8        4    15  17    4.60   565.8    3.5      50.099
2014    8        4    15  22    4.60   565.7    3.5      50.069
2014    8        4    15  28    4.60   565.6    3.5      50.038
2014    8        4    15  34    4.59   565.5    3.5      50.007
2014    8        4    15  40    4.59   565.4    3.5      49.976
2014    8        4    15  45    4.59   565.3    3.5      49.944
2014    8        4    15  51    4.59   565.2    3.5      49.913
2014    8        4    15  57    4.58   565.0    3.5      49.881
2014    8        4    16   3    4.58   564.9    3.5      49.849
2014    8        4    16   8    4.58   564.8    3.5      49.817
2014    8        4    16  14    4.58   564.7    3.5      49.785
2014    8        4    16  20    4.57   564.6    3.5      49.752
2014    8        4    16  25    4.57   564.4    3.5      49.720
2014    8        4    16  31    4.57   564.3    3.5      49.688
2014    8        4    16  37    4.57   564.2    3.5      49.655
2014    8        4    16  43    4.56   564.1    3.5      49.623
2014    8        4    16  48    4.56   563.9    3.5      49.590
2014    8        4    16  54    4.56   563.8    3.5      49.557
2014    8        4    17   0    4.56   563.7    3.5      49.524
2014    8        4    17   6    4.55   563.6    3.5      49.491
2014    8        4    17  11    4.55   563.4    3.5      49.458
2014    8        4    17  17    4.55   563.3    3.5      49.425
2014    8        4    17  23    4.55   563.2    3.5      49.392
2014    8        4    17  29    4.54   563.1    3.5      49.359
2014    8        4    17  34    4.54   562.9    3.5      49.325
2014    8        4    17  40    4.54   562.8    3.5      49.292
2014    8        4    17  46    4.54   562.7    3.5      49.259
2014    8        4    17  52    4.53   562.5    3.5      49.225
2014    8        4    17  57    4.53   562.4    3.5      49.192
2014    8        4    18   3    4.53   562.3    3.5      49.159
2014    8        4    18   9    4.53   562.1    3.5      49.126
2014    8        4    18  15    4.52   562.0    3.5      49.092
2014    8        4    18  20    4.52   561.9    3.5      49.059
2014    8        4    18  26    4.52   561.7    3.5      49.026
2014    8        4    18  32    4.52   561.6    3.5      48.994
2014    8        4    18  37    4.51   561.5    3.5      48.961
2014    8        4    18  43    4.51   561.3    3.5      48.929
2014    8        4    18  49    4.51   561.2    3.5      48.897
2014    8        4    18  55    4.51   561.0    3.5      48.865
2014    8        4    19   0    4.50   560.9    3.5      48.834
2014    8        4    19   6    4.50   560.8    3.5      48.803
2014    8        4    19  12    4.50   560.6    3.5      48.772
2014    8        4    19  18    4.50   560.5    3.5      48.742
2014    8        4    19  23    4.50   560.3    3.5      48.712
2014    8        4    19  29    4.49   560.2    3.5      48.683
2014    8        4    19  35    4.49   560.0    3.5      48.654
2014    8        4    19  41    4.49   559.9    3.5      48.625
2014    8        4    19  46    4.49   559.8    3.5      48.597
2014    8        4    19  52    4.48   559.6    3.5      48.569
2014    8        4    19  58    4.48   559.5    3.5      48.541
2014    8        4    20   4    4.48   559.3    3.5      48.514
2014    8        4    20   9    4.48   559.2    3.5      48.487
2014    8        4    20  15    4.48   559.1    3.5      48.460
2014    8        4    20  21    4.47   558.9    3.5      48.432
2014    8        4    20  26    4.47   558.8    3.5      48.405
2014    8        4    20  32    4.47   558.6    3.5      48.378
2014    8        4    20  38    4.47   558.5    3.5      48.351
2014    8        4    20  44    4.46   558.4    3.5      48.324
2014    8        4    20  49    4.46   558.2    3.5      48.296
2014    8        4    20  55    4.46   558.1    3.5      48.268
2014    8        4    21   1    4.46   557.9    3.5      48.240
2014    8        4    21   7    4.46   557.8    3.5      48.212
2014    8        4    21  12    4.45   557.7    3.5      48.183
2014    8        4    21  18    4.45   557.5    3.5      48.154
2014    8        4    21  24    4.45   557.4    3.5      48.125
2014    8        4    21  30    4.45   557.2    3.5      48.095
2014    8        4    21  35    4.44   557.1    3.5      48.066
2014    8        4    21  41    4.44   556.9    3.5      48.035
2014    8        4    21  47    4.44   556.8    3.5      48.005
2014    8        4    21  53    4.44   556.6    3.5      47.974
2014    8        4    21  58    4.44   556.5    3.5      47.943
2014    8        4    22   4    4.43   556.4    3.5      47.912
2014    8        4    22  10    4.43   556.2    3.5      47.881
2014    8        4    22  16    4.43   556.1    3.5      47.850
2014    8        4    22  21    4.43   555.9    3.5      47.819
2014    8        4    22  27    4.42   555.8    3.5      47.788
2014    8        4    22  33    4.42   555.6    3.5      47.757
2014    8        4    22  38    4.42   555.4    3.5      47.726
2014    8        4    22  44    4.42   555.3    3.5      47.695
2014    8        4    22  50    4.42   555.1    3.5      47.664
2014    8        4    22  56    4.41   555.0    3.5      47.634
2014    8        4    23   1    4.41   554.8    3.5      47.603
2014    8        4    23   7    4.41   554.7    3.5      47.573
2014    8        4    23  13    4.41   554.5    3.5      47.543
2014    8        4    23  19    4.41   554.4    3.5      47.514
2014    8        4    23  24    4.40   554.2    3.5      47.484
2014    8        4    23  30    4.40   554.1    3.5      47.454
2014    8        4    23  36    4.40   553.9    3.5      47.425
2014    8        4    23  42    4.40   553.8    3.5      47.396
2014    8        4    23  47    4.40   553.6    3.5      47.367
2014    8        4    23  53    4.39   553.4    3.5      47.339
2014    8        4    23  59    4.39   553.3    3.5      47.310
2014    8        5     0   5    4.39   553.1    3.5      47.281
2014    8        5     0  10    4.39   553.0    3.5      47.252
2014    8        5     0  16    4.39   552.8    3.5      47.222
2014    8        5     0  22    4.38   552.7    3.5      47.192
2014    8        5     0  28    4.38   552.5    3.5      47.161
2014    8        5     0  33    4.38   552.4    3.5      47.130
2014    8        5     0  39    4.38   552.2    3.5      47.098
2014    8        5     0  45    4.38   552.0    3.5      47.066
2014    8        5     0  50    4.37   551.9    3.5      47.034
2014    8        5     0  56    4.37   551.7    3.5      47.001
2014    8        5     1   2    4.37   551.6    3.5      46.968
2014    8        5     1   8    4.37   551.4    3.5      46.935
2014    8        5     1  13    4.36   551.3    3.5      46.901
2014    8        5     1  19    4.36   551.1    3.5      46.867
2014    8        5     1  25    4.36   550.9    3.5      46.834
2014    8        5     1  31    4.36   550.8    3.5      46.799
2014    8        5     1  36    4.36   550.6    3.5      46.765
2014    8        5     1  42    4.35   550.5    3.5      46.731
2014    8        5     1  48    4.35   550.3    3.5      46.696
2014    8        5     1  54    4.35   550.1    3.5      46.662
2014    8        5     1  59    4.35   550.0    3.5      46.627
2014    8        5     2   5    4.35   549.8    3.5      46.593
2014    8        5     2  11    4.34   549.6    3.5      46.558
2014    8        5     2  17    4.34   549.5    3.5      46.523
2014    8        5     2  22    4.34   549.3    3.5      46.489
2014    8        5     2  28    4.34   549.2    3.5      46.454
2014    8        5     2  34    4.34   549.0    3.5      46.419
2014    8        5     2  39    4.33   548.8    3.5      46.384
2014    8        5     2  45    4.33   548.7    3.5      46.349
2014    8        5     2  51    4.33   548.5    3.5      46.314
2014    8        5     2  57    4.33   548.4    3.5      46.279
2014    8        5     3   2    4.33   548.2    3.5      46.243
2014    8        5     3   8    4.32   548.0    3.5      46.208
2014    8        5     3  14    4.32   547.9    3.5      46.172
2014    8        5     3  20    4.32   547.7    3.5      46.136
2014    8        5     3  25    4.32   547.5    3.5      46.101
2014    8        5     3  31    4.32   547.4    3.5      46.065
2014    8        5     3  37    4.31   547.2    3.5      46.029
2014    8        5     3  43    4.31   547.0    3.5      45.992
2014    8        5     3  48    4.31   546.9    3.5      45.956
2014    8        5     3  54    4.31   546.7    3.5      45.920
2014    8        5     4   0    4.31   546.5    3.5      45.883
2014    8        5     4   6    4.30   546.4    3.5      45.847
2014    8        5     4  11    4.30   546.2    3.5      45.810
2014    8        5     4  17    4.30   546.0    3.5      45.774
2014    8        5     4  23    4.30   545.8    3.5      45.737
2014    8        5     4  29    4.30   545.7    3.5      45.701
2014    8        5     4  34    4.29   545.5    3.5      45.665
2014    8        5     4  40    4.29   545.3    3.5      45.629
2014    8        5     4  46    4.29   545.1    3.5      45.593
2014    8        5     4  51    4.29   545.0    3.5      45.557
2014    8        5     4  57    4.29   544.8    3.5      45.522
2014    8        5     5   3    4.28   544.6    3.5      45.487
2014    8        5     5   9    4.28   544.4    3.5      45.452
2014    8        5     5  14    4.28   544.3    3.5      45.417
2014    8        5     5  20    4.28   544.1    3.5      45.382
2014    8        5     5  26    4.28   543.9    3.5      45.348
2014    8        5     5  32    4.27   543.7    3.5      45.314
2014    8        5     5  37    4.27   543.6    3.5      45.280
2014    8        5     5  43    4.27   543.4    3.5      45.246
2014    8        5     5  49    4.27   543.2    3.5      45.212
2014    8        5     5  55    4.27   543.0    3.5      45.179
2014    8        5     6   0    4.27   542.9    3.5      45.145
2014    8        5     6   6    4.26   542.7    3.5      45.112
2014    8        5     6  12    4.26   542.5    3.5      45.079
2014    8        5     6  18    4.26   542.4    3.5      45.045
2014    8        5     6  23    4.26   542.2    3.5      45.012
2014    8        5     6  29    4.26   542.0    3.5      44.978
2014    8        5     6  35    4.25   541.8    3.5      44.945
2014    8        5     6  41    4.25   541.7    3.5      44.911
2014    8        5     6  46    4.25   541.5    3.5      44.877
2014    8        5     6  52    4.25   541.3    3.5      44.843
2014    8        5     6  58    4.25   541.1    3.5      44.809
2014    8        5     7   3    4.24   541.0    3.5      44.775
2014    8        5     7   9    4.24   540.8    3.5      44.740
2014    8        5     7  15    4.24   540.6    3.5      44.705
2014    8        5     7  21    4.24   540.4    3.5      44.670
2014    8        5     7  26    4.24   540.2    3.5      44.634
2014    8        5     7  32    4.23   540.1    3.5      44.599
2014    8        5     7  38    4.23   539.9    3.5      44.563
2014    8        5     7  44    4.23   539.7    3.5      44.528
2014    8        5     7  49    4.23   539.5    3.5      44.492
2014    8        5     7  55    4.23   539.3    3.5      44.456
2014    8        5     8   1    4.22   539.1    3.5      44.420
2014    8        5     8   7    4.22   539.0    3.5      44.383
2014    8        5     8  12    4.22   538.8    3.5      44.347
2014    8        5     8  18    4.22   538.6    3.5      44.311
2014    8        5     8  24    4.22   538.4    3.5      44.275
2014    8        5     8  30    4.21   538.2    3.5      44.238
2014    8        5     8  35    4.21   538.0    3.5      44.202
2014    8        5     8  41    4.21   537.8    3.5      44.166
2014    8        5     8  47    4.21   537.6    3.5      44.130
2014    8        5     8  53    4.21   537.5    3.5      44.094
2014    8        5     8  58    4.21   537.3    3.5      44.058
2014    8        5     9   4    4.20   537.1    3.5      44.023
2014    8        5     9  10    4.20   536.9    3.5      43.987
2014    8        5     9  15    4.20   536.7    3.5      43.952
2014    8        5     9  21    4.20   536.5    3.5      43.917
2014    8        5     9  27    4.20   536.3    3.5      43.882
2014    8        5     9  33    4.19   536.1    3.5      43.847
2014    8        5     9  38    4.19   535.9    3.5      43.813
2014    8        5     9  44    4.19   535.7    3.5      43.779
2014    8        5     9  50    4.19   535.5    3.5      43.745
2014    8        5     9  56    4.19   535.4    3.5      43.711
2014    8        5    10   1    4.19   535.2    3.5      43.678
2014    8        5    10   7    4.18   535.0    3.5      43.645
2014    8        5    10  13    4.18   534.8    3.5      43.612
2014    8        5    10  19    4.18   534.6    3.5      43.580
2014    8        5    10  24    4.18   534.4    3.5      43.548
2014    8        5    10  30    4.18   534.2    3.5      43.516
2014    8        5    10  36    4.17   534.0    3.5      43.485
2014    8        5    10  42    4.17   533.8    3.5      43.453
2014    8        5    10  47    4.17   533.6    3.5      43.421
2014    8        5    10  53    4.17   533.4    3.5      43.390
2014    8        5    10  59    4.17   533.2    3.5      43.358
2014    8        5    11   4    4.17   533.0    3.5      43.327
2014    8        5    11  10    4.16   532.8    3.5      43.295
2014    8        5    11  16    4.16   532.6    3.5      43.264
2014    8        5    11  22    4.16   532.4    3.5      43.232
2014    8        5    11  27    4.16   532.2    3.5      43.201
2014    8        5    11  33    4.16   532.0    3.5      43.170
2014    8        5    11  39    4.16   531.9    3.5      43.139
2014    8        5    11  45    4.15   531.7    3.5      43.108
2014    8        5    11  50    4.15   531.5    3.5      43.076
2014    8        5    11  56    4.15   531.3    3.5      43.045
2014    8        5    12   2    4.15   531.1    3.5      43.014
2014    8        5    12   8    4.15   530.9    3.5      42.983
2014    8        5    12  13    4.15   530.7    3.5      42.951
2014    8        5    12  19    4.14   530.5    3.5      42.920
2014    8        5    12  25    4.14   530.3    3.5      42.888
2014    8        5    12  31    4.14   530.1    3.5      42.856
2014    8        5    12  36    4.14   529.9    3.5      42.824
2014    8        5    12  42    4.14   529.7    3.5      42.792
2014    8        5    12  48    4.14   529.5    3.5      42.760
2014    8        5    12  54    4.13   529.3    3.5      42.727
2014    8        5    12  59    4.13   529.1    3.5      42.695
2014    8        5    13   5    4.13   528.9    3.5      42.662
2014    8        5    13  11    4.13   528.7    3.5      42.629
2014    8        5    13  16    4.13   528.5    3.5      42.595
2014    8        5    13  22    4.12   528.3    3.5      42.562
2014    8        5    13  28    4.12   528.1    3.5      42.528
2014    8        5    13  34    4.12   527.9    3.5      42.495
2014    8        5    13  39    4.12   527.7    3.5      42.461
2014    8        5    13  45    4.12   527.5    3.5      42.427
2014    8        5    13  51    4.12   527.3    3.5      42.393
2014    8        5    13  57    4.11   527.1    3.5      42.359
2014    8        5    14   2    4.11   526.9    3.5      42.324
2014    8        5    14   8    4.11   526.7    3.5      42.289
2014    8        5    14  14    4.11   526.5    3.5      42.254
2014    8        5    14  20    4.11   526.3    3.5      42.219
2014    8        5    14  25    4.11   526.1    3.5      42.183
2014    8        5    14  31    4.10   525.9    3.5      42.146
2014    8        5    14  37    4.10   525.7    3.5      42.110
2014    8        5    14  43    4.10   525.5    3.5      42.073
2014    8        5    14  48    4.10   525.3    3.5      42.036
2014    8        5    14  54    4.10   525.1    3.5      41.999
2014    8        5    15   0    4.10   524.8    3.5      41.962
2014    8        5    15   6    4.09   524.6    3.5      41.925
2014    8        5    15  11    4.09   524.4    3.5      41.887
2014    8        5    15  17    4.09   524.2    3.5      41.850
2014    8        5    15  23    4.09   524.0    3.5      41.813
2014    8        5    15  28    4.09   523.8    3.5      41.776
2014    8        5    15  34    4.09   523.6    3.5      41.739
2014    8        5    15  40    4.08   523.4    3.5      41.702
2014    8        5    15  46    4.08   523.1    3.5      41.665
2014    8        5    15  51    4.08   522.9    3.5      41.629
2014    8        5    15  57    4.08   522.7    3.5      41.593
2014    8        5    16   3    4.08   522.5    3.5      41.557
2014    8        5    16   9    4.08   522.3    3.5      41.522
2014    8        5    16  14    4.08   522.1    3.5      41.487
2014    8        5    16  20    4.07   521.9    3.5      41.452
2014    8        5    16  26    4.07   521.6    3.5      41.417
2014    8        5    16  32    4.07   521.4    3.5      41.382
2014    8        5    16  37    4.07   521.2    3.5      41.348
2014    8        5    16  43    4.07   521.0    3.5      41.313
2014    8        5    16  49    4.07   520.8    3.5      41.279
2014    8        5    16  55    4.06   520.5    3.5      41.245
2014    8        5    17   0    4.06   520.3    3.5      41.212
2014    8        5    17   6    4.06   520.1    3.5      41.178
2014    8        5    17  12    4.06   519.9    3.5      41.145
2014    8        5    17  17    4.06   519.6    3.5      41.111
2014    8        5    17  23    4.06   519.4    3.5      41.078
2014    8        5    17  29    4.06   519.2    3.5      41.045
2014    8        5    17  35    4.05   519.0    3.5      41.013
2014    8        5    17  40    4.05   518.7    3.5      40.980
2014    8        5    17  46    4.05   518.5    3.5      40.948
2014    8        5    17  52    4.05   518.3    3.5      40.916
2014    8        5    17  58    4.05   518.0    3.5      40.885
2014    8        5    18   3    4.05   517.8    3.5      40.853
2014    8        5    18   9    4.04   517.6    3.5      40.822
2014    8        5    18  15    4.04   517.3    3.5      40.792
2014    8        5    18  21    4.04   517.1    3.5      40.762
2014    8        5    18  26    4.04   516.9    3.5      40.732
2014    8        5    18  32    4.04   516.6    3.5      40.702
2014    8        5    18  38    4.04   516.4    3.5      40.673
2014    8        5    18  44    4.04   516.2    3.5      40.645
2014    8        5    18  49    4.04   515.9    3.5      40.616
2014    8        5    18  55    4.03   515.7    3.5      40.588
2014    8        5    19   1    4.03   515.5    3.5      40.560
2014    8        5    19   7    4.03   515.2    3.5      40.532
2014    8        5    19  12    4.03   515.0    3.5      40.504
2014    8        5    19  18    4.03   514.8    3.5      40.476
2014    8        5    19  24    4.03   514.6    3.5      40.449
2014    8        5    19  29    4.03   514.3    3.5      40.421
2014    8        5    19  35    4.03   514.1    3.5      40.393
2014    8        5    19  41    4.03   513.9    3.5      40.366
2014    8        5    19  47    4.02   513.6    3.5      40.338
2014    8        5    19  52    4.02   513.4    3.6      40.310
2014    8        5    19  58    4.02   513.2    3.6      40.282
2014    8        5    20   4    4.02   512.9    3.6      40.253
2014    8        5    20  10    4.02   512.7    3.6      40.225
2014    8        5    20  15    4.02   512.5    3.6      40.196
2014    8        5    20  21    4.02   512.2    3.6      40.167
2014    8        5    20  27    4.02   512.0    3.6      40.138
2014    8        5    20  33    4.02   511.8    3.6      40.109
2014    8        5    20  38    4.01   511.5    3.6      40.080
2014    8        5    20  44    4.01   511.3    3.6      40.050
2014    8        5    20  50    4.01   511.1    3.6      40.021
2014    8        5    20  56    4.01   510.8    3.6      39.991
2014    8        5    21   1    4.01   510.6    3.6      39.961
2014    8        5    21   7    4.01   510.4    3.6      39.932
2014    8        5    21  13    4.01   510.1    3.6      39.902
2014    8        5    21  19    4.01   509.9    3.6      39.872
2014    8        5    21  24    4.00   509.7    3.6      39.842
2014    8        5    21  30    4.00   509.5    3.6      39.812
2014    8        5    21  36    4.00   509.2    3.6      39.782
2014    8        5    21  41    4.00   509.0    3.6      39.753
2014    8        5    21  47    4.00   508.8    3.6      39.723
2014    8        5    21  53    4.00   508.5    3.6      39.693
2014    8        5    21  59    4.00   508.3    3.6      39.663
2014    8        5    22   4    4.00   508.1    3.6      39.634
2014    8        5    22  10    4.00   507.8    3.6      39.604
2014    8        5    22  16    4.00   507.6    3.6      39.574
2014    8        5    22  22    3.99   507.4    3.6      39.545
2014    8        5    22  27    3.99   507.1    3.6      39.516
2014    8        5    22  33    3.99   506.9    3.6      39.486
2014    8        5    22  39    3.99   506.6    3.6      39.457
2014    8        5    22  45    3.99   506.4    3.6      39.427
2014    8        5    22  50    3.99   506.2    3.6      39.398
2014    8        5    22  56    3.99   505.9    3.6      39.369
2014    8        5    23   2    3.99   505.7    3.6      39.340
2014    8        5    23   8    3.99   505.5    3.6      39.310
2014    8        5    23  13    3.99   505.2    3.6      39.281
2014    8        5    23  19    3.98   505.0    3.6      39.251
2014    8        5    23  25    3.98   504.8    3.6      39.222
2014    8        5    23  30    3.98   504.5    3.6      39.192
2014    8        5    23  36    3.98   504.3    3.6      39.162
2014    8        5    23  42    3.98   504.0    3.6      39.133
2014    8        5    23  48    3.98   503.8    3.6      39.102
2014    8        5    23  53    3.98   503.5    3.6      39.072
2014    8        5    23  59    3.98   503.3    3.6      39.042
2014    8        6     0   5    3.98   503.1    3.6      39.011
2014    8        6     0  11    3.98   502.8    3.6      38.981
2014    8        6     0  16    3.98   502.6    3.6      38.950
2014    8        6     0  22    3.97   502.3    3.6      38.919
2014    8        6     0  28    3.97   502.1    3.6      38.888
2014    8        6     0  34    3.97   501.8    3.6      38.857
2014    8        6     0  39    3.97   501.6    3.7      38.825
2014    8        6     0  45    3.97   501.4    3.7      38.794
2014    8        6     0  51    3.97   501.1    3.7      38.762
2014    8        6     0  57    3.97   500.9    3.7      38.730
2014    8        6     1   2    3.97   500.6    3.7      38.698
2014    8        6     1   8    3.97   500.4    3.7      38.666
2014    8        6     1  14    3.97   500.1    3.7      38.635
2014    8        6     1  20    3.97   499.9    3.7      38.603
2014    8        6     1  25    3.97   499.6    3.7      38.571
2014    8        6     1  31    3.97   499.4    3.7      38.540
2014    8        6     1  37    3.97   499.1    3.7      38.508
2014    8        6     1  42    3.96   498.9    3.7      38.477
2014    8        6     1  48    3.96   498.6    3.7      38.446
2014    8        6     1  54    3.96   498.4    3.7      38.415
2014    8        6     2   0    3.96   498.2    3.7      38.385
2014    8        6     2   5    3.96   497.9    3.7      38.354
2014    8        6     2  11    3.96   497.7    3.7      38.324
2014    8        6     2  17    3.96   497.4    3.7      38.294
2014    8        6     2  23    3.96   497.2    3.7      38.264
2014    8        6     2  28    3.96   496.9    3.7      38.235
2014    8        6     2  34    3.96   496.7    3.7      38.206
2014    8        6     2  40    3.96   496.4    3.7      38.177
2014    8        6     2  46    3.96   496.2    3.7      38.149
2014    8        6     2  51    3.96   496.0    3.7      38.120
2014    8        6     2  57    3.96   495.7    3.7      38.092
2014    8        6     3   3    3.96   495.5    3.7      38.065
2014    8        6     3   9    3.96   495.2    3.7      38.037
2014    8        6     3  14    3.96   495.0    3.7      38.010
2014    8        6     3  20    3.96   494.8    3.7      37.983
2014    8        6     3  26    3.96   494.5    3.7      37.956
2014    8        6     3  31    3.96   494.3    3.7      37.929
2014    8        6     3  37    3.96   494.0    3.7      37.903
2014    8        6     3  43    3.96   493.8    3.7      37.876
2014    8        6     3  49    3.96   493.6    3.7      37.850
2014    8        6     3  54    3.96   493.3    3.7      37.824
2014    8        6     4   0    3.96   493.1    3.8      37.798
2014    8        6     4   6    3.96   492.8    3.8      37.773
2014    8        6     4  12    3.96   492.6    3.8      37.747
2014    8        6     4  17    3.96   492.4    3.8      37.722
2014    8        6     4  23    3.95   492.1    3.8      37.696
2014    8        6     4  29    3.95   491.9    3.8      37.671
2014    8        6     4  35    3.95   491.7    3.8      37.646
2014    8        6     4  40    3.95   491.4    3.8      37.621
2014    8        6     4  46    3.95   491.2    3.8      37.596
2014    8        6     4  52    3.95   490.9    3.8      37.571
2014    8        6     4  58    3.95   490.7    3.8      37.547
2014    8        6     5   3    3.95   490.5    3.8      37.522
2014    8        6     5   9    3.95   490.2    3.8      37.497
2014    8        6     5  15    3.95   490.0    3.8      37.472
2014    8        6     5  21    3.95   489.8    3.8      37.448
2014    8        6     5  26    3.95   489.5    3.8      37.423
2014    8        6     5  32    3.95   489.3    3.8      37.399
2014    8        6     5  38    3.95   489.1    3.8      37.374
2014    8        6     5  43    3.95   488.8    3.8      37.349
2014    8        6     5  49    3.95   488.6    3.8      37.325
2014    8        6     5  55    3.95   488.4    3.8      37.300
2014    8        6     6   1    3.95   488.1    3.8      37.276
2014    8        6     6   6    3.95   487.9    3.8      37.251
2014    8        6     6  12    3.95   487.7    3.8      37.226
2014    8        6     6  18    3.95   487.5    3.8      37.201
2014    8        6     6  24    3.95   487.2    3.8      37.176
2014    8        6     6  29    3.95   487.0    3.8      37.152
2014    8        6     6  35    3.95   486.8    3.8      37.127
2014    8        6     6  41    3.95   486.5    3.9      37.101
2014    8        6     6  47    3.95   486.3    3.9      37.076
2014    8        6     6  52    3.95   486.1    3.9      37.051
2014    8        6     6  58    3.95   485.8    3.9      37.025
2014    8        6     7   4    3.95   485.6    3.9      37.000
2014    8        6     7  10    3.95   485.4    3.9      36.974
2014    8        6     7  15    3.95   485.2    3.9      36.948
2014    8        6     7  21    3.95   484.9    3.9      36.922
2014    8        6     7  27    3.95   484.7    3.9      36.896
2014    8        6     7  32    3.95   484.5    3.9      36.870
2014    8        6     7  38    3.95   484.3    3.9      36.844
2014    8        6     7  44    3.95   484.0    3.9      36.817
2014    8        6     7  50    3.95   483.8    3.9      36.791
2014    8        6     7  55    3.95   483.6    3.9      36.764
2014    8        6     8   1    3.95   483.3    3.9      36.738
2014    8        6     8   7    3.95   483.1    3.9      36.712
2014    8        6     8  13    3.95   482.9    3.9      36.685
2014    8        6     8  18    3.95   482.7    3.9      36.658
2014    8        6     8  24    3.95   482.4    3.9      36.632
2014    8        6     8  30    3.95   482.2    3.9      36.605
2014    8        6     8  36    3.95   482.0    3.9      36.579
2014    8        6     8  41    3.95   481.8    3.9      36.553
2014    8        6     8  47    3.95   481.5    3.9      36.526
2014    8        6     8  53    3.95   481.3    3.9      36.500
2014    8        6     8  59    3.96   481.1    3.9      36.474
2014    8        6     9   4    3.96   480.9    3.9      36.448
2014    8        6     9  10    3.96   480.6    3.9      36.422
2014    8        6     9  16    3.96   480.4    3.9      36.396
2014    8        6     9  22    3.96   480.2    4.0      36.370
2014    8        6     9  27    3.96   480.0    4.0      36.344
2014    8        6     9  33    3.96   479.7    4.0      36.318
2014    8        6     9  39    3.96   479.5    4.0      36.293
2014    8        6     9  44    3.96   479.3    4.0      36.267
2014    8        6     9  50    3.96   479.1    4.0      36.242
2014    8        6     9  56    3.96   478.9    4.0      36.217
2014    8        6    10   2    3.96   478.6    4.0      36.191
2014    8        6    10   7    3.96   478.4    4.0      36.166
2014    8        6    10  13    3.96   478.2    4.0      36.141
2014    8        6    10  19    3.96   478.0    4.0      36.116
2014    8        6    10  25    3.96   477.8    4.0      36.091
2014    8        6    10  30    3.96   477.5    4.0      36.066
2014    8        6    10  36    3.96   477.3    4.0      36.042
2014    8        6    10  42    3.96   477.1    4.0      36.017
2014    8        6    10  48    3.96   476.9    4.0      35.992
2014    8        6    10  53    3.96   476.7    4.0      35.968
2014    8        6    10  59    3.96   476.4    4.0      35.943
2014    8        6    11   5    3.96   476.2    4.0      35.918
2014    8        6    11  11    3.96   476.0    4.0      35.894
2014    8        6    11  16    3.96   475.8    4.0      35.869
2014    8        6    11  22    3.96   475.6    4.0      35.845
2014    8        6    11  28    3.97   475.4    4.0      35.820
2014    8        6    11  34    3.97   475.1    4.0      35.796
2014    8        6    11  39    3.97   474.9    4.0      35.772
2014    8        6    11  45    3.97   474.7    4.1      35.747
2014    8        6    11  51    3.97   474.5    4.1      35.723
2014    8        6    11  56    3.97   474.3    4.1      35.699
2014    8        6    12   2    3.97   474.1    4.1      35.675
2014    8        6    12   8    3.97   473.8    4.1      35.651
2014    8        6    12  14    3.97   473.6    4.1      35.627
2014    8        6    12  19    3.97   473.4    4.1      35.603
2014    8        6    12  25    3.97   473.2    4.1      35.579
2014    8        6    12  31    3.97   473.0    4.1      35.555
2014    8        6    12  37    3.97   472.8    4.1      35.531
2014    8        6    12  42    3.97   472.6    4.1      35.507
2014    8        6    12  48    3.97   472.4    4.1      35.483
2014    8        6    12  54    3.97   472.1    4.1      35.460
2014    8        6    13   0    3.97   471.9    4.1      35.436
2014    8        6    13   5    3.97   471.7    4.1      35.413
2014    8        6    13  11    3.98   471.5    4.1      35.389
2014    8        6    13  17    3.98   471.3    4.1      35.365
2014    8        6    13  23    3.98   471.1    4.1      35.342
2014    8        6    13  28    3.98   470.9    4.1      35.319
2014    8        6    13  34    3.98   470.7    4.1      35.295
2014    8        6    13  40    3.98   470.5    4.1      35.272
2014    8        6    13  45    3.98   470.3    4.1      35.248
2014    8        6    13  51    3.98   470.1    4.1      35.225
2014    8        6    13  57    3.98   469.8    4.1      35.202
2014    8        6    14   3    3.98   469.6    4.2      35.179
2014    8        6    14   8    3.98   469.4    4.2      35.155
2014    8        6    14  14    3.98   469.2    4.2      35.132
2014    8        6    14  20    3.98   469.0    4.2      35.109
2014    8        6    14  26    3.98   468.8    4.2      35.086
2014    8        6    14  31    3.98   468.6    4.2      35.063
2014    8        6    14  37    3.99   468.4    4.2      35.040
2014    8        6    14  43    3.99   468.2    4.2      35.017
2014    8        6    14  49    3.99   468.0    4.2      34.994
2014    8        6    14  54    3.99   467.8    4.2      34.971
2014    8        6    15   0    3.99   467.6    4.2      34.949
2014    8        6    15   6    3.99   467.4    4.2      34.926
2014    8        6    15  12    3.99   467.2    4.2      34.903
2014    8        6    15  17    3.99   467.0    4.2      34.880
2014    8        6    15  23    3.99   466.8    4.2      34.858
2014    8        6    15  29    3.99   466.5    4.2      34.835
2014    8        6    15  34    3.99   466.3    4.2      34.813
2014    8        6    15  40    3.99   466.1    4.2      34.790
2014    8        6    15  46    3.99   465.9    4.2      34.768
2014    8        6    15  52    3.99   465.7    4.2      34.745
2014    8        6    15  57    3.99   465.5    4.2      34.723
2014    8        6    16   3    4.00   465.3    4.2      34.701
2014    8        6    16   9    4.00   465.1    4.2      34.678
2014    8        6    16  15    4.00   464.9    4.2      34.656
2014    8        6    16  20    4.00   464.7    4.3      34.634
2014    8        6    16  26    4.00   464.5    4.3      34.612
2014    8        6    16  32    4.00   464.3    4.3      34.590
2014    8        6    16  38    4.00   464.1    4.3      34.568
2014    8        6    16  43    4.00   463.9    4.3      34.546
2014    8        6    16  49    4.00   463.7    4.3      34.524
2014    8        6    16  55    4.00   463.5    4.3      34.502
2014    8        6    17   1    4.00   463.3    4.3      34.481
2014    8        6    17   6    4.00   463.1    4.3      34.459
2014    8        6    17  12    4.01   462.9    4.3      34.437
2014    8        6    17  18    4.01   462.7    4.3      34.416
2014    8        6    17  23    4.01   462.5    4.3      34.395
2014    8        6    17  29    4.01   462.3    4.3      34.373
2014    8        6    17  35    4.01   462.1    4.3      34.352
2014    8        6    17  41    4.01   461.9    4.3      34.331
2014    8        6    17  46    4.01   461.7    4.3      34.309
2014    8        6    17  52    4.01   461.5    4.3      34.288
2014    8        6    17  58    4.01   461.3    4.3      34.267
2014    8        6    18   4    4.01   461.1    4.3      34.246
2014    8        6    18   9    4.01   460.9    4.3      34.225
2014    8        6    18  15    4.01   460.7    4.3      34.204
2014    8        6    18  21    4.02   460.5    4.3      34.183
2014    8        6    18  27    4.02   460.3    4.4      34.162
2014    8        6    18  32    4.02   460.1    4.4      34.142
2014    8        6    18  38    4.02   459.9    4.4      34.121
2014    8        6    18  44    4.02   459.7    4.4      34.100
2014    8        6    18  50    4.02   459.5    4.4      34.079
2014    8        6    18  55    4.02   459.3    4.4      34.059
2014    8        6    19   1    4.02   459.2    4.4      34.038
2014    8        6    19   7    4.02   459.0    4.4      34.017
2014    8        6    19  13    4.02   458.8    4.4      33.997
2014    8        6    19  18    4.03   458.6    4.4      33.976
2014    8        6    19  24    4.03   458.4    4.4      33.956
2014    8        6    19  30    4.03   458.2    4.4      33.935
2014    8        6    19  36    4.03   458.0    4.4      33.915
2014    8        6    19  41    4.03   457.8    4.4      33.894
2014    8        6    19  47    4.03   457.6    4.4      33.874
2014    8        6    19  53    4.03   457.4    4.4      33.854
2014    8        6    19  58    4.03   457.2    4.4      33.833
2014    8        6    20   4    4.03   457.0    4.4      33.813
2014    8        6    20  10    4.03   456.8    4.4      33.793
2014    8        6    20  16    4.03   456.7    4.4      33.773
2014    8        6    20  21    4.04   456.5    4.4      33.752
2014    8        6    20  27    4.04   456.3    4.5      33.733
2014    8        6    20  33    4.04   456.1    4.5      33.712
2014    8        6    20  39    4.04   455.9    4.5      33.692
2014    8        6    20  44    4.04   455.7    4.5      33.672
2014    8        6    20  50    4.04   455.5    4.5      33.653
2014    8        6    20  56    4.04   455.3    4.5      33.633
2014    8        6    21   2    4.04   455.1    4.5      33.613
2014    8        6    21   7    4.04   454.9    4.5      33.594
2014    8        6    21  13    4.04   454.8    4.5      33.574
2014    8        6    21  19    4.05   454.6    4.5      33.555
2014    8        6    21  24    4.05   454.4    4.5      33.535
2014    8        6    21  30    4.05   454.2    4.5      33.516
2014    8        6    21  36    4.05   454.0    4.5      33.497
2014    8        6    21  42    4.05   453.8    4.5      33.478
2014    8        6    21  47    4.05   453.6    4.5      33.459
2014    8        6    21  53    4.05   453.4    4.5      33.440
2014    8        6    21  59    4.05   453.3    4.5      33.421
2014    8        6    22   5    4.05   453.1    4.5      33.403
2014    8        6    22  10    4.06   452.9    4.5      33.384
2014    8        6    22  16    4.06   452.7    4.5      33.366
2014    8        6    22  22    4.06   452.5    4.6      33.348
2014    8        6    22  28    4.06   452.3    4.6      33.330
2014    8        6    22  33    4.06   452.1    4.6      33.312
2014    8        6    22  39    4.06   452.0    4.6      33.294
2014    8        6    22  45    4.06   451.8    4.6      33.276
2014    8        6    22  51    4.06   451.6    4.6      33.258
2014    8        6    22  56    4.06   451.4    4.6      33.241
2014    8        6    23   2    4.07   451.2    4.6      33.224
2014    8        6    23   8    4.07   451.1    4.6      33.206
2014    8        6    23  14    4.07   450.9    4.6      33.189
2014    8        6    23  19    4.07   450.7    4.6      33.172
2014    8        6    23  25    4.07   450.5    4.6      33.155
2014    8        6    23  31    4.07   450.3    4.6      33.138
2014    8        6    23  36    4.07   450.2    4.6      33.121
2014    8        6    23  42    4.07   450.0    4.6      33.105
2014    8        6    23  48    4.08   449.8    4.6      33.088
2014    8        6    23  54    4.08   449.6    4.6      33.072
2014    8        6    23  59    4.08   449.4    4.6      33.055
2014    8        7     0   5    4.08   449.3    4.6      33.039
2014    8        7     0  11    4.08   449.1    4.7      33.023
2014    8        7     0  17    4.08   448.9    4.7      33.006
2014    8        7     0  22    4.08   448.7    4.7      32.990
2014    8        7     0  28    4.08   448.6    4.7      32.974
2014    8        7     0  34    4.09   448.4    4.7      32.958
2014    8        7     0  40    4.09   448.2    4.7      32.941
2014    8        7     0  45    4.09   448.0    4.7      32.925
2014    8        7     0  51    4.09   447.9    4.7      32.909
2014    8        7     0  57    4.09   447.7    4.7      32.893
2014    8        7     1   3    4.09   447.5    4.7      32.877
2014    8        7     1   8    4.09   447.3    4.7      32.861
2014    8        7     1  14    4.09   447.2    4.7      32.845
2014    8        7     1  20    4.10   447.0    4.7      32.829
2014    8        7     1  26    4.10   446.8    4.7      32.813
2014    8        7     1  31    4.10   446.7    4.7      32.797
2014    8        7     1  37    4.10   446.5    4.7      32.781
2014    8        7     1  43    4.10   446.3    4.7      32.765
2014    8        7     1  48    4.10   446.1    4.7      32.748
2014    8        7     1  54    4.10   446.0    4.8      32.733
2014    8        7     2   0    4.10   445.8    4.8      32.716
2014    8        7     2   6    4.11   445.6    4.8      32.700
2014    8        7     2  11    4.11   445.5    4.8      32.684
2014    8        7     2  17    4.11   445.3    4.8      32.668
2014    8        7     2  23    4.11   445.1    4.8      32.652
2014    8        7     2  29    4.11   445.0    4.8      32.636
2014    8        7     2  34    4.11   444.8    4.8      32.620
2014    8        7     2  40    4.11   444.6    4.8      32.605
2014    8        7     2  46    4.12   444.5    4.8      32.589
2014    8        7     2  52    4.12   444.3    4.8      32.573
2014    8        7     2  57    4.12   444.1    4.8      32.557
2014    8        7     3   3    4.12   444.0    4.8      32.541
2014    8        7     3   9    4.12   443.8    4.8      32.525
2014    8        7     3  15    4.12   443.6    4.8      32.510
2014    8        7     3  20    4.12   443.5    4.8      32.494
2014    8        7     3  26    4.12   443.3    4.8      32.478
2014    8        7     3  32    4.13   443.1    4.8      32.463
2014    8        7     3  37    4.13   443.0    4.9      32.447
2014    8        7     3  43    4.13   442.8    4.9      32.432
2014    8        7     3  49    4.13   442.6    4.9      32.416
2014    8        7     3  55    4.13   442.5    4.9      32.401
2014    8        7     4   0    4.13   442.3    4.9      32.386
2014    8        7     4   6    4.13   442.2    4.9      32.370
2014    8        7     4  12    4.14   442.0    4.9      32.355
2014    8        7     4  18    4.14   441.8    4.9      32.340
2014    8        7     4  23    4.14   441.7    4.9      32.325
2014    8        7     4  29    4.14   441.5    4.9      32.310
2014    8        7     4  35    4.14   441.4    4.9      32.295
2014    8        7     4  41    4.14   441.2    4.9      32.280
2014    8        7     4  46    4.14   441.0    4.9      32.265
2014    8        7     4  52    4.15   440.9    4.9      32.250
2014    8        7     4  58    4.15   440.7    4.9      32.235
2014    8        7     5   4    4.15   440.6    4.9      32.220
2014    8        7     5   9    4.15   440.4    4.9      32.206
2014    8        7     5  15    4.15   440.2    4.9      32.191
2014    8        7     5  21    4.15   440.1    5.0      32.176
2014    8        7     5  26    4.15   439.9    5.0      32.162
2014    8        7     5  32    4.16   439.8    5.0      32.147
2014    8        7     5  38    4.16   439.6    5.0      32.133
2014    8        7     5  44    4.16   439.5    5.0      32.119
2014    8        7     5  49    4.16   439.3    5.0      32.105
2014    8        7     5  55    4.16   439.1    5.0      32.090
2014    8        7     6   1    4.16   439.0    5.0      32.076
2014    8        7     6   7    4.16   438.8    5.0      32.063
2014    8        7     6  12    4.17   438.7    5.0      32.049
2014    8        7     6  18    4.17   438.5    5.0      32.035
2014    8        7     6  24    4.17   438.4    5.0      32.021
2014    8        7     6  30    4.17   438.2    5.0      32.008
2014    8        7     6  35    4.17   438.1    5.0      31.994
2014    8        7     6  41    4.17   437.9    5.0      31.981
2014    8        7     6  47    4.17   437.8    5.0      31.968
2014    8        7     6  53    4.18   437.6    5.0      31.955
2014    8        7     6  58    4.18   437.5    5.1      31.942
2014    8        7     7   4    4.18   437.3    5.1      31.929
2014    8        7     7  10    4.18   437.2    5.1      31.916
2014    8        7     7  16    4.18   437.0    5.1      31.903
2014    8        7     7  21    4.18   436.9    5.1      31.890
2014    8        7     7  27    4.19   436.7    5.1      31.878
2014    8        7     7  33    4.19   436.6    5.1      31.865
2014    8        7     7  38    4.19   436.4    5.1      31.853
2014    8        7     7  44    4.19   436.3    5.1      31.840
2014    8        7     7  50    4.19   436.1    5.1      31.828
2014    8        7     7  56    4.19   436.0    5.1      31.816
2014    8        7     8   1    4.19   435.8    5.1      31.804
2014    8        7     8   7    4.20   435.7    5.1      31.791
2014    8        7     8  13    4.20   435.5    5.1      31.779
2014    8        7     8  19    4.20   435.4    5.1      31.768
2014    8        7     8  24    4.20   435.3    5.1      31.756
2014    8        7     8  30    4.20   435.1    5.1      31.744
2014    8        7     8  36    4.20   435.0    5.2      31.732
2014    8        7     8  42    4.21   434.8    5.2      31.720
2014    8        7     8  47    4.21   434.7    5.2      31.709
2014    8        7     8  53    4.21   434.5    5.2      31.697
2014    8        7     8  59    4.21   434.4    5.2      31.686
2014    8        7     9   5    4.21   434.3    5.2      31.674
2014    8        7     9  10    4.21   434.1    5.2      31.663
2014    8        7     9  16    4.22   434.0    5.2      31.651
2014    8        7     9  22    4.22   433.8    5.2      31.640
2014    8        7     9  28    4.22   433.7    5.2      31.628
2014    8        7     9  33    4.22   433.5    5.2      31.617
2014    8        7     9  39    4.22   433.4    5.2      31.606
2014    8        7     9  45    4.22   433.3    5.2      31.595
2014    8        7     9  50    4.22   433.1    5.2      31.584
2014    8        7     9  56    4.23   433.0    5.2      31.573
2014    8        7    10   2    4.23   432.8    5.2      31.562
2014    8        7    10   8    4.23   432.7    5.2      31.551
2014    8        7    10  13    4.23   432.6    5.3      31.540
2014    8        7    10  19    4.23   432.4    5.3      31.529
2014    8        7    10  25    4.23   432.3    5.3      31.518
2014    8        7    10  31    4.24   432.2    5.3      31.508
2014    8        7    10  36    4.24   432.0    5.3      31.497
2014    8        7    10  42    4.24   431.9    5.3      31.486
2014    8        7    10  48    4.24   431.7    5.3      31.476
2014    8        7    10  54    4.24   431.6    5.3      31.465
2014    8        7    10  59    4.24   431.5    5.3      31.455
2014    8        7    11   5    4.25   431.3    5.3      31.444
2014    8        7    11  11    4.25   431.2    5.3      31.434
2014    8        7    11  17    4.25   431.1    5.3      31.423
2014    8        7    11  22    4.25   430.9    5.3      31.413
2014    8        7    11  28    4.25   430.8    5.3      31.402
2014    8        7    11  34    4.25   430.7    5.3      31.392
2014    8        7    11  39    4.26   430.5    5.3      31.382
2014    8        7    11  45    4.26   430.4    5.3      31.371
2014    8        7    11  51    4.26   430.3    5.4      31.361
2014    8        7    11  57    4.26   430.1    5.4      31.350
2014    8        7    12   2    4.26   430.0    5.4      31.340
2014    8        7    12   8    4.26   429.9    5.4      31.329
2014    8        7    12  14    4.27   429.7    5.4      31.319
2014    8        7    12  20    4.27   429.6    5.4      31.308
2014    8        7    12  25    4.27   429.5    5.4      31.298
2014    8        7    12  31    4.27   429.3    5.4      31.287
2014    8        7    12  37    4.27   429.2    5.4      31.276
2014    8        7    12  43    4.27   429.1    5.4      31.266
2014    8        7    12  48    4.28   429.0    5.4      31.255
2014    8        7    12  54    4.28   428.8    5.4      31.244
2014    8        7    13   0    4.28   428.7    5.4      31.233
2014    8        7    13   6    4.28   428.6    5.4      31.223
2014    8        7    13  11    4.28   428.4    5.4      31.212
2014    8        7    13  17    4.28   428.3    5.4      31.201
2014    8        7    13  23    4.29   428.2    5.4      31.190
2014    8        7    13  28    4.29   428.0    5.4      31.180
2014    8        7    13  34    4.29   427.9    5.5      31.169
2014    8        7    13  40    4.29   427.8    5.5      31.158
2014    8        7    13  46    4.29   427.6    5.5      31.147
2014    8        7    13  51    4.29   427.5    5.5      31.136
2014    8        7    13  57    4.30   427.4    5.5      31.125
2014    8        7    14   3    4.30   427.3    5.5      31.115
2014    8        7    14   9    4.30   427.1    5.5      31.104
2014    8        7    14  14    4.30   427.0    5.5      31.093
2014    8        7    14  20    4.30   426.9    5.5      31.083
2014    8        7    14  26    4.30   426.8    5.5      31.072
2014    8        7    14  32    4.31   426.6    5.5      31.062
2014    8        7    14  37    4.31   426.5    5.5      31.052
2014    8        7    14  43    4.31   426.4    5.5      31.041
2014    8        7    14  49    4.31   426.2    5.5      31.031
2014    8        7    14  55    4.31   426.1    5.5      31.021
2014    8        7    15   0    4.32   426.0    5.5      31.011
2014    8        7    15   6    4.32   425.9    5.5      31.001
2014    8        7    15  12    4.32   425.7    5.5      30.991
2014    8        7    15  18    4.32   425.6    5.5      30.982
2014    8        7    15  23    4.32   425.5    5.6      30.972
2014    8        7    15  29    4.32   425.4    5.6      30.962
2014    8        7    15  35    4.33   425.2    5.6      30.953
2014    8        7    15  40    4.33   425.1    5.6      30.944
2014    8        7    15  46    4.33   425.0    5.6      30.935
2014    8        7    15  52    4.33   424.9    5.6      30.926
2014    8        7    15  58    4.33   424.8    5.6      30.917
2014    8        7    16   3    4.34   424.6    5.6      30.908
2014    8        7    16   9    4.34   424.5    5.6      30.900
2014    8        7    16  15    4.34   424.4    5.6      30.891
2014    8        7    16  21    4.34   424.3    5.6      30.883
2014    8        7    16  26    4.34   424.2    5.6      30.875
2014    8        7    16  32    4.34   424.0    5.6      30.867
2014    8        7    16  38    4.35   423.9    5.6      30.859
2014    8        7    16  44    4.35   423.8    5.6      30.851
2014    8        7    16  49    4.35   423.7    5.6      30.844
2014    8        7    16  55    4.35   423.6    5.6      30.836
2014    8        7    17   1    4.35   423.4    5.6      30.829
2014    8        7    17   7    4.36   423.3    5.7      30.822
2014    8        7    17  12    4.36   423.2    5.7      30.815
2014    8        7    17  18    4.36   423.1    5.7      30.808
2014    8        7    17  24    4.36   423.0    5.7      30.801
2014    8        7    17  30    4.36   422.9    5.7      30.794
2014    8        7    17  35    4.36   422.7    5.7      30.788
2014    8        7    17  41    4.37   422.6    5.7      30.782
2014    8        7    17  47    4.37   422.5    5.7      30.775
2014    8        7    17  52    4.37   422.4    5.7      30.769
2014    8        7    17  58    4.37   422.3    5.7      30.763
2014    8        7    18   4    4.37   422.2    5.7      30.757
2014    8        7    18  10    4.38   422.1    5.7      30.751
2014    8        7    18  15    4.38   421.9    5.7      30.745
2014    8        7    18  21    4.38   421.8    5.7      30.740
2014    8        7    18  27    4.38   421.7    5.7      30.734
2014    8        7    18  33    4.38   421.6    5.7      30.729
2014    8        7    18  38    4.39   421.5    5.7      30.723
2014    8        7    18  44    4.39   421.4    5.7      30.718
2014    8        7    18  50    4.39   421.3    5.7      30.713
2014    8        7    18  56    4.39   421.2    5.8      30.708
2014    8        7    19   1    4.39   421.1    5.8      30.703
2014    8        7    19   7    4.40   420.9    5.8      30.698
2014    8        7    19  13    4.40   420.8    5.8      30.693
2014    8        7    19  19    4.40   420.7    5.8      30.688
2014    8        7    19  24    4.40   420.6    5.8      30.683
2014    8        7    19  30    4.40   420.5    5.8      30.678
2014    8        7    19  36    4.40   420.4    5.8      30.674
2014    8        7    19  41    4.41   420.3    5.8      30.669
2014    8        7    19  47    4.41   420.2    5.8      30.664
2014    8        7    19  53    4.41   420.1    5.8      30.660
2014    8        7    19  59    4.41   420.0    5.8      30.655
2014    8        7    20   4    4.41   419.8    5.8      30.651
2014    8        7    20  10    4.42   419.7    5.8      30.646
2014    8        7    20  16    4.42   419.6    5.8      30.642
2014    8        7    20  22    4.42   419.5    5.8      30.637
2014    8        7    20  27    4.42   419.4    5.8      30.633
2014    8        7    20  33    4.42   419.3    5.8      30.628
2014    8        7    20  39    4.43   419.2    5.8      30.624
2014    8        7    20  45    4.43   419.1    5.9      30.619
2014    8        7    20  50    4.43   419.0    5.9      30.615
2014    8        7    20  56    4.43   418.9    5.9      30.610
2014    8        7    21   2    4.43   418.8    5.9      30.606
2014    8        7    21   8    4.44   418.7    5.9      30.602
2014    8        7    21  13    4.44   418.6    5.9      30.597
2014    8        7    21  19    4.44   418.5    5.9      30.593
2014    8        7    21  25    4.44   418.4    5.9      30.589
2014    8        7    21  31    4.44   418.3    5.9      30.584
2014    8        7    21  36    4.44   418.2    5.9      30.580
2014    8        7    21  42    4.45   418.0    5.9      30.576
2014    8        7    21  48    4.45   417.9    5.9      30.571
2014    8        7    21  53    4.45   417.8    5.9      30.567
2014    8        7    21  59    4.45   417.7    5.9      30.563
2014    8        7    22   5    4.45   417.6    5.9      30.559
2014    8        7    22  11    4.46   417.5    5.9      30.555
2014    8        7    22  16    4.46   417.4    5.9      30.550
2014    8        7    22  22    4.46   417.3    5.9      30.547
2014    8        7    22  28    4.46   417.2    5.9      30.543
2014    8        7    22  34    4.46   417.1    5.9      30.539
2014    8        7    22  39    4.47   417.0    5.9      30.535
2014    8        7    22  45    4.47   416.9    6.0      30.531
2014    8        7    22  51    4.47   416.8    6.0      30.527
2014    8        7    22  57    4.47   416.7    6.0      30.523
2014    8        7    23   2    4.47   416.6    6.0      30.520
2014    8        7    23   8    4.48   416.5    6.0      30.516
2014    8        7    23  14    4.48   416.4    6.0      30.513
2014    8        7    23  20    4.48   416.3    6.0      30.509
2014    8        7    23  25    4.48   416.2    6.0      30.506
2014    8        7    23  31    4.49   416.1    6.0      30.502
2014    8        7    23  37    4.49   416.0    6.0      30.499
2014    8        7    23  43    4.49   415.9    6.0      30.496
2014    8        7    23  48    4.49   415.8    6.0      30.492
2014    8        7    23  54    4.49   415.7    6.0      30.489
2014    8        8     0   0    4.50   415.6    6.0      30.486
2014    8        8     0   5    4.50   415.5    6.0      30.483
2014    8        8     0  11    4.50   415.5    6.0      30.480
2014    8        8     0  17    4.50   415.4    6.0      30.477
2014    8        8     0  23    4.50   415.3    6.0      30.474
2014    8        8     0  28    4.51   415.2    6.0      30.471
2014    8        8     0  34    4.51   415.1    6.0      30.468
2014    8        8     0  40    4.51   415.0    6.0      30.465
2014    8        8     0  46    4.51   414.9    6.0      30.463
2014    8        8     0  51    4.51   414.8    6.0      30.460
2014    8        8     0  57    4.52   414.7    6.0      30.457
2014    8        8     1   3    4.52   414.6    6.1      30.455
2014    8        8     1   9    4.52   414.5    6.1      30.453
2014    8        8     1  14    4.52   414.4    6.1      30.450
2014    8        8     1  20    4.52   414.3    6.1      30.448
2014    8        8     1  26    4.53   414.2    6.1      30.446
2014    8        8     1  32    4.53   414.2    6.1      30.444
2014    8        8     1  37    4.53   414.1    6.1      30.442
2014    8        8     1  43    4.53   414.0    6.1      30.440
2014    8        8     1  49    4.53   413.9    6.1      30.438
2014    8        8     1  54    4.54   413.8    6.1      30.436
2014    8        8     2   0    4.54   413.7    6.1      30.435
2014    8        8     2   6    4.54   413.6    6.1      30.433
2014    8        8     2  12    4.54   413.5    6.1      30.432
2014    8        8     2  17    4.54   413.4    6.1      30.431
2014    8        8     2  23    4.55   413.4    6.1      30.430
2014    8        8     2  29    4.55   413.3    6.1      30.428
2014    8        8     2  35    4.55   413.2    6.1      30.428
2014    8        8     2  40    4.55   413.1    6.1      30.427
2014    8        8     2  46    4.56   413.0    6.1      30.426
2014    8        8     2  52    4.56   412.9    6.1      30.426
2014    8        8     2  58    4.56   412.8    6.1      30.425
2014    8        8     3   3    4.56   412.7    6.1      30.425
2014    8        8     3   9    4.56   412.7    6.1      30.425
2014    8        8     3  15    4.57   412.6    6.1      30.425
2014    8        8     3  21    4.57   412.5    6.2      30.425
2014    8        8     3  26    4.57   412.4    6.2      30.426
2014    8        8     3  32    4.57   412.3    6.2      30.426
2014    8        8     3  38    4.57   412.2    6.2      30.427
2014    8        8     3  43    4.58   412.1    6.2      30.428
2014    8        8     3  49    4.58   412.1    6.2      30.429
2014    8        8     3  55    4.58   412.0    6.2      30.430
2014    8        8     4   1    4.58   411.9    6.2      30.431
2014    8        8     4   6    4.58   411.8    6.2      30.433
2014    8        8     4  12    4.59   411.7    6.2      30.434
2014    8        8     4  18    4.59   411.7    6.2      30.436
2014    8        8     4  24    4.59   411.6    6.2      30.438
2014    8        8     4  29    4.59   411.5    6.2      30.439
2014    8        8     4  35    4.59   411.4    6.2      30.441
2014    8        8     4  41    4.60   411.3    6.2      30.444
2014    8        8     4  47    4.60   411.2    6.2      30.446
2014    8        8     4  52    4.60   411.2    6.2      30.448
2014    8        8     4  58    4.60   411.1    6.2      30.451
2014    8        8     5   4    4.61   411.0    6.2      30.454
2014    8        8     5  10    4.61   410.9    6.2      30.457
2014    8        8     5  15    4.61   410.9    6.2      30.460
2014    8        8     5  21    4.61   410.8    6.2      30.464
2014    8        8     5  27    4.61   410.7    6.2      30.468
2014    8        8     5  33    4.62   410.6    6.3      30.472
2014    8        8     5  38    4.62   410.5    6.3      30.476
2014    8        8     5  44    4.62   410.5    6.3      30.480
2014    8        8     5  50    4.62   410.4    6.3      30.484
2014    8        8     5  55    4.62   410.3    6.3      30.488
2014    8        8     6   1    4.63   410.2    6.3      30.492
2014    8        8     6   7    4.63   410.2    6.3      30.496
2014    8        8     6  13    4.63   410.1    6.3      30.500
2014    8        8     6  18    4.63   410.0    6.3      30.503
2014    8        8     6  24    4.64   410.0    6.3      30.507
2014    8        8     6  30    4.64   409.9    6.3      30.510
2014    8        8     6  36    4.64   409.8    6.3      30.514
2014    8        8     6  41    4.64   409.7    6.3      30.517
2014    8        8     6  47    4.64   409.7    6.3      30.520
2014    8        8     6  53    4.65   409.6    6.3      30.523
2014    8        8     6  59    4.65   409.5    6.3      30.526
2014    8        8     7   4    4.65   409.4    6.3      30.529
2014    8        8     7  10    4.65   409.4    6.3      30.531
2014    8        8     7  16    4.65   409.3    6.3      30.534
2014    8        8     7  22    4.66   409.2    6.3      30.536
2014    8        8     7  27    4.66   409.2    6.3      30.539
2014    8        8     7  33    4.66   409.1    6.3      30.541
2014    8        8     7  39    4.66   409.0    6.3      30.543
2014    8        8     7  45    4.67   409.0    6.3      30.545
2014    8        8     7  50    4.67   408.9    6.3      30.547
2014    8        8     7  56    4.67   408.8    6.3      30.549
2014    8        8     8   2    4.67   408.8    6.3      30.551
2014    8        8     8   7    4.67   408.7    6.3      30.553
2014    8        8     8  13    4.68   408.6    6.4      30.554
2014    8        8     8  19    4.68   408.6    6.4      30.556
2014    8        8     8  25    4.68   408.5    6.4      30.557
2014    8        8     8  30    4.68   408.4    6.4      30.559
2014    8        8     8  36    4.68   408.4    6.4      30.560
2014    8        8     8  42    4.69   408.3    6.4      30.561
2014    8        8     8  48    4.69   408.2    6.4      30.563
2014    8        8     8  53    4.69   408.2    6.4      30.564
2014    8        8     8  59    4.69   408.1    6.4      30.566
2014    8        8     9   5    4.69   408.0    6.4      30.567
2014    8        8     9  11    4.70   408.0    6.4      30.568
2014    8        8     9  16    4.70   407.9    6.4      30.569
2014    8        8     9  22    4.70   407.8    6.4      30.571
2014    8        8     9  28    4.70   407.8    6.4      30.572
2014    8        8     9  34    4.70   407.7    6.4      30.573
2014    8        8     9  39    4.71   407.6    6.4      30.575
2014    8        8     9  45    4.71   407.6    6.4      30.576
2014    8        8     9  51    4.71   407.5    6.4      30.578
2014    8        8     9  56    4.71   407.4    6.4      30.580
2014    8        8    10   2    4.71   407.4    6.4      30.582
2014    8        8    10   8    4.72   407.3    6.4      30.584
2014    8        8    10  14    4.72   407.3    6.4      30.586
2014    8        8    10  19    4.72   407.2    6.4      30.588
2014    8        8    10  25    4.72   407.1    6.4      30.590
2014    8        8    10  31    4.73   407.1    6.4      30.593
2014    8        8    10  37    4.73   407.0    6.4      30.596
2014    8        8    10  42    4.73   406.9    6.4      30.599
2014    8        8    10  48    4.73   406.9    6.4      30.602
2014    8        8    10  54    4.73   406.8    6.4      30.605
2014    8        8    11   0    4.74   406.8    6.4      30.609
2014    8        8    11   5    4.74   406.7    6.4      30.613
2014    8        8    11  11    4.74   406.7    6.4      30.617
2014    8        8    11  17    4.74   406.6    6.4      30.621
2014    8        8    11  23    4.74   406.5    6.4      30.625
2014    8        8    11  28    4.75   406.5    6.4      30.630
2014    8        8    11  34    4.75   406.4    6.5      30.635
2014    8        8    11  40    4.75   406.4    6.5      30.640
2014    8        8    11  45    4.75   406.3    6.5      30.646
2014    8        8    11  51    4.75   406.2    6.5      30.651
2014    8        8    11  57    4.76   406.2    6.5      30.657
2014    8        8    12   3    4.76   406.1    6.5      30.664
2014    8        8    12   8    4.76   406.1    6.5      30.670
2014    8        8    12  14    4.76   406.0    6.5      30.677
2014    8        8    12  20    4.76   406.0    6.5      30.684
2014    8        8    12  26    4.77   405.9    6.5      30.691
2014    8        8    12  31    4.77   405.9    6.5      30.699
2014    8        8    12  37    4.77   405.8    6.5      30.707
2014    8        8    12  43    4.77   405.8    6.5      30.715
2014    8        8    12  49    4.78   405.7    6.5      30.724
2014    8        8    12  54    4.78   405.7    6.5      30.733
2014    8        8    13   0    4.78   405.6    6.5      30.742
2014    8        8    13   6    4.78   405.6    6.5      30.752
2014    8        8    13  12    4.78   405.5    6.5      30.761
2014    8        8    13  17    4.79   405.5    6.5      30.771
2014    8        8    13  23    4.79   405.4    6.5      30.780
2014    8        8    13  29    4.79   405.4    6.5      30.790
2014    8        8    13  35    4.79   405.3    6.5      30.799
2014    8        8    13  40    4.79   405.3    6.5      30.809
2014    8        8    13  46    4.80   405.2    6.5      30.818
2014    8        8    13  52    4.80   405.2    6.5      30.828
2014    8        8    13  57    4.80   405.1    6.5      30.837
2014    8        8    14   3    4.80   405.1    6.5      30.846
2014    8        8    14   9    4.80   405.0    6.5      30.856
2014    8        8    14  15    4.81   405.0    6.5      30.865
2014    8        8    14  20    4.81   404.9    6.6      30.874
2014    8        8    14  26    4.81   404.9    6.6      30.883
2014    8        8    14  32    4.81   404.8    6.6      30.892
2014    8        8    14  38    4.81   404.8    6.6      30.901
2014    8        8    14  43    4.82   404.7    6.6      30.910
2014    8        8    14  49    4.82   404.7    6.6      30.919
2014    8        8    14  55    4.82   404.6    6.6      30.928
2014    8        8    15   1    4.82   404.6    6.6      30.937
2014    8        8    15   6    4.82   404.5    6.6      30.946
2014    8        8    15  12    4.83   404.5    6.6      30.954
2014    8        8    15  18    4.83   404.4    6.6      30.963
2014    8        8    15  24    4.83   404.4    6.6      30.971
2014    8        8    15  29    4.83   404.4    6.6      30.979
2014    8        8    15  35    4.84   404.3    6.6      30.988
2014    8        8    15  41    4.84   404.3    6.6      30.996
2014    8        8    15  47    4.84   404.2    6.6      31.004
2014    8        8    15  52    4.84   404.2    6.6      31.012
2014    8        8    15  58    4.84   404.1    6.6      31.019
2014    8        8    16   4    4.85   404.1    6.6      31.027
2014    8        8    16   9    4.85   404.0    6.6      31.035
2014    8        8    16  15    4.85   404.0    6.6      31.042
2014    8        8    16  21    4.85   404.0    6.6      31.050
2014    8        8    16  27    4.85   403.9    6.6      31.057
2014    8        8    16  32    4.86   403.9    6.6      31.064
2014    8        8    16  38    4.86   403.8    6.6      31.071
2014    8        8    16  44    4.86   403.8    6.6      31.078
2014    8        8    16  50    4.86   403.7    6.6      31.085
2014    8        8    16  55    4.86   403.7    6.6      31.092
2014    8        8    17   1    4.87   403.7    6.6      31.099
2014    8        8    17   7    4.87   403.6    6.6      31.106
2014    8        8    17  13    4.87   403.6    6.6      31.113
2014    8        8    17  18    4.87   403.5    6.6      31.120
2014    8        8    17  24    4.87   403.5    6.6      31.127
2014    8        8    17  30    4.88   403.4    6.6      31.133
2014    8        8    17  36    4.88   403.4    6.6      31.140
2014    8        8    17  41    4.88   403.4    6.6      31.147
2014    8        8    17  47    4.88   403.3    6.6      31.154
2014    8        8    17  53    4.88   403.3    6.6      31.161
2014    8        8    17  58    4.89   403.3    6.6      31.169
2014    8        8    18   4    4.89   403.2    6.6      31.176
2014    8        8    18  10    4.89   403.2    6.6      31.183
2014    8        8    18  16    4.89   403.1    6.6      31.191
2014    8        8    18  21    4.89   403.1    6.7      31.198
2014    8        8    18  27    4.89   403.1    6.7      31.206
2014    8        8    18  33    4.90   403.0    6.7      31.214
2014    8        8    18  39    4.90   403.0    6.7      31.222
2014    8        8    18  44    4.90   403.0    6.7      31.231
2014    8        8    18  50    4.90   402.9    6.7      31.239
2014    8        8    18  56    4.90   402.9    6.7      31.248
2014    8        8    19   2    4.91   402.8    6.7      31.257
2014    8        8    19   7    4.91   402.8    6.7      31.266
2014    8        8    19  13    4.91   402.8    6.7      31.276
2014    8        8    19  19    4.91   402.7    6.7      31.286
2014    8        8    19  25    4.91   402.7    6.7      31.296
2014    8        8    19  30    4.92   402.7    6.7      31.306
2014    8        8    19  36    4.92   402.6    6.7      31.316
2014    8        8    19  42    4.92   402.6    6.7      31.327
2014    8        8    19  48    4.92   402.6    6.7      31.338
2014    8        8    19  53    4.92   402.5    6.7      31.349
2014    8        8    19  59    4.93   402.5    6.7      31.361
2014    8        8    20   5    4.93   402.5    6.7      31.373
2014    8        8    20  10    4.93   402.4    6.7      31.385
2014    8        8    20  16    4.93   402.4    6.7      31.397
2014    8        8    20  22    4.93   402.4    6.7      31.409
2014    8        8    20  28    4.94   402.3    6.7      31.422
2014    8        8    20  33    4.94   402.3    6.7      31.435
2014    8        8    20  39    4.94   402.3    6.7      31.448
2014    8        8    20  45    4.94   402.2    6.7      31.461
2014    8        8    20  51    4.94   402.2    6.7      31.475
2014    8        8    20  56    4.94   402.2    6.7      31.488
2014    8        8    21   2    4.95   402.1    6.7      31.502
2014    8        8    21   8    4.95   402.1    6.7      31.516
2014    8        8    21  14    4.95   402.1    6.7      31.530
2014    8        8    21  19    4.95   402.0    6.7      31.545
2014    8        8    21  25    4.95   402.0    6.7      31.559
2014    8        8    21  31    4.96   402.0    6.7      31.574
2014    8        8    21  37    4.96   401.9    6.7      31.589
2014    8        8    21  42    4.96   401.9    6.7      31.604
2014    8        8    21  48    4.96   401.9    6.7      31.619
2014    8        8    21  54    4.96   401.9    6.7      31.634
2014    8        8    22   0    4.97   401.8    6.7      31.650
2014    8        8    22   5    4.97   401.8    6.8      31.665
2014    8        8    22  11    4.97   401.8    6.8      31.680
2014    8        8    22  17    4.97   401.7    6.8      31.696
2014    8        8    22  22    4.97   401.7    6.8      31.712
2014    8        8    22  28    4.98   401.7    6.8      31.727
2014    8        8    22  34    4.98   401.6    6.8      31.743
2014    8        8    22  40    4.98   401.6    6.8      31.758
2014    8        8    22  45    4.98   401.6    6.8      31.774
2014    8        8    22  51    4.98   401.5    6.8      31.790
2014    8        8    22  57    4.99   401.5    6.8      31.806
2014    8        8    23   3    4.99   401.5    6.8      31.822
2014    8        8    23   8    4.99   401.4    6.8      31.838
2014    8        8    23  14    4.99   401.4    6.8      31.854
2014    8        8    23  20    4.99   401.4    6.8      31.871
2014    8        8    23  26    5.00   401.4    6.8      31.887
2014    8        8    23  31    5.00   401.3    6.8      31.904
2014    8        8    23  37    5.00   401.3    6.8      31.920
2014    8        8    23  43    5.00   401.3    6.8      31.936
2014    8        8    23  49    5.00   401.3    6.8      31.953
2014    8        8    23  54    5.00   401.2    6.8      31.968
2014    8        9     0   0    5.01   401.2    6.8      31.984
2014    8        9     0   6    5.01   401.2    6.8      32.000
2014    8        9     0  11    5.01   401.2    6.8      32.016
2014    8        9     0  17    5.01   401.1    6.8      32.031
2014    8        9     0  23    5.01   401.1    6.8      32.046
2014    8        9     0  29    5.02   401.1    6.8      32.061
2014    8        9     0  34    5.02   401.1    6.8      32.076
2014    8        9     0  40    5.02   401.0    6.8      32.091
2014    8        9     0  46    5.02   401.0    6.8      32.106
2014    8        9     0  52    5.02   401.0    6.8      32.120
2014    8        9     0  57    5.03   401.0    6.8      32.135
2014    8        9     1   3    5.03   400.9    6.8      32.149
2014    8        9     1   9    5.03   400.9    6.8      32.163
2014    8        9     1  15    5.03   400.9    6.8      32.177
2014    8        9     1  20    5.03   400.9    6.8      32.191
2014    8        9     1  26    5.03   400.8    6.8      32.206
2014    8        9     1  32    5.04   400.8    6.8      32.219
2014    8        9     1  38    5.04   400.8    6.8      32.233
2014    8        9     1  43    5.04   400.8    6.8      32.247
2014    8        9     1  49    5.04   400.8    6.8      32.261
2014    8        9     1  55    5.04   400.7    6.8      32.275
2014    8        9     2   0    5.05   400.7    6.8      32.289
2014    8        9     2   6    5.05   400.7    6.8      32.303
2014    8        9     2  12    5.05   400.7    6.8      32.318
2014    8        9     2  18    5.05   400.7    6.8      32.332
2014    8        9     2  23    5.05   400.6    6.8      32.346
2014    8        9     2  29    5.05   400.6    6.8      32.361
2014    8        9     2  35    5.06   400.6    6.8      32.376
2014    8        9     2  41    5.06   400.6    6.9      32.390
2014    8        9     2  46    5.06   400.6    6.9      32.405
2014    8        9     2  52    5.06   400.5    6.9      32.420
2014    8        9     2  58    5.06   400.5    6.9      32.435
2014    8        9     3   4    5.07   400.5    6.9      32.451
2014    8        9     3   9    5.07   400.5    6.9      32.466
2014    8        9     3  15    5.07   400.5    6.9      32.482
2014    8        9     3  21    5.07   400.5    6.9      32.498
2014    8        9     3  27    5.07   400.4    6.9      32.514
2014    8        9     3  32    5.07   400.4    6.9      32.531
2014    8        9     3  38    5.08   400.4    6.9      32.547
2014    8        9     3  44    5.08   400.4    6.9      32.564
2014    8        9     3  50    5.08   400.4    6.9      32.581
2014    8        9     3  55    5.08   400.4    6.9      32.598
2014    8        9     4   1    5.08   400.3    6.9      32.616
2014    8        9     4   7    5.08   400.3    6.9      32.633
2014    8        9     4  12    5.09   400.3    6.9      32.651
2014    8        9     4  18    5.09   400.3    6.9      32.669
2014    8        9     4  24    5.09   400.3    6.9      32.687
2014    8        9     4  30    5.09   400.3    6.9      32.706
2014    8        9     4  35    5.09   400.3    6.9      32.724
2014    8        9     4  41    5.10   400.3    6.9      32.743
2014    8        9     4  47    5.10   400.2    6.9      32.761
2014    8        9     4  53    5.10   400.2    6.9      32.780
2014    8        9     4  58    5.10   400.2    6.9      32.800
2014    8        9     5   4    5.10   400.2    6.9      32.819
2014    8        9     5  10    5.11   400.2    6.9      32.838
2014    8        9     5  16    5.11   400.2    6.9      32.858
2014    8        9     5  21    5.11   400.2    6.9      32.878
2014    8        9     5  27    5.11   400.1    6.9      32.898
2014    8        9     5  33    5.11   400.1    6.9      32.918
2014    8        9     5  39    5.11   400.1    6.9      32.938
2014    8        9     5  44    5.12   400.1    6.9      32.959
2014    8        9     5  50    5.12   400.1    6.9      32.979
2014    8        9     5  56    5.12   400.1    6.9      33.001
2014    8        9     6   2    5.12   400.1    6.9      33.022
2014    8        9     6   7    5.12   400.1    6.9      33.044
2014    8        9     6  13    5.12   400.1    6.9      33.067
2014    8        9     6  19    5.13   400.1    6.9      33.089
2014    8        9     6  24    5.13   400.1    6.9      33.112
2014    8        9     6  30    5.13   400.0    6.9      33.135
2014    8        9     6  36    5.13   400.0    6.9      33.158
2014    8        9     6  42    5.13   400.0    6.9      33.181
2014    8        9     6  47    5.14   400.0    7.0      33.203
2014    8        9     6  53    5.14   400.0    7.0      33.226
2014    8        9     6  59    5.14   400.0    7.0      33.249
2014    8        9     7   5    5.14   400.0    7.0      33.271
2014    8        9     7  10    5.14   400.0    7.0      33.294
2014    8        9     7  16    5.14   400.0    7.0      33.316
2014    8        9     7  22    5.15   400.0    7.0      33.338
2014    8        9     7  28    5.15   400.0    7.0      33.359
2014    8        9     7  33    5.15   400.0    7.0      33.381
2014    8        9     7  39    5.15   400.0    7.0      33.402
2014    8        9     7  45    5.15   400.0    7.0      33.423
2014    8        9     7  51    5.15   400.0    7.0      33.443
2014    8        9     7  56    5.15   400.0    7.0      33.464
2014    8        9     8   2    5.16   400.0    7.0      33.484
2014    8        9     8   8    5.16   400.0    7.0      33.504
2014    8        9     8  13    5.16   400.0    7.0      33.523
2014    8        9     8  19    5.16   400.0    7.0      33.543
2014    8        9     8  25    5.16   400.0    7.0      33.562
2014    8        9     8  31    5.16   400.0    7.0      33.581
2014    8        9     8  36    5.17   400.0    7.0      33.600
2014    8        9     8  42    5.17   400.0    7.0      33.618
2014    8        9     8  48    5.17   400.0    7.0      33.637
2014    8        9     8  54    5.17   400.0    7.0      33.655
2014    8        9     8  59    5.17   400.0    7.0      33.673
2014    8        9     9   5    5.17   400.0    7.0      33.691
2014    8        9     9  11    5.18   400.0    7.0      33.709
2014    8        9     9  17    5.18   400.0    7.0      33.726
2014    8        9     9  22    5.18   400.0    7.0      33.744
2014    8        9     9  28    5.18   400.0    7.0      33.761
2014    8        9     9  34    5.18   400.0    7.0      33.779
2014    8        9     9  40    5.18   400.0    7.0      33.796
2014    8        9     9  45    5.18   400.0    7.0      33.813
2014    8        9     9  51    5.19   400.0    7.0      33.831
2014    8        9     9  57    5.19   400.0    7.0      33.848
2014    8        9    10   2    5.19   400.0    7.0      33.866
2014    8        9    10   8    5.19   400.0    7.0      33.883
2014    8        9    10  14    5.19   400.0    7.0      33.901
2014    8        9    10  20    5.19   400.0    7.0      33.918
2014    8        9    10  25    5.20   400.0    7.0      33.936
2014    8        9    10  31    5.20   400.0    7.0      33.953
2014    8        9    10  37    5.20   400.0    7.0      33.971
2014    8        9    10  43    5.20   400.0    7.0      33.989
2014    8        9    10  48    5.20   400.0    7.0      34.007
2014    8        9    10  54    5.20   400.0    7.0      34.025
2014    8        9    11   0    5.21   400.0    7.0      34.043
2014    8        9    11   6    5.21   400.0    7.0      34.061
2014    8        9    11  11    5.21   400.0    7.0      34.079
2014    8        9    11  17    5.21   400.1    7.0      34.098
2014    8        9    11  23    5.21   400.1    7.0      34.116
2014    8        9    11  29    5.21   400.1    7.0      34.135
2014    8        9    11  34    5.22   400.1    7.0      34.154
2014    8        9    11  40    5.22   400.1    7.0      34.172
2014    8        9    11  46    5.22   400.1    7.0      34.191
2014    8        9    11  52    5.22   400.1    7.0      34.211
2014    8        9    11  57    5.22   400.1    7.0      34.230
2014    8        9    12   3    5.22   400.1    7.0      34.249
2014    8        9    12   9    5.22   400.1    7.0      34.268
2014    8        9    12  15    5.23   400.2    7.0      34.288
2014    8        9    12  20    5.23   400.2    7.0      34.307
2014    8        9    12  26    5.23   400.2    7.0      34.327
2014    8        9    12  32    5.23   400.2    7.0      34.346
2014    8        9    12  37    5.23   400.2    7.0      34.366
2014    8        9    12  43    5.23   400.2    7.0      34.386
2014    8        9    12  49    5.24   400.2    7.0      34.406
2014    8        9    12  55    5.24   400.2    7.0      34.425
2014    8        9    13   0    5.24   400.2    7.0      34.446
2014    8        9    13   6    5.24   400.3    7.1      34.466
2014    8        9    13  12    5.24   400.3    7.1      34.487
2014    8        9    13  18    5.24   400.3    7.1      34.508
2014    8        9    13  23    5.24   400.3    7.1      34.529
2014    8        9    13  29    5.25   400.3    7.1      34.551
2014    8        9    13  35    5.25   400.3    7.1      34.573
2014    8        9    13  41    5.25   400.4    7.1      34.595
2014    8        9    13  46    5.25   400.4    7.1      34.617
2014    8        9    13  52    5.25   400.4    7.1      34.641
2014    8        9    13  58    5.25   400.4    7.1      34.664
2014    8        9    14   4    5.25   400.4    7.1      34.687
2014    8        9    14   9    5.25   400.5    7.1      34.711
2014    8        9    14  15    5.26   400.5    7.1      34.734
2014    8        9    14  21    5.26   400.5    7.1      34.757
2014    8        9    14  26    5.26   400.5    7.1      34.781
2014    8        9    14  32    5.26   400.5    7.1      34.804
2014    8        9    14  38    5.26   400.6    7.1      34.827
2014    8        9    14  44    5.26   400.6    7.1      34.849
2014    8        9    14  49    5.26   400.6    7.1      34.871
2014    8        9    14  55    5.26   400.6    7.1      34.893
2014    8        9    15   1    5.27   400.7    7.1      34.914
2014    8        9    15   7    5.27   400.7    7.1      34.935
2014    8        9    15  12    5.27   400.7    7.1      34.956
2014    8        9    15  18    5.27   400.7    7.1      34.976
2014    8        9    15  24    5.27   400.8    7.1      34.996
2014    8        9    15  30    5.27   400.8    7.1      35.016
2014    8        9    15  35    5.27   400.8    7.1      35.035
2014    8        9    15  41    5.27   400.8    7.1      35.054
2014    8        9    15  47    5.28   400.8    7.1      35.073
2014    8        9    15  53    5.28   400.9    7.1      35.091
2014    8        9    15  58    5.28   400.9    7.1      35.110
2014    8        9    16   4    5.28   400.9    7.1      35.128
2014    8        9    16  10    5.28   400.9    7.1      35.145
2014    8        9    16  15    5.28   401.0    7.1      35.163
2014    8        9    16  21    5.28   401.0    7.1      35.180
2014    8        9    16  27    5.28   401.0    7.1      35.197
2014    8        9    16  33    5.28   401.0    7.1      35.214
2014    8        9    16  38    5.29   401.1    7.1      35.231
2014    8        9    16  44    5.29   401.1    7.1      35.247
2014    8        9    16  50    5.29   401.1    7.1      35.263
2014    8        9    16  56    5.29   401.1    7.1      35.279
2014    8        9    17   1    5.29   401.1    7.1      35.296
2014    8        9    17   7    5.29   401.2    7.1      35.312
2014    8        9    17  13    5.29   401.2    7.1      35.328
2014    8        9    17  19    5.29   401.2    7.1      35.343
2014    8        9    17  24    5.29   401.2    7.1      35.359
2014    8        9    17  30    5.30   401.3    7.1      35.375
2014    8        9    17  36    5.30   401.3    7.1      35.391
2014    8        9    17  42    5.30   401.3    7.1      35.406
2014    8        9    17  47    5.30   401.3    7.1      35.422
2014    8        9    17  53    5.30   401.4    7.1      35.438
2014    8        9    17  59    5.30   401.4    7.1      35.454
2014    8        9    18   5    5.30   401.4    7.1      35.469
2014    8        9    18  10    5.30   401.4    7.1      35.485
2014    8        9    18  16    5.31   401.5    7.1      35.501
2014    8        9    18  22    5.31   401.5    7.1      35.517
2014    8        9    18  27    5.31   401.5    7.1      35.533
2014    8        9    18  33    5.31   401.6    7.1      35.550
2014    8        9    18  39    5.31   401.6    7.1      35.566
2014    8        9    18  45    5.31   401.6    7.1      35.584
2014    8        9    18  50    5.31   401.7    7.1      35.601
2014    8        9    18  56    5.31   401.7    7.1      35.618
2014    8        9    19   2    5.31   401.7    7.1      35.636
2014    8        9    19   8    5.32   401.8    7.1      35.655
2014    8        9    19  13    5.32   401.8    7.1      35.673
2014    8        9    19  19    5.32   401.8    7.1      35.691
2014    8        9    19  25    5.32   401.9    7.1      35.709
2014    8        9    19  31    5.32   401.9    7.1      35.728
2014    8        9    19  36    5.32   402.0    7.1      35.745
2014    8        9    19  42    5.32   402.0    7.1      35.763
2014    8        9    19  48    5.32   402.0    7.1      35.781
2014    8        9    19  54    5.32   402.1    7.1      35.799
2014    8        9    19  59    5.32   402.1    7.1      35.816
2014    8        9    20   5    5.33   402.1    7.1      35.834
2014    8        9    20  11    5.33   402.2    7.1      35.851
2014    8        9    20  17    5.33   402.2    7.1      35.868
2014    8        9    20  22    5.33   402.3    7.1      35.885
2014    8        9    20  28    5.33   402.3    7.1      35.902
2014    8        9    20  34    5.33   402.3    7.1      35.919
2014    8        9    20  39    5.33   402.4    7.1      35.935
2014    8        9    20  45    5.33   402.4    7.1      35.952
2014    8        9    20  51    5.33   402.4    7.1      35.968
2014    8        9    20  57    5.33   402.5    7.1      35.985
2014    8        9    21   2    5.33   402.5    7.1      36.001
2014    8        9    21   8    5.33   402.6    7.1      36.017
2014    8        9    21  14    5.33   402.6    7.1      36.034
2014    8        9    21  20    5.34   402.6    7.1      36.050
2014    8        9    21  25    5.34   402.7    7.1      36.066
2014    8        9    21  31    5.34   402.7    7.1      36.082
2014    8        9    21  37    5.34   402.8    7.1      36.099
2014    8        9    21  43    5.34   402.8    7.1      36.115
2014    8        9    21  48    5.34   402.8    7.1      36.131
2014    8        9    21  54    5.34   402.9    7.1      36.148
2014    8        9    22   0    5.34   402.9    7.1      36.164
2014    8        9    22   6    5.34   403.0    7.1      36.181
2014    8        9    22  11    5.34   403.0    7.1      36.197
2014    8        9    22  17    5.34   403.0    7.1      36.212
2014    8        9    22  23    5.34   403.1    7.1      36.228
2014    8        9    22  28    5.34   403.1    7.1      36.243
2014    8        9    22  34    5.34   403.2    7.1      36.258
2014    8        9    22  40    5.35   403.2    7.1      36.273
2014    8        9    22  46    5.35   403.3    7.1      36.287
2014    8        9    22  51    5.35   403.3    7.1      36.301
2014    8        9    22  57    5.35   403.3    7.1      36.315
2014    8        9    23   3    5.35   403.4    7.1      36.329
2014    8        9    23   9    5.35   403.4    7.1      36.342
2014    8        9    23  14    5.35   403.5    7.1      36.355
2014    8        9    23  20    5.35   403.5    7.1      36.368
2014    8        9    23  26    5.35   403.5    7.1      36.381
2014    8        9    23  32    5.35   403.6    7.1      36.393
2014    8        9    23  37    5.35   403.6    7.1      36.405
2014    8        9    23  43    5.35   403.6    7.1      36.417
2014    8        9    23  49    5.35   403.7    7.1      36.429
2014    8        9    23  55    5.35   403.7    7.1      36.441
2014    8       10     0   0    5.35   403.8    7.1      36.452
