year    month   day   hour  minute  B_enl V_enl   n_enl       T_enl
[year] [month] [day] [hour][minute] [nT]  [km/s]  [cm-3]      [kK]
2014    8       12     0   3    6.43   424.3    9.5      50.843
2014    8       12     0   9    6.43   424.5    9.5      50.900
2014    8       12     0  15    6.44   424.8    9.5      50.957
2014    8       12     0  21    6.44   425.0    9.5      51.014
2014    8       12     0  27    6.44   425.3    9.5      51.071
2014    8       12     0  32    6.44   425.6    9.4      51.128
2014    8       12     0  38    6.44   425.8    9.4      51.184
2014    8       12     0  44    6.44   426.1    9.4      51.241
2014    8       12     0  50    6.45   426.3    9.4      51.297
2014    8       12     0  56    6.45   426.6    9.4      51.354
2014    8       12     1   2    6.45   426.8    9.4      51.414
2014    8       12     1   8    6.45   427.1    9.4      51.475
2014    8       12     1  14    6.45   427.4    9.4      51.539
2014    8       12     1  20    6.46   427.7    9.4      51.605
2014    8       12     1  26    6.46   427.9    9.4      51.673
2014    8       12     1  32    6.46   428.2    9.4      51.744
2014    8       12     1  38    6.46   428.5    9.4      51.817
2014    8       12     1  44    6.46   428.8    9.4      51.890
2014    8       12     1  50    6.47   429.1    9.4      51.964
2014    8       12     1  56    6.47   429.4    9.4      52.037
2014    8       12     2   2    6.47   429.8    9.4      52.110
2014    8       12     2   7    6.47   430.1    9.4      52.183
2014    8       12     2  13    6.47   430.4    9.4      52.255
2014    8       12     2  19    6.47   430.7    9.3      52.328
2014    8       12     2  25    6.47   431.0    9.3      52.401
2014    8       12     2  31    6.47   431.3    9.3      52.473
2014    8       12     2  37    6.47   431.6    9.3      52.545
2014    8       12     2  43    6.47   431.9    9.3      52.617
2014    8       12     2  49    6.47   432.2    9.3      52.689
2014    8       12     2  55    6.47   432.6    9.3      52.761
2014    8       12     3   1    6.47   432.9    9.3      52.833
2014    8       12     3   7    6.48   433.2    9.3      52.905
2014    8       12     3  13    6.48   433.5    9.3      52.978
2014    8       12     3  19    6.48   433.8    9.3      53.050
2014    8       12     3  25    6.48   434.2    9.3      53.122
2014    8       12     3  31    6.48   434.5    9.2      53.195
2014    8       12     3  37    6.48   434.8    9.2      53.268
2014    8       12     3  42    6.48   435.1    9.2      53.340
2014    8       12     3  48    6.48   435.4    9.2      53.413
2014    8       12     3  54    6.48   435.8    9.2      53.486
2014    8       12     4   0    6.48   436.1    9.2      53.559
2014    8       12     4   6    6.48   436.4    9.2      53.632
2014    8       12     4  12    6.48   436.8    9.2      53.705
2014    8       12     4  18    6.48   437.1    9.2      53.779
2014    8       12     4  24    6.48   437.4    9.1      53.851
2014    8       12     4  30    6.47   437.8    9.1      53.924
2014    8       12     4  36    6.47   438.1    9.1      53.996
2014    8       12     4  42    6.47   438.4    9.1      54.068
2014    8       12     4  48    6.47   438.8    9.1      54.139
2014    8       12     4  54    6.47   439.1    9.1      54.208
2014    8       12     5   0    6.47   439.5    9.1      54.277
2014    8       12     5   6    6.47   439.8    9.1      54.343
2014    8       12     5  11    6.47   440.2    9.1      54.409
2014    8       12     5  17    6.47   440.5    9.0      54.472
2014    8       12     5  23    6.47   440.9    9.0      54.533
2014    8       12     5  29    6.46   441.3    9.0      54.592
2014    8       12     5  35    6.46   441.6    9.0      54.648
2014    8       12     5  41    6.46   442.0    9.0      54.701
2014    8       12     5  47    6.46   442.3    9.0      54.752
2014    8       12     5  53    6.46   442.7    8.9      54.800
2014    8       12     5  59    6.45   443.0    8.9      54.846
2014    8       12     6   5    6.45   443.4    8.9      54.890
2014    8       12     6  11    6.45   443.7    8.9      54.932
2014    8       12     6  17    6.44   444.1    8.9      54.972
2014    8       12     6  23    6.44   444.4    8.9      55.012
2014    8       12     6  29    6.44   444.8    8.8      55.050
2014    8       12     6  35    6.44   445.1    8.8      55.087
2014    8       12     6  41    6.43   445.5    8.8      55.124
2014    8       12     6  46    6.43   445.8    8.8      55.161
2014    8       12     6  52    6.43   446.2    8.8      55.198
2014    8       12     6  58    6.42   446.6    8.7      55.234
2014    8       12     7   4    6.42   446.9    8.7      55.271
2014    8       12     7  10    6.42   447.3    8.7      55.307
2014    8       12     7  16    6.41   447.7    8.7      55.342
2014    8       12     7  22    6.41   448.0    8.7      55.375
2014    8       12     7  28    6.40   448.4    8.6      55.405
2014    8       12     7  34    6.40   448.8    8.6      55.434
2014    8       12     7  40    6.39   449.1    8.6      55.461
2014    8       12     7  46    6.39   449.5    8.6      55.486
2014    8       12     7  52    6.38   449.9    8.5      55.505
2014    8       12     7  58    6.38   450.2    8.5      55.517
2014    8       12     8   4    6.37   450.6    8.5      55.525
2014    8       12     8  10    6.36   450.9    8.5      55.528
2014    8       12     8  16    6.36   451.2    8.4      55.528
2014    8       12     8  21    6.35   451.6    8.4      55.523
2014    8       12     8  27    6.34   451.9    8.4      55.514
2014    8       12     8  33    6.34   452.2    8.4      55.505
2014    8       12     8  39    6.33   452.5    8.3      55.497
2014    8       12     8  45    6.32   452.8    8.3      55.490
2014    8       12     8  51    6.32   453.1    8.3      55.483
2014    8       12     8  57    6.31   453.4    8.3      55.476
2014    8       12     9   3    6.30   453.7    8.2      55.471
2014    8       12     9   9    6.30   454.0    8.2      55.465
2014    8       12     9  15    6.29   454.3    8.2      55.460
2014    8       12     9  21    6.28   454.6    8.2      55.456
2014    8       12     9  27    6.28   454.8    8.2      55.453
2014    8       12     9  33    6.27   455.1    8.1      55.451
2014    8       12     9  39    6.26   455.4    8.1      55.450
2014    8       12     9  45    6.26   455.7    8.1      55.450
2014    8       12     9  51    6.25   456.0    8.1      55.451
2014    8       12     9  56    6.25   456.3    8.1      55.452
2014    8       12    10   2    6.24   456.6    8.0      55.454
2014    8       12    10   8    6.23   456.8    8.0      55.457
2014    8       12    10  14    6.23   457.1    8.0      55.461
2014    8       12    10  20    6.22   457.4    8.0      55.465
2014    8       12    10  26    6.21   457.7    8.0      55.470
2014    8       12    10  32    6.21   457.9    7.9      55.476
2014    8       12    10  38    6.20   458.2    7.9      55.482
2014    8       12    10  44    6.19   458.5    7.9      55.488
2014    8       12    10  50    6.19   458.8    7.9      55.495
2014    8       12    10  56    6.18   459.0    7.9      55.502
2014    8       12    11   2    6.18   459.3    7.9      55.510
2014    8       12    11   8    6.17   459.6    7.8      55.517
2014    8       12    11  14    6.16   459.8    7.8      55.525
2014    8       12    11  20    6.16   460.1    7.8      55.532
2014    8       12    11  26    6.15   460.4    7.8      55.540
2014    8       12    11  31    6.14   460.7    7.8      55.548
2014    8       12    11  37    6.14   460.9    7.7      55.555
2014    8       12    11  43    6.13   461.2    7.7      55.562
2014    8       12    11  49    6.13   461.5    7.7      55.569
2014    8       12    11  55    6.12   461.8    7.7      55.575
2014    8       12    12   1    6.11   462.1    7.7      55.581
2014    8       12    12   7    6.11   462.4    7.7      55.586
2014    8       12    12  13    6.10   462.7    7.6      55.589
2014    8       12    12  19    6.09   463.0    7.6      55.590
2014    8       12    12  25    6.08   463.2    7.6      55.587
2014    8       12    12  31    6.08   463.5    7.6      55.582
2014    8       12    12  37    6.07   463.8    7.6      55.575
2014    8       12    12  43    6.06   464.1    7.5      55.564
2014    8       12    12  49    6.05   464.3    7.5      55.550
2014    8       12    12  55    6.05   464.6    7.5      55.535
2014    8       12    13   0    6.04   464.8    7.5      55.519
2014    8       12    13   6    6.03   465.1    7.5      55.503
2014    8       12    13  12    6.02   465.3    7.5      55.485
2014    8       12    13  18    6.01   465.6    7.4      55.466
2014    8       12    13  24    6.01   465.8    7.4      55.446
2014    8       12    13  30    6.00   466.1    7.4      55.426
2014    8       12    13  36    5.99   466.3    7.4      55.407
2014    8       12    13  42    5.98   466.6    7.4      55.388
2014    8       12    13  48    5.97   466.8    7.3      55.369
2014    8       12    13  54    5.97   467.1    7.3      55.350
2014    8       12    14   0    5.96   467.3    7.3      55.334
2014    8       12    14   6    5.95   467.6    7.3      55.318
2014    8       12    14  12    5.94   467.8    7.3      55.303
2014    8       12    14  18    5.93   468.1    7.3      55.289
2014    8       12    14  24    5.93   468.3    7.2      55.276
2014    8       12    14  29    5.92   468.6    7.2      55.263
2014    8       12    14  35    5.91   468.8    7.2      55.250
2014    8       12    14  41    5.90   469.1    7.2      55.236
2014    8       12    14  47    5.89   469.4    7.2      55.221
2014    8       12    14  53    5.88   469.7    7.1      55.203
2014    8       12    14  59    5.87   470.0    7.1      55.184
2014    8       12    15   5    5.86   470.3    7.1      55.163
2014    8       12    15  11    5.85   470.6    7.1      55.133
2014    8       12    15  17    5.84   470.9    7.1      55.096
2014    8       12    15  23    5.83   471.2    7.0      55.050
2014    8       12    15  29    5.82   471.4    7.0      54.998
2014    8       12    15  35    5.81   471.7    7.0      54.942
2014    8       12    15  41    5.80   471.9    7.0      54.879
2014    8       12    15  47    5.79   472.2    6.9      54.810
2014    8       12    15  53    5.78   472.4    6.9      54.740
2014    8       12    15  59    5.77   472.6    6.9      54.672
2014    8       12    16   5    5.76   472.8    6.9      54.603
2014    8       12    16  10    5.75   473.0    6.9      54.536
2014    8       12    16  16    5.74   473.2    6.8      54.469
2014    8       12    16  22    5.72   473.4    6.8      54.402
2014    8       12    16  28    5.71   473.6    6.8      54.337
2014    8       12    16  34    5.70   473.8    6.8      54.273
2014    8       12    16  40    5.69   473.9    6.8      54.210
2014    8       12    16  46    5.68   474.1    6.7      54.150
2014    8       12    16  52    5.67   474.3    6.7      54.091
2014    8       12    16  58    5.66   474.5    6.7      54.034
2014    8       12    17   4    5.65   474.6    6.7      53.978
2014    8       12    17  10    5.64   474.8    6.7      53.923
2014    8       12    17  16    5.64   474.9    6.7      53.870
2014    8       12    17  22    5.63   475.1    6.6      53.818
2014    8       12    17  28    5.62   475.3    6.6      53.767
2014    8       12    17  34    5.61   475.4    6.6      53.718
2014    8       12    17  40    5.60   475.6    6.6      53.669
2014    8       12    17  45    5.59   475.7    6.6      53.622
2014    8       12    17  51    5.58   475.9    6.6      53.576
2014    8       12    17  57    5.57   476.0    6.5      53.531
2014    8       12    18   3    5.56   476.1    6.5      53.487
2014    8       12    18   9    5.55   476.3    6.5      53.443
2014    8       12    18  15    5.55   476.4    6.5      53.401
2014    8       12    18  21    5.54   476.6    6.5      53.359
2014    8       12    18  27    5.53   476.7    6.5      53.318
2014    8       12    18  33    5.52   476.9    6.5      53.277
2014    8       12    18  39    5.51   477.0    6.5      53.237
2014    8       12    18  45    5.50   477.1    6.4      53.197
2014    8       12    18  51    5.49   477.3    6.4      53.157
2014    8       12    18  57    5.48   477.4    6.4      53.118
2014    8       12    19   3    5.48   477.6    6.4      53.078
2014    8       12    19   9    5.47   477.7    6.4      53.038
2014    8       12    19  14    5.46   477.9    6.4      52.998
2014    8       12    19  20    5.45   478.0    6.4      52.954
2014    8       12    19  26    5.44   478.2    6.3      52.909
2014    8       12    19  32    5.43   478.3    6.3      52.861
2014    8       12    19  38    5.42   478.4    6.3      52.810
2014    8       12    19  44    5.41   478.6    6.3      52.758
2014    8       12    19  50    5.40   478.7    6.3      52.704
2014    8       12    19  56    5.39   478.8    6.3      52.650
2014    8       12    20   2    5.38   478.9    6.3      52.596
2014    8       12    20   8    5.38   479.0    6.2      52.542
2014    8       12    20  14    5.37   479.1    6.2      52.489
2014    8       12    20  20    5.36   479.2    6.2      52.435
2014    8       12    20  26    5.35   479.3    6.2      52.382
2014    8       12    20  32    5.34   479.4    6.2      52.329
2014    8       12    20  38    5.33   479.4    6.2      52.276
2014    8       12    20  43    5.32   479.5    6.2      52.224
2014    8       12    20  49    5.31   479.6    6.2      52.173
2014    8       12    20  55    5.30   479.6    6.1      52.122
2014    8       12    21   1    5.29   479.7    6.1      52.071
2014    8       12    21   7    5.29   479.8    6.1      52.020
2014    8       12    21  13    5.28   479.8    6.1      51.970
2014    8       12    21  19    5.27   479.8    6.1      51.921
2014    8       12    21  25    5.26   479.9    6.1      51.872
2014    8       12    21  31    5.25   479.9    6.1      51.822
2014    8       12    21  37    5.24   480.0    6.1      51.774
2014    8       12    21  43    5.23   480.0    6.1      51.726
2014    8       12    21  49    5.23   480.1    6.1      51.678
2014    8       12    21  55    5.22   480.1    6.0      51.631
2014    8       12    22   1    5.21   480.2    6.0      51.583
2014    8       12    22   7    5.20   480.2    6.0      51.535
2014    8       12    22  13    5.19   480.3    6.0      51.488
2014    8       12    22  18    5.19   480.4    6.0      51.440
2014    8       12    22  24    5.18   480.5    6.0      51.392
2014    8       12    22  30    5.17   480.5    6.0      51.343
2014    8       12    22  36    5.16   480.6    6.0      51.295
2014    8       12    22  42    5.15   480.7    6.0      51.247
2014    8       12    22  48    5.15   480.8    6.0      51.198
2014    8       12    22  54    5.14   480.8    6.0      51.147
2014    8       12    23   0    5.13   480.9    5.9      51.096
2014    8       12    23   6    5.12   481.0    5.9      51.043
2014    8       12    23  12    5.11   481.0    5.9      50.990
2014    8       12    23  18    5.10   481.1    5.9      50.935
2014    8       12    23  24    5.10   481.2    5.9      50.880
2014    8       12    23  30    5.09   481.2    5.9      50.825
2014    8       12    23  36    5.08   481.3    5.9      50.771
2014    8       12    23  42    5.07   481.3    5.9      50.718
2014    8       12    23  48    5.06   481.4    5.9      50.665
2014    8       12    23  54    5.06   481.4    5.9      50.613
2014    8       12    23  59    5.05   481.5    5.8      50.560
2014    8       13     0   5    5.04   481.5    5.8      50.509
2014    8       13     0  11    5.03   481.6    5.8      50.457
2014    8       13     0  17    5.03   481.6    5.8      50.406
2014    8       13     0  23    5.02   481.7    5.8      50.356
2014    8       13     0  29    5.01   481.7    5.8      50.305
2014    8       13     0  35    5.00   481.8    5.8      50.255
2014    8       13     0  41    5.00   481.8    5.8      50.206
2014    8       13     0  47    4.99   481.9    5.8      50.156
2014    8       13     0  53    4.98   481.9    5.8      50.107
2014    8       13     0  59    4.97   481.9    5.8      50.058
2014    8       13     1   5    4.97   482.0    5.8      50.009
2014    8       13     1  11    4.96   482.0    5.7      49.961
2014    8       13     1  17    4.95   482.1    5.7      49.914
2014    8       13     1  23    4.95   482.1    5.7      49.867
2014    8       13     1  28    4.94   482.2    5.7      49.820
2014    8       13     1  34    4.93   482.2    5.7      49.774
2014    8       13     1  40    4.93   482.2    5.7      49.728
2014    8       13     1  46    4.92   482.3    5.7      49.683
2014    8       13     1  52    4.91   482.3    5.7      49.639
2014    8       13     1  58    4.90   482.3    5.7      49.595
2014    8       13     2   4    4.90   482.3    5.7      49.551
2014    8       13     2  10    4.89   482.4    5.7      49.508
2014    8       13     2  16    4.88   482.4    5.7      49.466
2014    8       13     2  22    4.88   482.4    5.7      49.425
2014    8       13     2  28    4.87   482.4    5.7      49.383
2014    8       13     2  34    4.86   482.5    5.6      49.342
2014    8       13     2  40    4.86   482.5    5.6      49.302
2014    8       13     2  46    4.85   482.5    5.6      49.261
2014    8       13     2  52    4.84   482.5    5.6      49.221
2014    8       13     2  58    4.84   482.5    5.6      49.182
2014    8       13     3   3    4.83   482.5    5.6      49.143
2014    8       13     3   9    4.82   482.5    5.6      49.104
2014    8       13     3  15    4.82   482.5    5.6      49.065
2014    8       13     3  21    4.81   482.5    5.6      49.026
2014    8       13     3  27    4.80   482.5    5.6      48.986
2014    8       13     3  33    4.80   482.5    5.6      48.946
2014    8       13     3  39    4.79   482.5    5.6      48.906
2014    8       13     3  45    4.78   482.5    5.6      48.865
2014    8       13     3  51    4.78   482.5    5.6      48.824
2014    8       13     3  57    4.77   482.5    5.6      48.782
2014    8       13     4   3    4.76   482.5    5.5      48.740
2014    8       13     4   9    4.76   482.5    5.5      48.697
2014    8       13     4  15    4.75   482.5    5.5      48.654
2014    8       13     4  21    4.75   482.5    5.5      48.610
2014    8       13     4  27    4.74   482.5    5.5      48.567
2014    8       13     4  32    4.73   482.4    5.5      48.523
2014    8       13     4  38    4.73   482.4    5.5      48.479
2014    8       13     4  44    4.72   482.4    5.5      48.434
2014    8       13     4  50    4.71   482.4    5.5      48.390
2014    8       13     4  56    4.71   482.4    5.5      48.345
2014    8       13     5   2    4.70   482.4    5.5      48.300
2014    8       13     5   8    4.70   482.4    5.5      48.255
2014    8       13     5  14    4.69   482.3    5.5      48.209
2014    8       13     5  20    4.68   482.3    5.5      48.164
2014    8       13     5  26    4.68   482.3    5.5      48.118
2014    8       13     5  32    4.67   482.3    5.5      48.072
2014    8       13     5  38    4.67   482.3    5.5      48.027
2014    8       13     5  44    4.66   482.3    5.4      47.980
2014    8       13     5  50    4.66   482.2    5.4      47.934
2014    8       13     5  56    4.65   482.2    5.4      47.888
2014    8       13     6   1    4.64   482.2    5.4      47.842
2014    8       13     6   7    4.64   482.2    5.4      47.795
2014    8       13     6  13    4.63   482.1    5.4      47.749
2014    8       13     6  19    4.63   482.1    5.4      47.702
2014    8       13     6  25    4.62   482.1    5.4      47.656
2014    8       13     6  31    4.62   482.1    5.4      47.609
2014    8       13     6  37    4.61   482.0    5.4      47.563
2014    8       13     6  43    4.61   482.0    5.4      47.516
2014    8       13     6  49    4.60   482.0    5.4      47.469
2014    8       13     6  55    4.60   482.0    5.4      47.422
2014    8       13     7   1    4.59   481.9    5.4      47.376
2014    8       13     7   7    4.59   481.9    5.4      47.330
2014    8       13     7  13    4.58   481.9    5.4      47.283
2014    8       13     7  19    4.58   481.8    5.4      47.237
2014    8       13     7  25    4.57   481.8    5.3      47.191
2014    8       13     7  30    4.57   481.8    5.3      47.146
2014    8       13     7  36    4.56   481.7    5.3      47.101
2014    8       13     7  42    4.56   481.7    5.3      47.056
2014    8       13     7  48    4.55   481.7    5.3      47.012
2014    8       13     7  54    4.55   481.6    5.3      46.968
2014    8       13     8   0    4.54   481.6    5.3      46.925
2014    8       13     8   6    4.54   481.5    5.3      46.883
2014    8       13     8  12    4.53   481.5    5.3      46.842
2014    8       13     8  18    4.53   481.5    5.3      46.801
2014    8       13     8  24    4.52   481.4    5.3      46.761
2014    8       13     8  30    4.52   481.4    5.3      46.722
2014    8       13     8  36    4.51   481.3    5.3      46.684
2014    8       13     8  42    4.51   481.3    5.3      46.646
2014    8       13     8  48    4.50   481.3    5.3      46.610
2014    8       13     8  54    4.50   481.2    5.3      46.575
2014    8       13     8  59    4.49   481.2    5.3      46.540
2014    8       13     9   5    4.49   481.2    5.3      46.506
2014    8       13     9  11    4.48   481.1    5.3      46.473
2014    8       13     9  17    4.48   481.1    5.3      46.441
2014    8       13     9  23    4.48   481.0    5.3      46.409
2014    8       13     9  29    4.47   481.0    5.3      46.378
2014    8       13     9  35    4.47   481.0    5.3      46.347
2014    8       13     9  41    4.46   480.9    5.3      46.317
2014    8       13     9  47    4.46   480.9    5.3      46.288
2014    8       13     9  53    4.45   480.9    5.3      46.259
2014    8       13     9  59    4.45   480.8    5.3      46.230
2014    8       13    10   5    4.44   480.8    5.3      46.202
2014    8       13    10  11    4.44   480.7    5.3      46.173
2014    8       13    10  17    4.44   480.7    5.3      46.145
2014    8       13    10  23    4.43   480.7    5.3      46.117
2014    8       13    10  28    4.43   480.6    5.3      46.089
2014    8       13    10  34    4.42   480.6    5.3      46.060
2014    8       13    10  40    4.42   480.5    5.3      46.032
2014    8       13    10  46    4.41   480.5    5.2      46.003
2014    8       13    10  52    4.41   480.4    5.2      45.973
2014    8       13    10  58    4.41   480.3    5.2      45.944
2014    8       13    11   4    4.40   480.3    5.2      45.914
2014    8       13    11  10    4.40   480.2    5.2      45.884
2014    8       13    11  16    4.39   480.2    5.2      45.854
2014    8       13    11  22    4.39   480.1    5.2      45.824
2014    8       13    11  28    4.38   480.1    5.2      45.793
2014    8       13    11  34    4.38   480.0    5.2      45.762
2014    8       13    11  40    4.38   479.9    5.2      45.731
2014    8       13    11  46    4.37   479.9    5.2      45.700
2014    8       13    11  52    4.37   479.8    5.2      45.669
2014    8       13    11  57    4.36   479.7    5.2      45.638
2014    8       13    12   3    4.36   479.7    5.2      45.606
2014    8       13    12   9    4.36   479.6    5.2      45.574
2014    8       13    12  15    4.35   479.5    5.2      45.542
2014    8       13    12  21    4.35   479.5    5.2      45.510
2014    8       13    12  27    4.35   479.4    5.2      45.478
2014    8       13    12  33    4.34   479.3    5.2      45.445
2014    8       13    12  39    4.34   479.3    5.2      45.412
2014    8       13    12  45    4.33   479.2    5.2      45.379
2014    8       13    12  51    4.33   479.1    5.2      45.346
2014    8       13    12  57    4.33   479.1    5.2      45.312
2014    8       13    13   3    4.32   479.0    5.2      45.278
2014    8       13    13   9    4.32   478.9    5.2      45.243
2014    8       13    13  15    4.32   478.9    5.2      45.209
2014    8       13    13  21    4.31   478.8    5.2      45.174
2014    8       13    13  27    4.31   478.7    5.2      45.139
2014    8       13    13  32    4.31   478.6    5.2      45.104
2014    8       13    13  38    4.30   478.6    5.2      45.069
2014    8       13    13  44    4.30   478.5    5.2      45.033
2014    8       13    13  50    4.30   478.4    5.2      44.997
2014    8       13    13  56    4.29   478.4    5.2      44.961
2014    8       13    14   2    4.29   478.3    5.2      44.925
2014    8       13    14   8    4.29   478.2    5.2      44.889
2014    8       13    14  14    4.29   478.1    5.2      44.852
2014    8       13    14  20    4.28   478.1    5.2      44.816
2014    8       13    14  26    4.28   478.0    5.2      44.779
2014    8       13    14  32    4.28   477.9    5.2      44.742
2014    8       13    14  38    4.27   477.9    5.2      44.705
2014    8       13    14  44    4.27   477.8    5.2      44.668
2014    8       13    14  50    4.27   477.7    5.2      44.631
2014    8       13    14  56    4.26   477.6    5.1      44.594
2014    8       13    15   2    4.26   477.6    5.1      44.557
2014    8       13    15   7    4.26   477.5    5.1      44.520
2014    8       13    15  13    4.26   477.4    5.1      44.483
2014    8       13    15  19    4.25   477.3    5.1      44.447
2014    8       13    15  25    4.25   477.3    5.1      44.410
2014    8       13    15  31    4.25   477.2    5.1      44.374
2014    8       13    15  37    4.24   477.1    5.1      44.339
2014    8       13    15  43    4.24   477.1    5.1      44.303
2014    8       13    15  49    4.24   477.0    5.1      44.268
2014    8       13    15  55    4.24   476.9    5.1      44.234
2014    8       13    16   1    4.23   476.9    5.1      44.200
2014    8       13    16   7    4.23   476.8    5.1      44.166
2014    8       13    16  13    4.23   476.7    5.1      44.133
2014    8       13    16  19    4.22   476.7    5.1      44.100
2014    8       13    16  25    4.22   476.6    5.1      44.068
2014    8       13    16  31    4.22   476.5    5.1      44.036
2014    8       13    16  37    4.22   476.5    5.1      44.005
2014    8       13    16  42    4.21   476.4    5.1      43.974
2014    8       13    16  48    4.21   476.3    5.1      43.944
2014    8       13    16  54    4.21   476.3    5.1      43.913
2014    8       13    17   0    4.21   476.2    5.1      43.884
2014    8       13    17   6    4.20   476.2    5.1      43.854
2014    8       13    17  12    4.20   476.1    5.1      43.824
2014    8       13    17  18    4.20   476.0    5.1      43.795
2014    8       13    17  24    4.19   476.0    5.1      43.765
2014    8       13    17  30    4.19   475.9    5.1      43.736
2014    8       13    17  36    4.19   475.8    5.1      43.706
2014    8       13    17  42    4.19   475.8    5.1      43.676
2014    8       13    17  48    4.18   475.7    5.1      43.647
2014    8       13    17  54    4.18   475.6    5.1      43.617
2014    8       13    18   0    4.18   475.6    5.1      43.587
2014    8       13    18   6    4.18   475.5    5.1      43.556
2014    8       13    18  11    4.17   475.4    5.1      43.526
2014    8       13    18  17    4.17   475.3    5.1      43.496
2014    8       13    18  23    4.17   475.2    5.1      43.466
2014    8       13    18  29    4.16   475.2    5.1      43.436
2014    8       13    18  35    4.16   475.1    5.1      43.406
2014    8       13    18  41    4.16   475.0    5.1      43.377
2014    8       13    18  47    4.16   474.9    5.1      43.348
2014    8       13    18  53    4.15   474.8    5.1      43.319
2014    8       13    18  59    4.15   474.7    5.1      43.292
2014    8       13    19   5    4.15   474.7    5.1      43.265
2014    8       13    19  11    4.15   474.6    5.1      43.238
2014    8       13    19  17    4.14   474.5    5.1      43.212
2014    8       13    19  23    4.14   474.4    5.1      43.187
2014    8       13    19  29    4.14   474.3    5.1      43.163
2014    8       13    19  35    4.14   474.2    5.1      43.140
2014    8       13    19  40    4.14   474.1    5.1      43.117
2014    8       13    19  46    4.13   474.0    5.1      43.095
2014    8       13    19  52    4.13   473.9    5.1      43.074
2014    8       13    19  58    4.13   473.9    5.1      43.054
2014    8       13    20   4    4.13   473.8    5.1      43.035
2014    8       13    20  10    4.13   473.7    5.1      43.017
2014    8       13    20  16    4.12   473.6    5.1      42.999
2014    8       13    20  22    4.12   473.5    5.1      42.981
2014    8       13    20  28    4.12   473.4    5.1      42.965
2014    8       13    20  34    4.12   473.4    5.1      42.950
2014    8       13    20  40    4.12   473.3    5.1      42.935
2014    8       13    20  46    4.12   473.2    5.1      42.921
2014    8       13    20  52    4.11   473.1    5.1      42.908
2014    8       13    20  58    4.11   473.0    5.1      42.895
2014    8       13    21   4    4.11   472.9    5.1      42.882
2014    8       13    21  10    4.11   472.9    5.1      42.868
2014    8       13    21  15    4.11   472.8    5.1      42.854
2014    8       13    21  21    4.11   472.7    5.1      42.839
2014    8       13    21  27    4.11   472.6    5.1      42.823
2014    8       13    21  33    4.10   472.5    5.1      42.806
2014    8       13    21  39    4.10   472.4    5.1      42.789
2014    8       13    21  45    4.10   472.4    5.1      42.771
2014    8       13    21  51    4.10   472.3    5.1      42.753
2014    8       13    21  57    4.10   472.2    5.1      42.733
2014    8       13    22   3    4.10   472.1    5.1      42.713
2014    8       13    22   9    4.10   472.0    5.1      42.693
2014    8       13    22  15    4.09   471.9    5.1      42.671
2014    8       13    22  21    4.09   471.9    5.1      42.649
2014    8       13    22  27    4.09   471.8    5.1      42.626
2014    8       13    22  33    4.09   471.7    5.1      42.603
2014    8       13    22  39    4.09   471.6    5.1      42.579
2014    8       13    22  45    4.09   471.5    5.1      42.554
2014    8       13    22  50    4.08   471.5    5.1      42.529
2014    8       13    22  56    4.08   471.4    5.1      42.503
2014    8       13    23   2    4.08   471.3    5.1      42.477
2014    8       13    23   8    4.08   471.2    5.1      42.450
2014    8       13    23  14    4.08   471.1    5.1      42.423
2014    8       13    23  20    4.08   471.0    5.1      42.395
2014    8       13    23  26    4.08   471.0    5.1      42.366
2014    8       13    23  32    4.07   470.9    5.1      42.337
2014    8       13    23  38    4.07   470.8    5.1      42.308
2014    8       13    23  44    4.07   470.7    5.1      42.278
2014    8       13    23  50    4.07   470.6    5.1      42.248
2014    8       13    23  56    4.07   470.5    5.1      42.217
2014    8       14     0   2    4.07   470.5    5.1      42.186
2014    8       14     0   8    4.06   470.4    5.1      42.154
2014    8       14     0  14    4.06   470.3    5.1      42.122
2014    8       14     0  20    4.06   470.2    5.1      42.090
2014    8       14     0  25    4.06   470.1    5.1      42.057
2014    8       14     0  31    4.06   470.0    5.1      42.023
2014    8       14     0  37    4.06   469.9    5.1      41.989
2014    8       14     0  43    4.05   469.8    5.1      41.955
2014    8       14     0  49    4.05   469.8    5.1      41.920
2014    8       14     0  55    4.05   469.7    5.1      41.885
2014    8       14     1   1    4.05   469.6    5.1      41.850
2014    8       14     1   7    4.05   469.5    5.1      41.814
2014    8       14     1  13    4.05   469.4    5.1      41.778
2014    8       14     1  19    4.05   469.3    5.1      41.741
2014    8       14     1  25    4.04   469.2    5.1      41.705
2014    8       14     1  31    4.04   469.1    5.1      41.668
2014    8       14     1  37    4.04   469.0    5.1      41.631
2014    8       14     1  43    4.04   468.9    5.1      41.594
2014    8       14     1  49    4.04   468.8    5.1      41.557
2014    8       14     1  54    4.04   468.7    5.1      41.520
2014    8       14     2   0    4.03   468.6    5.1      41.484
2014    8       14     2   6    4.03   468.5    5.1      41.447
2014    8       14     2  12    4.03   468.4    5.1      41.412
2014    8       14     2  18    4.03   468.3    5.1      41.376
2014    8       14     2  24    4.03   468.2    5.1      41.342
2014    8       14     2  30    4.03   468.1    5.1      41.307
2014    8       14     2  36    4.03   468.0    5.1      41.274
2014    8       14     2  42    4.02   467.9    5.1      41.242
2014    8       14     2  48    4.02   467.7    5.1      41.210
2014    8       14     2  54    4.02   467.6    5.1      41.180
2014    8       14     3   0    4.02   467.5    5.1      41.151
2014    8       14     3   6    4.02   467.4    5.1      41.122
2014    8       14     3  12    4.02   467.3    5.1      41.095
2014    8       14     3  18    4.02   467.2    5.1      41.068
2014    8       14     3  23    4.02   467.1    5.1      41.043
2014    8       14     3  29    4.02   467.0    5.1      41.019
2014    8       14     3  35    4.02   466.9    5.1      40.996
2014    8       14     3  41    4.01   466.8    5.1      40.973
2014    8       14     3  47    4.01   466.7    5.1      40.952
2014    8       14     3  53    4.01   466.6    5.1      40.933
2014    8       14     3  59    4.01   466.5    5.1      40.915
2014    8       14     4   5    4.01   466.4    5.1      40.898
2014    8       14     4  11    4.01   466.3    5.1      40.882
2014    8       14     4  17    4.01   466.1    5.1      40.866
2014    8       14     4  23    4.01   466.0    5.1      40.852
2014    8       14     4  29    4.01   465.9    5.1      40.838
2014    8       14     4  35    4.01   465.8    5.1      40.824
2014    8       14     4  41    4.01   465.7    5.1      40.809
2014    8       14     4  47    4.01   465.6    5.1      40.795
2014    8       14     4  53    4.01   465.5    5.1      40.781
2014    8       14     4  58    4.01   465.4    5.1      40.767
2014    8       14     5   4    4.01   465.3    5.1      40.753
2014    8       14     5  10    4.01   465.1    5.1      40.739
2014    8       14     5  16    4.00   465.0    5.1      40.726
2014    8       14     5  22    4.00   464.9    5.1      40.712
2014    8       14     5  28    4.00   464.8    5.1      40.699
2014    8       14     5  34    4.00   464.7    5.1      40.686
2014    8       14     5  40    4.00   464.6    5.1      40.673
2014    8       14     5  46    4.00   464.5    5.1      40.661
2014    8       14     5  52    4.00   464.4    5.1      40.648
2014    8       14     5  58    4.00   464.3    5.1      40.636
2014    8       14     6   4    4.00   464.2    5.1      40.624
2014    8       14     6  10    4.00   464.1    5.1      40.612
2014    8       14     6  16    4.00   463.9    5.1      40.600
2014    8       14     6  22    4.00   463.8    5.1      40.588
2014    8       14     6  28    4.00   463.7    5.1      40.576
2014    8       14     6  33    4.00   463.6    5.1      40.564
2014    8       14     6  39    4.00   463.5    5.1      40.552
2014    8       14     6  45    4.00   463.4    5.2      40.540
2014    8       14     6  51    4.00   463.3    5.2      40.528
2014    8       14     6  57    4.00   463.2    5.2      40.516
2014    8       14     7   3    4.00   463.0    5.2      40.504
2014    8       14     7   9    4.00   462.9    5.2      40.491
2014    8       14     7  15    4.00   462.8    5.2      40.479
2014    8       14     7  21    4.00   462.7    5.2      40.466
2014    8       14     7  27    4.00   462.6    5.2      40.453
2014    8       14     7  33    4.00   462.5    5.2      40.440
2014    8       14     7  39    4.00   462.3    5.2      40.427
2014    8       14     7  45    4.00   462.2    5.2      40.413
2014    8       14     7  51    4.00   462.1    5.2      40.400
2014    8       14     7  57    4.00   462.0    5.2      40.386
2014    8       14     8   2    4.00   461.9    5.2      40.373
2014    8       14     8   8    4.00   461.7    5.2      40.360
2014    8       14     8  14    4.00   461.6    5.2      40.346
2014    8       14     8  20    4.00   461.5    5.2      40.332
2014    8       14     8  26    4.00   461.4    5.2      40.318
2014    8       14     8  32    4.00   461.2    5.2      40.304
2014    8       14     8  38    4.00   461.1    5.2      40.290
2014    8       14     8  44    4.00   461.0    5.2      40.275
2014    8       14     8  50    4.00   460.9    5.2      40.259
2014    8       14     8  56    4.00   460.8    5.2      40.243
2014    8       14     9   2    4.00   460.6    5.2      40.227
2014    8       14     9   8    4.00   460.5    5.2      40.211
2014    8       14     9  14    4.00   460.4    5.2      40.194
2014    8       14     9  20    4.00   460.3    5.2      40.177
2014    8       14     9  26    4.00   460.2    5.2      40.159
2014    8       14     9  31    4.00   460.0    5.2      40.141
2014    8       14     9  37    4.00   459.9    5.2      40.123
2014    8       14     9  43    4.00   459.8    5.2      40.104
2014    8       14     9  49    4.00   459.7    5.2      40.086
2014    8       14     9  55    4.00   459.6    5.2      40.067
2014    8       14    10   1    4.00   459.4    5.2      40.047
2014    8       14    10   7    4.00   459.3    5.2      40.028
2014    8       14    10  13    4.00   459.2    5.2      40.008
2014    8       14    10  19    4.00   459.1    5.2      39.988
2014    8       14    10  25    4.00   459.0    5.2      39.968
2014    8       14    10  31    4.00   458.8    5.2      39.947
2014    8       14    10  37    4.00   458.7    5.2      39.926
2014    8       14    10  43    4.00   458.6    5.2      39.905
2014    8       14    10  49    4.00   458.5    5.2      39.884
2014    8       14    10  55    4.00   458.3    5.2      39.862
2014    8       14    11   1    4.00   458.2    5.2      39.841
2014    8       14    11   6    4.00   458.1    5.2      39.819
2014    8       14    11  12    4.00   457.9    5.2      39.797
2014    8       14    11  18    4.00   457.8    5.2      39.776
2014    8       14    11  24    4.00   457.7    5.3      39.754
2014    8       14    11  30    4.00   457.6    5.3      39.733
2014    8       14    11  36    4.00   457.4    5.3      39.712
2014    8       14    11  42    4.00   457.3    5.3      39.691
2014    8       14    11  48    4.00   457.2    5.3      39.671
2014    8       14    11  54    4.00   457.0    5.3      39.651
2014    8       14    12   0    4.00   456.9    5.3      39.632
2014    8       14    12   6    4.00   456.8    5.3      39.614
2014    8       14    12  12    4.01   456.6    5.3      39.597
2014    8       14    12  18    4.01   456.5    5.3      39.580
2014    8       14    12  24    4.01   456.4    5.3      39.565
2014    8       14    12  30    4.01   456.3    5.3      39.550
2014    8       14    12  36    4.01   456.1    5.3      39.536
2014    8       14    12  41    4.01   456.0    5.3      39.524
2014    8       14    12  47    4.01   455.9    5.3      39.512
2014    8       14    12  53    4.01   455.8    5.3      39.501
2014    8       14    12  59    4.01   455.6    5.3      39.491
2014    8       14    13   5    4.01   455.5    5.3      39.483
2014    8       14    13  11    4.02   455.4    5.3      39.475
2014    8       14    13  17    4.02   455.3    5.3      39.468
2014    8       14    13  23    4.02   455.1    5.3      39.462
2014    8       14    13  29    4.02   455.0    5.3      39.456
2014    8       14    13  35    4.02   454.9    5.3      39.451
2014    8       14    13  41    4.02   454.8    5.3      39.447
2014    8       14    13  47    4.02   454.7    5.3      39.444
2014    8       14    13  53    4.02   454.5    5.4      39.441
2014    8       14    13  59    4.03   454.4    5.4      39.438
2014    8       14    14   5    4.03   454.3    5.4      39.436
2014    8       14    14  11    4.03   454.2    5.4      39.435
2014    8       14    14  16    4.03   454.1    5.4      39.433
2014    8       14    14  22    4.03   453.9    5.4      39.432
2014    8       14    14  28    4.03   453.8    5.4      39.432
2014    8       14    14  34    4.03   453.7    5.4      39.432
2014    8       14    14  40    4.04   453.6    5.4      39.432
2014    8       14    14  46    4.04   453.4    5.4      39.432
2014    8       14    14  52    4.04   453.3    5.4      39.433
2014    8       14    14  58    4.04   453.2    5.4      39.434
2014    8       14    15   4    4.04   453.1    5.4      39.435
2014    8       14    15  10    4.04   452.9    5.4      39.437
2014    8       14    15  16    4.05   452.8    5.4      39.439
2014    8       14    15  22    4.05   452.7    5.4      39.442
2014    8       14    15  28    4.05   452.6    5.5      39.446
2014    8       14    15  34    4.05   452.5    5.5      39.451
2014    8       14    15  40    4.05   452.3    5.5      39.456
2014    8       14    15  45    4.06   452.2    5.5      39.462
2014    8       14    15  51    4.06   452.1    5.5      39.468
2014    8       14    15  57    4.06   452.0    5.5      39.476
2014    8       14    16   3    4.06   451.9    5.5      39.483
2014    8       14    16   9    4.06   451.7    5.5      39.492
2014    8       14    16  15    4.07   451.6    5.5      39.501
2014    8       14    16  21    4.07   451.5    5.5      39.510
2014    8       14    16  27    4.07   451.4    5.5      39.520
2014    8       14    16  33    4.07   451.3    5.5      39.530
2014    8       14    16  39    4.08   451.2    5.5      39.541
2014    8       14    16  45    4.08   451.1    5.5      39.552
2014    8       14    16  51    4.08   451.0    5.6      39.564
2014    8       14    16  57    4.08   450.9    5.6      39.578
2014    8       14    17   3    4.09   450.8    5.6      39.593
2014    8       14    17   9    4.09   450.7    5.6      39.609
2014    8       14    17  14    4.09   450.6    5.6      39.626
2014    8       14    17  20    4.10   450.5    5.6      39.644
2014    8       14    17  26    4.10   450.4    5.6      39.663
2014    8       14    17  32    4.10   450.3    5.6      39.682
2014    8       14    17  38    4.10   450.2    5.6      39.700
2014    8       14    17  44    4.11   450.2    5.6      39.717
2014    8       14    17  50    4.11   450.1    5.6      39.734
2014    8       14    17  56    4.11   450.0    5.6      39.751
2014    8       14    18   2    4.11   449.9    5.7      39.766
2014    8       14    18   8    4.12   449.8    5.7      39.782
2014    8       14    18  14    4.12   449.7    5.7      39.796
2014    8       14    18  20    4.12   449.6    5.7      39.810
2014    8       14    18  26    4.12   449.6    5.7      39.823
2014    8       14    18  32    4.13   449.5    5.7      39.836
2014    8       14    18  38    4.13   449.4    5.7      39.848
2014    8       14    18  44    4.13   449.3    5.7      39.859
2014    8       14    18  49    4.13   449.2    5.7      39.870
2014    8       14    18  55    4.14   449.1    5.7      39.881
2014    8       14    19   1    4.14   449.1    5.7      39.891
2014    8       14    19   7    4.14   449.0    5.7      39.901
2014    8       14    19  13    4.14   448.9    5.7      39.910
2014    8       14    19  19    4.15   448.8    5.7      39.920
2014    8       14    19  25    4.15   448.7    5.7      39.929
2014    8       14    19  31    4.15   448.7    5.8      39.938
2014    8       14    19  37    4.15   448.6    5.8      39.947
2014    8       14    19  43    4.16   448.5    5.8      39.956
2014    8       14    19  49    4.16   448.4    5.8      39.965
2014    8       14    19  55    4.16   448.3    5.8      39.974
2014    8       14    20   1    4.17   448.3    5.8      39.983
2014    8       14    20   7    4.17   448.2    5.8      39.993
2014    8       14    20  13    4.17   448.1    5.8      40.002
2014    8       14    20  19    4.17   448.1    5.8      40.012
2014    8       14    20  24    4.18   448.0    5.8      40.022
2014    8       14    20  30    4.18   447.9    5.8      40.032
2014    8       14    20  36    4.18   447.9    5.8      40.042
2014    8       14    20  42    4.19   447.8    5.8      40.052
2014    8       14    20  48    4.19   447.7    5.8      40.062
2014    8       14    20  54    4.19   447.7    5.8      40.073
2014    8       14    21   0    4.19   447.6    5.9      40.084
2014    8       14    21   6    4.20   447.5    5.9      40.095
2014    8       14    21  12    4.20   447.5    5.9      40.106
2014    8       14    21  18    4.20   447.4    5.9      40.117
2014    8       14    21  24    4.21   447.3    5.9      40.129
2014    8       14    21  30    4.21   447.3    5.9      40.141
2014    8       14    21  36    4.21   447.2    5.9      40.152
2014    8       14    21  42    4.22   447.2    5.9      40.164
2014    8       14    21  48    4.22   447.1    5.9      40.176
2014    8       14    21  53    4.22   447.1    5.9      40.189
2014    8       14    21  59    4.22   447.0    5.9      40.201
2014    8       14    22   5    4.23   446.9    5.9      40.214
2014    8       14    22  11    4.23   446.9    5.9      40.227
2014    8       14    22  17    4.23   446.8    5.9      40.240
2014    8       14    22  23    4.24   446.8    6.0      40.253
2014    8       14    22  29    4.24   446.7    6.0      40.267
2014    8       14    22  35    4.24   446.6    6.0      40.281
2014    8       14    22  41    4.25   446.6    6.0      40.296
2014    8       14    22  47    4.25   446.5    6.0      40.312
2014    8       14    22  53    4.25   446.5    6.0      40.328
2014    8       14    22  59    4.26   446.4    6.0      40.344
2014    8       14    23   5    4.26   446.4    6.0      40.362
2014    8       14    23  11    4.27   446.3    6.0      40.381
2014    8       14    23  17    4.27   446.3    6.0      40.401
2014    8       14    23  22    4.27   446.2    6.0      40.424
2014    8       14    23  28    4.28   446.2    6.1      40.447
2014    8       14    23  34    4.28   446.1    6.1      40.473
2014    8       14    23  40    4.28   446.1    6.1      40.501
2014    8       14    23  46    4.29   446.0    6.1      40.529
2014    8       14    23  52    4.29   446.0    6.1      40.559
2014    8       14    23  58    4.30   446.0    6.1      40.588
2014    8       15     0   4    4.30   445.9    6.1      40.618
2014    8       15     0  10    4.30   445.9    6.1      40.648
2014    8       15     0  16    4.31   445.9    6.1      40.679
2014    8       15     0  22    4.31   445.9    6.1      40.712
2014    8       15     0  28    4.32   445.8    6.1      40.745
2014    8       15     0  34    4.32   445.8    6.2      40.778
2014    8       15     0  40    4.32   445.8    6.2      40.813
2014    8       15     0  46    4.33   445.8    6.2      40.847
2014    8       15     0  51    4.33   445.8    6.2      40.882
2014    8       15     0  57    4.33   445.8    6.2      40.916
2014    8       15     1   3    4.34   445.7    6.2      40.950
2014    8       15     1   9    4.34   445.7    6.2      40.982
2014    8       15     1  15    4.35   445.7    6.2      41.015
2014    8       15     1  21    4.35   445.7    6.2      41.047
2014    8       15     1  27    4.35   445.7    6.2      41.078
2014    8       15     1  33    4.36   445.7    6.2      41.109
2014    8       15     1  39    4.36   445.7    6.2      41.139
2014    8       15     1  45    4.36   445.7    6.3      41.168
2014    8       15     1  51    4.37   445.7    6.3      41.197
2014    8       15     1  57    4.37   445.7    6.3      41.225
2014    8       15     2   3    4.37   445.7    6.3      41.252
2014    8       15     2   9    4.38   445.7    6.3      41.279
2014    8       15     2  15    4.38   445.6    6.3      41.304
2014    8       15     2  21    4.38   445.6    6.3      41.330
2014    8       15     2  26    4.38   445.6    6.3      41.355
2014    8       15     2  32    4.39   445.6    6.3      41.380
2014    8       15     2  38    4.39   445.6    6.3      41.404
2014    8       15     2  44    4.39   445.6    6.3      41.427
2014    8       15     2  50    4.40   445.6    6.3      41.450
2014    8       15     2  56    4.40   445.6    6.3      41.473
2014    8       15     3   2    4.40   445.6    6.3      41.496
2014    8       15     3   8    4.41   445.6    6.3      41.518
2014    8       15     3  14    4.41   445.6    6.3      41.540
2014    8       15     3  20    4.41   445.6    6.3      41.561
2014    8       15     3  26    4.42   445.6    6.4      41.583
2014    8       15     3  32    4.42   445.6    6.4      41.604
2014    8       15     3  38    4.42   445.6    6.4      41.625
2014    8       15     3  44    4.43   445.6    6.4      41.646
2014    8       15     3  50    4.43   445.6    6.4      41.667
2014    8       15     3  56    4.43   445.6    6.4      41.688
2014    8       15     4   1    4.44   445.6    6.4      41.709
2014    8       15     4   7    4.44   445.6    6.4      41.730
2014    8       15     4  13    4.44   445.6    6.4      41.751
2014    8       15     4  19    4.45   445.6    6.4      41.772
2014    8       15     4  25    4.45   445.6    6.4      41.794
2014    8       15     4  31    4.45   445.6    6.4      41.815
2014    8       15     4  37    4.46   445.7    6.4      41.836
2014    8       15     4  43    4.46   445.7    6.4      41.858
2014    8       15     4  49    4.46   445.7    6.4      41.880
2014    8       15     4  55    4.47   445.7    6.4      41.901
2014    8       15     5   1    4.47   445.7    6.4      41.923
2014    8       15     5   7    4.47   445.7    6.4      41.945
2014    8       15     5  13    4.48   445.7    6.4      41.967
2014    8       15     5  19    4.48   445.7    6.5      41.989
2014    8       15     5  25    4.48   445.8    6.5      42.012
2014    8       15     5  30    4.49   445.8    6.5      42.034
2014    8       15     5  36    4.49   445.8    6.5      42.057
2014    8       15     5  42    4.49   445.8    6.5      42.080
2014    8       15     5  48    4.50   445.8    6.5      42.104
2014    8       15     5  54    4.50   445.9    6.5      42.129
2014    8       15     6   0    4.50   445.9    6.5      42.155
2014    8       15     6   6    4.51   445.9    6.5      42.182
2014    8       15     6  12    4.51   445.9    6.5      42.209
2014    8       15     6  18    4.51   445.9    6.5      42.237
2014    8       15     6  24    4.52   446.0    6.5      42.266
2014    8       15     6  30    4.52   446.0    6.5      42.294
2014    8       15     6  36    4.52   446.0    6.5      42.323
2014    8       15     6  42    4.53   446.0    6.5      42.353
2014    8       15     6  48    4.53   446.1    6.5      42.385
2014    8       15     6  54    4.54   446.1    6.6      42.416
2014    8       15     6  59    4.54   446.1    6.6      42.450
2014    8       15     7   5    4.54   446.2    6.6      42.483
2014    8       15     7  11    4.54   446.2    6.6      42.517
2014    8       15     7  17    4.55   446.2    6.6      42.552
2014    8       15     7  23    4.55   446.3    6.6      42.586
2014    8       15     7  29    4.55   446.3    6.6      42.619
2014    8       15     7  35    4.56   446.3    6.6      42.652
2014    8       15     7  41    4.56   446.4    6.6      42.684
2014    8       15     7  47    4.56   446.4    6.6      42.716
2014    8       15     7  53    4.57   446.4    6.6      42.747
2014    8       15     7  59    4.57   446.5    6.6      42.778
2014    8       15     8   5    4.57   446.5    6.6      42.809
2014    8       15     8  11    4.58   446.5    6.6      42.839
2014    8       15     8  17    4.58   446.6    6.6      42.868
2014    8       15     8  23    4.58   446.6    6.6      42.898
2014    8       15     8  28    4.58   446.6    6.6      42.927
2014    8       15     8  34    4.59   446.7    6.6      42.956
2014    8       15     8  40    4.59   446.7    6.6      42.985
2014    8       15     8  46    4.59   446.8    6.6      43.014
2014    8       15     8  52    4.60   446.8    6.7      43.043
2014    8       15     8  58    4.60   446.8    6.7      43.071
2014    8       15     9   4    4.60   446.9    6.7      43.099
2014    8       15     9  10    4.60   446.9    6.7      43.127
2014    8       15     9  16    4.61   447.0    6.7      43.155
2014    8       15     9  22    4.61   447.0    6.7      43.182
2014    8       15     9  28    4.61   447.1    6.7      43.209
2014    8       15     9  34    4.61   447.1    6.7      43.236
2014    8       15     9  40    4.62   447.1    6.7      43.262
2014    8       15     9  46    4.62   447.2    6.7      43.288
2014    8       15     9  52    4.62   447.2    6.7      43.314
2014    8       15     9  58    4.62   447.3    6.7      43.340
2014    8       15    10   3    4.63   447.3    6.7      43.365
2014    8       15    10   9    4.63   447.4    6.7      43.391
2014    8       15    10  15    4.63   447.4    6.7      43.416
2014    8       15    10  21    4.64   447.4    6.7      43.441
2014    8       15    10  27    4.64   447.5    6.7      43.465
2014    8       15    10  33    4.64   447.5    6.7      43.490
2014    8       15    10  39    4.64   447.6    6.7      43.515
2014    8       15    10  45    4.65   447.6    6.7      43.540
2014    8       15    10  51    4.65   447.7    6.7      43.565
2014    8       15    10  57    4.65   447.7    6.7      43.589
2014    8       15    11   3    4.66   447.8    6.7      43.614
2014    8       15    11   9    4.66   447.8    6.7      43.640
2014    8       15    11  15    4.66   447.9    6.7      43.666
2014    8       15    11  21    4.66   447.9    6.7      43.694
2014    8       15    11  27    4.67   448.0    6.7      43.722
2014    8       15    11  33    4.67   448.1    6.7      43.752
2014    8       15    11  38    4.67   448.1    6.8      43.782
2014    8       15    11  44    4.68   448.2    6.8      43.812
2014    8       15    11  50    4.68   448.3    6.8      43.841
2014    8       15    11  56    4.68   448.3    6.8      43.870
2014    8       15    12   2    4.69   448.4    6.8      43.899
2014    8       15    12   8    4.69   448.5    6.8      43.927
2014    8       15    12  14    4.69   448.5    6.8      43.955
2014    8       15    12  20    4.69   448.6    6.8      43.983
2014    8       15    12  26    4.70   448.7    6.8      44.010
2014    8       15    12  32    4.70   448.7    6.8      44.036
2014    8       15    12  38    4.70   448.8    6.8      44.062
2014    8       15    12  44    4.70   448.9    6.8      44.088
2014    8       15    12  50    4.71   448.9    6.8      44.113
2014    8       15    12  56    4.71   449.0    6.8      44.139
2014    8       15    13   2    4.71   449.1    6.8      44.164
2014    8       15    13   7    4.71   449.1    6.8      44.189
2014    8       15    13  13    4.72   449.2    6.8      44.214
2014    8       15    13  19    4.72   449.3    6.8      44.240
2014    8       15    13  25    4.72   449.4    6.8      44.267
2014    8       15    13  31    4.72   449.4    6.8      44.294
2014    8       15    13  37    4.73   449.5    6.8      44.322
2014    8       15    13  43    4.73   449.6    6.8      44.350
2014    8       15    13  49    4.73   449.6    6.8      44.378
2014    8       15    13  55    4.73   449.7    6.8      44.406
2014    8       15    14   1    4.74   449.8    6.8      44.434
2014    8       15    14   7    4.74   449.9    6.8      44.461
2014    8       15    14  13    4.74   449.9    6.8      44.488
2014    8       15    14  19    4.74   450.0    6.8      44.515
2014    8       15    14  25    4.74   450.1    6.8      44.541
2014    8       15    14  31    4.75   450.1    6.8      44.568
2014    8       15    14  36    4.75   450.2    6.8      44.594
2014    8       15    14  42    4.75   450.3    6.8      44.619
2014    8       15    14  48    4.75   450.3    6.8      44.645
2014    8       15    14  54    4.76   450.4    6.8      44.670
2014    8       15    15   0    4.76   450.5    6.8      44.695
2014    8       15    15   6    4.76   450.5    6.8      44.720
2014    8       15    15  12    4.76   450.6    6.8      44.745
2014    8       15    15  18    4.76   450.7    6.8      44.770
2014    8       15    15  24    4.77   450.7    6.8      44.795
2014    8       15    15  30    4.77   450.8    6.8      44.820
2014    8       15    15  36    4.77   450.9    6.8      44.844
2014    8       15    15  42    4.77   450.9    6.8      44.869
2014    8       15    15  48    4.77   451.0    6.8      44.894
2014    8       15    15  54    4.78   451.0    6.8      44.919
2014    8       15    16   0    4.78   451.1    6.8      44.944
2014    8       15    16   5    4.78   451.2    6.8      44.970
2014    8       15    16  11    4.78   451.2    6.8      44.996
2014    8       15    16  17    4.78   451.3    6.8      45.022
2014    8       15    16  23    4.79   451.4    6.9      45.048
2014    8       15    16  29    4.79   451.4    6.9      45.075
2014    8       15    16  35    4.79   451.5    6.9      45.101
2014    8       15    16  41    4.79   451.6    6.9      45.128
2014    8       15    16  47    4.80   451.6    6.9      45.156
2014    8       15    16  53    4.80   451.7    6.9      45.183
2014    8       15    16  59    4.80   451.8    6.9      45.211
2014    8       15    17   5    4.80   451.8    6.9      45.239
2014    8       15    17  11    4.80   451.9    6.9      45.267
2014    8       15    17  17    4.81   452.0    6.9      45.296
2014    8       15    17  23    4.81   452.1    6.9      45.325
2014    8       15    17  29    4.81   452.1    6.9      45.354
2014    8       15    17  35    4.81   452.2    6.9      45.383
2014    8       15    17  40    4.81   452.3    6.9      45.412
2014    8       15    17  46    4.82   452.4    6.9      45.442
2014    8       15    17  52    4.82   452.4    6.9      45.472
2014    8       15    17  58    4.82   452.5    6.9      45.502
2014    8       15    18   4    4.82   452.6    6.9      45.532
2014    8       15    18  10    4.83   452.7    6.9      45.562
2014    8       15    18  16    4.83   452.7    6.9      45.592
2014    8       15    18  22    4.83   452.8    6.9      45.623
2014    8       15    18  28    4.83   452.9    6.9      45.653
2014    8       15    18  34    4.84   453.0    6.9      45.685
2014    8       15    18  40    4.84   453.1    6.9      45.718
2014    8       15    18  46    4.84   453.1    6.9      45.751
2014    8       15    18  52    4.85   453.2    6.9      45.786
2014    8       15    18  58    4.85   453.3    6.9      45.823
2014    8       15    19   4    4.85   453.4    6.9      45.861
2014    8       15    19   9    4.85   453.5    6.9      45.901
2014    8       15    19  15    4.86   453.6    6.9      45.940
2014    8       15    19  21    4.86   453.7    6.9      45.980
2014    8       15    19  27    4.86   453.8    6.9      46.021
2014    8       15    19  33    4.86   453.9    6.9      46.061
2014    8       15    19  39    4.87   454.0    7.0      46.101
2014    8       15    19  45    4.87   454.1    7.0      46.139
2014    8       15    19  51    4.87   454.3    7.0      46.177
2014    8       15    19  57    4.87   454.4    7.0      46.214
2014    8       15    20   3    4.87   454.5    7.0      46.250
2014    8       15    20   9    4.88   454.6    7.0      46.286
2014    8       15    20  15    4.88   454.7    7.0      46.321
2014    8       15    20  21    4.88   454.8    7.0      46.354
2014    8       15    20  27    4.88   454.9    7.0      46.387
2014    8       15    20  33    4.88   455.0    7.0      46.419
2014    8       15    20  38    4.88   455.1    7.0      46.451
2014    8       15    20  44    4.89   455.2    7.0      46.481
2014    8       15    20  50    4.89   455.3    7.0      46.511
2014    8       15    20  56    4.89   455.4    7.0      46.540
2014    8       15    21   2    4.89   455.5    7.0      46.568
2014    8       15    21   8    4.89   455.6    7.0      46.596
2014    8       15    21  14    4.89   455.7    7.0      46.623
2014    8       15    21  20    4.90   455.8    7.0      46.649
2014    8       15    21  26    4.90   455.9    7.0      46.675
2014    8       15    21  32    4.90   456.0    7.0      46.700
2014    8       15    21  38    4.90   456.1    7.0      46.725
2014    8       15    21  44    4.90   456.2    7.0      46.749
2014    8       15    21  50    4.90   456.3    7.0      46.773
2014    8       15    21  56    4.91   456.4    7.0      46.796
2014    8       15    22   2    4.91   456.5    7.0      46.819
2014    8       15    22   7    4.91   456.6    7.0      46.842
2014    8       15    22  13    4.91   456.7    7.0      46.865
2014    8       15    22  19    4.91   456.8    7.0      46.887
2014    8       15    22  25    4.91   456.9    7.0      46.909
2014    8       15    22  31    4.91   457.0    7.0      46.932
2014    8       15    22  37    4.92   457.1    7.0      46.954
2014    8       15    22  43    4.92   457.2    7.0      46.976
2014    8       15    22  49    4.92   457.3    7.0      46.999
2014    8       15    22  55    4.92   457.4    6.9      47.021
2014    8       15    23   1    4.92   457.5    6.9      47.044
2014    8       15    23   7    4.92   457.6    6.9      47.066
2014    8       15    23  13    4.93   457.7    6.9      47.089
2014    8       15    23  19    4.93   457.8    6.9      47.112
2014    8       15    23  25    4.93   457.9    6.9      47.136
2014    8       15    23  31    4.93   458.0    6.9      47.159
2014    8       15    23  37    4.93   458.1    6.9      47.183
2014    8       15    23  42    4.93   458.2    6.9      47.207
2014    8       15    23  48    4.93   458.3    6.9      47.232
2014    8       15    23  54    4.94   458.4    6.9      47.257
2014    8       16     0   0    4.94   458.5    6.9      47.283
2014    8       16     0   6    4.94   458.6    6.9      47.309
2014    8       16     0  12    4.94   458.7    6.9      47.336
2014    8       16     0  18    4.94   458.8    6.9      47.364
2014    8       16     0  24    4.94   458.9    6.9      47.392
2014    8       16     0  30    4.95   459.0    6.9      47.421
2014    8       16     0  36    4.95   459.1    6.9      47.450
2014    8       16     0  42    4.95   459.2    6.9      47.482
2014    8       16     0  48    4.95   459.3    6.9      47.516
2014    8       16     0  54    4.95   459.5    6.9      47.550
2014    8       16     1   0    4.95   459.6    6.9      47.586
2014    8       16     1   6    4.96   459.7    7.0      47.624
2014    8       16     1  11    4.96   459.8    7.0      47.663
2014    8       16     1  17    4.96   459.9    7.0      47.701
2014    8       16     1  23    4.96   460.1    7.0      47.739
2014    8       16     1  29    4.96   460.2    7.0      47.776
2014    8       16     1  35    4.97   460.3    7.0      47.813
2014    8       16     1  41    4.97   460.4    7.0      47.849
2014    8       16     1  47    4.97   460.6    7.0      47.884
2014    8       16     1  53    4.97   460.7    7.0      47.919
2014    8       16     1  59    4.97   460.8    7.0      47.954
2014    8       16     2   5    4.97   460.9    7.0      47.989
2014    8       16     2  11    4.98   461.0    7.0      48.024
2014    8       16     2  17    4.98   461.2    7.0      48.059
2014    8       16     2  23    4.98   461.3    7.0      48.095
2014    8       16     2  29    4.98   461.4    7.0      48.131
2014    8       16     2  35    4.98   461.6    7.0      48.167
2014    8       16     2  41    4.98   461.7    7.0      48.202
2014    8       16     2  46    4.98   461.8    7.0      48.236
2014    8       16     2  52    4.99   461.9    7.0      48.270
2014    8       16     2  58    4.99   462.1    7.0      48.303
2014    8       16     3   4    4.99   462.2    7.0      48.336
2014    8       16     3  10    4.99   462.4    7.0      48.368
2014    8       16     3  16    4.99   462.5    7.0      48.400
2014    8       16     3  22    4.99   462.6    7.0      48.431
2014    8       16     3  28    4.99   462.8    7.0      48.462
2014    8       16     3  34    5.00   462.9    7.0      48.492
2014    8       16     3  40    5.00   463.0    7.0      48.521
2014    8       16     3  46    5.00   463.2    7.0      48.550
2014    8       16     3  52    5.00   463.3    7.0      48.578
2014    8       16     3  58    5.00   463.4    7.0      48.606
2014    8       16     4   4    5.00   463.6    6.9      48.634
2014    8       16     4  10    5.00   463.7    6.9      48.661
2014    8       16     4  15    5.00   463.9    6.9      48.688
2014    8       16     4  21    5.00   464.0    6.9      48.714
2014    8       16     4  27    5.01   464.1    6.9      48.740
2014    8       16     4  33    5.01   464.3    6.9      48.767
2014    8       16     4  39    5.01   464.4    6.9      48.793
2014    8       16     4  45    5.01   464.5    6.9      48.819
2014    8       16     4  51    5.01   464.7    6.9      48.845
2014    8       16     4  57    5.01   464.8    6.9      48.872
2014    8       16     5   3    5.01   465.0    6.9      48.898
2014    8       16     5   9    5.01   465.1    6.9      48.925
2014    8       16     5  15    5.02   465.2    6.9      48.953
2014    8       16     5  21    5.02   465.4    6.9      48.981
2014    8       16     5  27    5.02   465.5    6.9      49.010
2014    8       16     5  33    5.02   465.7    6.9      49.039
2014    8       16     5  39    5.02   465.8    6.9      49.068
2014    8       16     5  44    5.02   465.9    6.9      49.099
2014    8       16     5  50    5.02   466.1    6.9      49.131
2014    8       16     5  56    5.03   466.2    6.9      49.165
2014    8       16     6   2    5.03   466.4    6.9      49.201
2014    8       16     6   8    5.03   466.5    6.9      49.239
2014    8       16     6  14    5.03   466.7    6.9      49.278
2014    8       16     6  20    5.03   466.8    6.9      49.320
2014    8       16     6  26    5.03   467.0    6.9      49.362
2014    8       16     6  32    5.04   467.2    6.9      49.404
2014    8       16     6  38    5.04   467.3    6.9      49.447
2014    8       16     6  44    5.04   467.5    6.9      49.488
2014    8       16     6  50    5.04   467.6    6.9      49.529
2014    8       16     6  56    5.04   467.8    6.9      49.571
2014    8       16     7   2    5.04   468.0    6.9      49.611
2014    8       16     7   8    5.04   468.1    6.9      49.651
2014    8       16     7  14    5.04   468.3    6.9      49.691
2014    8       16     7  19    5.05   468.5    6.9      49.730
2014    8       16     7  25    5.05   468.6    6.9      49.769
2014    8       16     7  31    5.05   468.8    6.9      49.807
2014    8       16     7  37    5.05   469.0    6.9      49.846
2014    8       16     7  43    5.05   469.1    6.9      49.884
2014    8       16     7  49    5.05   469.3    6.9      49.922
2014    8       16     7  55    5.05   469.5    6.9      49.960
2014    8       16     8   1    5.05   469.6    6.9      49.998
2014    8       16     8   7    5.06   469.8    6.9      50.035
2014    8       16     8  13    5.06   470.0    6.9      50.073
2014    8       16     8  19    5.06   470.1    6.9      50.111
2014    8       16     8  25    5.06   470.3    6.9      50.149
2014    8       16     8  31    5.06   470.5    6.9      50.188
2014    8       16     8  37    5.06   470.7    6.9      50.227
2014    8       16     8  43    5.06   470.9    6.9      50.266
2014    8       16     8  48    5.06   471.1    6.9      50.306
2014    8       16     8  54    5.06   471.2    6.9      50.347
2014    8       16     9   0    5.06   471.4    6.9      50.387
2014    8       16     9   6    5.07   471.6    6.9      50.426
2014    8       16     9  12    5.07   471.8    6.9      50.465
2014    8       16     9  18    5.07   472.0    6.9      50.503
2014    8       16     9  24    5.07   472.2    6.9      50.540
2014    8       16     9  30    5.07   472.4    6.9      50.577
2014    8       16     9  36    5.07   472.6    6.9      50.612
2014    8       16     9  42    5.07   472.8    6.9      50.647
2014    8       16     9  48    5.07   473.0    6.9      50.681
2014    8       16     9  54    5.07   473.2    6.8      50.714
2014    8       16    10   0    5.07   473.4    6.8      50.747
2014    8       16    10   6    5.07   473.6    6.8      50.778
2014    8       16    10  12    5.07   473.8    6.8      50.809
2014    8       16    10  17    5.07   474.0    6.8      50.839
2014    8       16    10  23    5.07   474.2    6.8      50.869
2014    8       16    10  29    5.07   474.4    6.8      50.897
2014    8       16    10  35    5.07   474.6    6.8      50.925
2014    8       16    10  41    5.07   474.8    6.8      50.953
2014    8       16    10  47    5.07   475.0    6.8      50.980
2014    8       16    10  53    5.07   475.2    6.8      51.006
2014    8       16    10  59    5.07   475.4    6.8      51.032
2014    8       16    11   5    5.07   475.6    6.8      51.057
2014    8       16    11  11    5.07   475.8    6.8      51.081
2014    8       16    11  17    5.07   476.0    6.8      51.105
2014    8       16    11  23    5.07   476.2    6.8      51.129
2014    8       16    11  29    5.07   476.4    6.8      51.152
2014    8       16    11  35    5.07   476.6    6.8      51.175
2014    8       16    11  41    5.07   476.8    6.8      51.197
2014    8       16    11  46    5.07   477.0    6.8      51.219
2014    8       16    11  52    5.07   477.2    6.7      51.240
2014    8       16    11  58    5.07   477.4    6.7      51.262
2014    8       16    12   4    5.07   477.6    6.7      51.283
2014    8       16    12  10    5.07   477.8    6.7      51.303
2014    8       16    12  16    5.07   478.0    6.7      51.324
2014    8       16    12  22    5.07   478.2    6.7      51.344
2014    8       16    12  28    5.07   478.4    6.7      51.364
2014    8       16    12  34    5.07   478.6    6.7      51.384
2014    8       16    12  40    5.07   478.8    6.7      51.404
2014    8       16    12  46    5.07   479.0    6.7      51.423
2014    8       16    12  52    5.07   479.2    6.7      51.443
2014    8       16    12  58    5.07   479.4    6.7      51.462
2014    8       16    13   4    5.07   479.6    6.7      51.482
2014    8       16    13  10    5.07   479.7    6.7      51.502
2014    8       16    13  15    5.07   479.9    6.7      51.522
2014    8       16    13  21    5.07   480.1    6.7      51.542
2014    8       16    13  27    5.07   480.3    6.7      51.564
2014    8       16    13  33    5.06   480.5    6.7      51.585
2014    8       16    13  39    5.06   480.7    6.6      51.608
2014    8       16    13  45    5.06   480.9    6.6      51.632
2014    8       16    13  51    5.06   481.1    6.6      51.656
2014    8       16    13  57    5.06   481.2    6.6      51.680
2014    8       16    14   3    5.06   481.4    6.6      51.706
2014    8       16    14   9    5.06   481.6    6.6      51.733
2014    8       16    14  15    5.06   481.8    6.6      51.762
2014    8       16    14  21    5.06   482.0    6.6      51.793
2014    8       16    14  27    5.06   482.2    6.6      51.827
2014    8       16    14  33    5.06   482.4    6.6      51.862
2014    8       16    14  39    5.06   482.6    6.6      51.899
2014    8       16    14  45    5.06   482.8    6.6      51.938
2014    8       16    14  50    5.06   483.0    6.6      51.977
2014    8       16    14  56    5.06   483.2    6.6      52.017
2014    8       16    15   2    5.05   483.4    6.6      52.057
2014    8       16    15   8    5.05   483.6    6.6      52.096
2014    8       16    15  14    5.05   483.8    6.6      52.135
2014    8       16    15  20    5.05   484.0    6.6      52.174
2014    8       16    15  26    5.05   484.2    6.6      52.212
2014    8       16    15  32    5.05   484.4    6.6      52.248
2014    8       16    15  38    5.05   484.6    6.6      52.283
2014    8       16    15  44    5.05   484.8    6.6      52.318
2014    8       16    15  50    5.05   485.0    6.6      52.351
2014    8       16    15  56    5.05   485.2    6.6      52.383
2014    8       16    16   2    5.04   485.4    6.5      52.413
2014    8       16    16   8    5.04   485.6    6.5      52.443
2014    8       16    16  14    5.04   485.8    6.5      52.471
2014    8       16    16  19    5.04   486.0    6.5      52.498
2014    8       16    16  25    5.04   486.3    6.5      52.525
2014    8       16    16  31    5.04   486.5    6.5      52.549
2014    8       16    16  37    5.04   486.7    6.5      52.573
2014    8       16    16  43    5.03   486.9    6.5      52.596
2014    8       16    16  49    5.03   487.1    6.5      52.617
2014    8       16    16  55    5.03   487.3    6.5      52.637
2014    8       16    17   1    5.03   487.5    6.5      52.657
2014    8       16    17   7    5.03   487.7    6.5      52.675
2014    8       16    17  13    5.03   488.0    6.5      52.691
2014    8       16    17  19    5.02   488.2    6.4      52.707
2014    8       16    17  25    5.02   488.4    6.4      52.722
2014    8       16    17  31    5.02   488.6    6.4      52.736
2014    8       16    17  37    5.02   488.8    6.4      52.749
2014    8       16    17  43    5.02   489.0    6.4      52.761
2014    8       16    17  48    5.01   489.2    6.4      52.771
2014    8       16    17  54    5.01   489.4    6.4      52.781
2014    8       16    18   0    5.01   489.7    6.4      52.790
2014    8       16    18   6    5.01   489.9    6.4      52.798
2014    8       16    18  12    5.01   490.1    6.4      52.806
2014    8       16    18  18    5.00   490.3    6.4      52.812
2014    8       16    18  24    5.00   490.5    6.4      52.818
2014    8       16    18  30    5.00   490.7    6.3      52.823
2014    8       16    18  36    5.00   490.9    6.3      52.827
2014    8       16    18  42    4.99   491.1    6.3      52.831
2014    8       16    18  48    4.99   491.3    6.3      52.834
2014    8       16    18  54    4.99   491.5    6.3      52.836
2014    8       16    19   0    4.99   491.7    6.3      52.838
2014    8       16    19   6    4.98   491.9    6.3      52.839
2014    8       16    19  12    4.98   492.1    6.3      52.840
2014    8       16    19  17    4.98   492.3    6.3      52.840
2014    8       16    19  23    4.98   492.5    6.3      52.840
2014    8       16    19  29    4.97   492.7    6.3      52.840
2014    8       16    19  35    4.97   492.9    6.2      52.840
2014    8       16    19  41    4.97   493.1    6.2      52.839
2014    8       16    19  47    4.97   493.2    6.2      52.837
2014    8       16    19  53    4.96   493.4    6.2      52.835
2014    8       16    19  59    4.96   493.6    6.2      52.833
2014    8       16    20   5    4.96   493.8    6.2      52.830
2014    8       16    20  11    4.96   494.0    6.2      52.826
2014    8       16    20  17    4.95   494.2    6.2      52.823
2014    8       16    20  23    4.95   494.4    6.2      52.819
2014    8       16    20  29    4.95   494.6    6.2      52.814
2014    8       16    20  35    4.95   494.8    6.1      52.809
2014    8       16    20  41    4.94   494.9    6.1      52.804
2014    8       16    20  46    4.94   495.1    6.1      52.798
2014    8       16    20  52    4.94   495.3    6.1      52.792
2014    8       16    20  58    4.93   495.5    6.1      52.786
2014    8       16    21   4    4.93   495.7    6.1      52.780
2014    8       16    21  10    4.93   495.8    6.1      52.774
2014    8       16    21  16    4.93   496.0    6.1      52.768
2014    8       16    21  22    4.92   496.2    6.1      52.762
2014    8       16    21  28    4.92   496.4    6.1      52.756
2014    8       16    21  34    4.92   496.5    6.1      52.749
2014    8       16    21  40    4.91   496.7    6.0      52.742
2014    8       16    21  46    4.91   496.9    6.0      52.734
2014    8       16    21  52    4.91   497.0    6.0      52.726
2014    8       16    21  58    4.90   497.2    6.0      52.718
2014    8       16    22   4    4.90   497.4    6.0      52.708
2014    8       16    22  10    4.90   497.5    6.0      52.699
2014    8       16    22  16    4.90   497.7    6.0      52.688
2014    8       16    22  21    4.89   497.9    6.0      52.677
2014    8       16    22  27    4.89   498.0    6.0      52.666
2014    8       16    22  33    4.89   498.2    6.0      52.654
2014    8       16    22  39    4.88   498.4    6.0      52.641
2014    8       16    22  45    4.88   498.5    5.9      52.628
2014    8       16    22  51    4.88   498.7    5.9      52.614
2014    8       16    22  57    4.87   498.8    5.9      52.600
2014    8       16    23   3    4.87   499.0    5.9      52.586
2014    8       16    23   9    4.87   499.1    5.9      52.571
2014    8       16    23  15    4.86   499.3    5.9      52.556
2014    8       16    23  21    4.86   499.4    5.9      52.540
2014    8       16    23  27    4.86   499.6    5.9      52.525
2014    8       16    23  33    4.85   499.7    5.9      52.508
2014    8       16    23  39    4.85   499.8    5.9      52.492
2014    8       16    23  45    4.84   500.0    5.9      52.476
2014    8       16    23  50    4.84   500.1    5.8      52.459
2014    8       16    23  56    4.84   500.3    5.8      52.443
2014    8       17     0   2    4.83   500.4    5.8      52.426
2014    8       17     0   8    4.83   500.5    5.8      52.409
2014    8       17     0  14    4.83   500.7    5.8      52.392
2014    8       17     0  20    4.82   500.8    5.8      52.375
2014    8       17     0  26    4.82   500.9    5.8      52.358
2014    8       17     0  32    4.82   501.0    5.8      52.342
2014    8       17     0  38    4.81   501.2    5.8      52.325
2014    8       17     0  44    4.81   501.3    5.8      52.308
2014    8       17     0  50    4.81   501.4    5.8      52.292
2014    8       17     0  56    4.80   501.5    5.8      52.275
2014    8       17     1   2    4.80   501.7    5.8      52.259
2014    8       17     1   8    4.80   501.8    5.7      52.243
2014    8       17     1  14    4.79   501.9    5.7      52.228
2014    8       17     1  19    4.79   502.0    5.7      52.212
2014    8       17     1  25    4.79   502.1    5.7      52.197
2014    8       17     1  31    4.78   502.3    5.7      52.181
2014    8       17     1  37    4.78   502.4    5.7      52.165
2014    8       17     1  43    4.78   502.5    5.7      52.149
2014    8       17     1  49    4.77   502.6    5.7      52.132
2014    8       17     1  55    4.77   502.8    5.7      52.113
2014    8       17     2   1    4.77   502.9    5.7      52.095
2014    8       17     2   7    4.76   503.0    5.7      52.075
2014    8       17     2  13    4.76   503.1    5.7      52.055
2014    8       17     2  19    4.76   503.3    5.7      52.034
2014    8       17     2  25    4.75   503.4    5.7      52.013
2014    8       17     2  31    4.75   503.5    5.6      51.990
2014    8       17     2  37    4.74   503.6    5.6      51.967
2014    8       17     2  43    4.74   503.7    5.6      51.944
2014    8       17     2  48    4.74   503.9    5.6      51.920
2014    8       17     2  54    4.73   504.0    5.6      51.895
2014    8       17     3   0    4.73   504.1    5.6      51.870
2014    8       17     3   6    4.73   504.2    5.6      51.845
2014    8       17     3  12    4.72   504.3    5.6      51.819
2014    8       17     3  18    4.72   504.5    5.6      51.792
2014    8       17     3  24    4.72   504.6    5.6      51.766
2014    8       17     3  30    4.71   504.7    5.6      51.738
2014    8       17     3  36    4.71   504.8    5.6      51.711
2014    8       17     3  42    4.70   504.9    5.6      51.683
2014    8       17     3  48    4.70   505.0    5.5      51.654
2014    8       17     3  54    4.70   505.1    5.5      51.626
2014    8       17     4   0    4.69   505.3    5.5      51.597
2014    8       17     4   6    4.69   505.4    5.5      51.568
2014    8       17     4  12    4.69   505.5    5.5      51.538
2014    8       17     4  17    4.68   505.6    5.5      51.508
2014    8       17     4  23    4.68   505.7    5.5      51.477
2014    8       17     4  29    4.67   505.8    5.5      51.447
2014    8       17     4  35    4.67   505.9    5.5      51.416
2014    8       17     4  41    4.67   506.0    5.5      51.384
2014    8       17     4  47    4.66   506.1    5.5      51.353
2014    8       17     4  53    4.66   506.2    5.5      51.321
2014    8       17     4  59    4.66   506.3    5.5      51.289
2014    8       17     5   5    4.65   506.4    5.4      51.256
2014    8       17     5  11    4.65   506.4    5.4      51.224
2014    8       17     5  17    4.65   506.5    5.4      51.192
2014    8       17     5  23    4.64   506.6    5.4      51.159
2014    8       17     5  29    4.64   506.7    5.4      51.127
2014    8       17     5  35    4.63   506.8    5.4      51.094
2014    8       17     5  41    4.63   506.9    5.4      51.062
2014    8       17     5  46    4.63   506.9    5.4      51.030
2014    8       17     5  52    4.62   507.0    5.4      50.998
2014    8       17     5  58    4.62   507.1    5.4      50.967
2014    8       17     6   4    4.62   507.1    5.4      50.936
2014    8       17     6  10    4.61   507.2    5.4      50.906
2014    8       17     6  16    4.61   507.3    5.4      50.876
2014    8       17     6  22    4.61   507.3    5.4      50.847
2014    8       17     6  28    4.60   507.4    5.4      50.818
2014    8       17     6  34    4.60   507.4    5.4      50.790
2014    8       17     6  40    4.60   507.5    5.3      50.763
2014    8       17     6  46    4.59   507.5    5.3      50.736
2014    8       17     6  52    4.59   507.6    5.3      50.711
2014    8       17     6  58    4.59   507.6    5.3      50.686
2014    8       17     7   4    4.58   507.7    5.3      50.662
2014    8       17     7  10    4.58   507.7    5.3      50.639
2014    8       17     7  15    4.58   507.8    5.3      50.616
2014    8       17     7  21    4.58   507.8    5.3      50.595
2014    8       17     7  27    4.57   507.9    5.3      50.574
2014    8       17     7  33    4.57   507.9    5.3      50.554
2014    8       17     7  39    4.57   507.9    5.3      50.534
2014    8       17     7  45    4.56   508.0    5.3      50.516
2014    8       17     7  51    4.56   508.0    5.3      50.498
2014    8       17     7  57    4.56   508.0    5.3      50.480
2014    8       17     8   3    4.56   508.1    5.3      50.463
2014    8       17     8   9    4.55   508.1    5.3      50.447
2014    8       17     8  15    4.55   508.1    5.3      50.432
2014    8       17     8  21    4.55   508.1    5.3      50.417
2014    8       17     8  27    4.55   508.2    5.3      50.403
2014    8       17     8  33    4.54   508.2    5.3      50.389
2014    8       17     8  39    4.54   508.2    5.3      50.375
2014    8       17     8  44    4.54   508.3    5.3      50.362
2014    8       17     8  50    4.54   508.3    5.3      50.348
2014    8       17     8  56    4.53   508.3    5.3      50.333
2014    8       17     9   2    4.53   508.4    5.3      50.319
2014    8       17     9   8    4.53   508.4    5.3      50.304
2014    8       17     9  14    4.53   508.5    5.3      50.289
2014    8       17     9  20    4.53   508.5    5.3      50.273
2014    8       17     9  26    4.52   508.5    5.3      50.257
2014    8       17     9  32    4.52   508.6    5.3      50.241
2014    8       17     9  38    4.52   508.6    5.2      50.224
2014    8       17     9  44    4.52   508.7    5.2      50.207
2014    8       17     9  50    4.51   508.7    5.2      50.190
2014    8       17     9  56    4.51   508.7    5.2      50.173
2014    8       17    10   2    4.51   508.8    5.2      50.155
2014    8       17    10   8    4.51   508.8    5.2      50.137
2014    8       17    10  13    4.50   508.9    5.2      50.119
2014    8       17    10  19    4.50   508.9    5.2      50.101
2014    8       17    10  25    4.50   509.0    5.2      50.083
2014    8       17    10  31    4.50   509.0    5.2      50.064
2014    8       17    10  37    4.49   509.0    5.2      50.046
2014    8       17    10  43    4.49   509.1    5.2      50.027
2014    8       17    10  49    4.49   509.1    5.2      50.008
2014    8       17    10  55    4.49   509.2    5.2      49.990
2014    8       17    11   1    4.48   509.2    5.2      49.971
2014    8       17    11   7    4.48   509.2    5.2      49.952
2014    8       17    11  13    4.48   509.3    5.2      49.933
2014    8       17    11  19    4.48   509.3    5.2      49.914
2014    8       17    11  25    4.47   509.4    5.2      49.895
2014    8       17    11  31    4.47   509.4    5.2      49.876
2014    8       17    11  37    4.47   509.4    5.2      49.857
2014    8       17    11  42    4.47   509.5    5.2      49.839
2014    8       17    11  48    4.46   509.5    5.2      49.820
2014    8       17    11  54    4.46   509.5    5.2      49.801
2014    8       17    12   0    4.46   509.6    5.2      49.782
2014    8       17    12   6    4.46   509.6    5.2      49.764
2014    8       17    12  12    4.45   509.7    5.2      49.745
2014    8       17    12  18    4.45   509.7    5.2      49.727
2014    8       17    12  24    4.45   509.7    5.2      49.708
2014    8       17    12  30    4.45   509.8    5.2      49.690
2014    8       17    12  36    4.44   509.8    5.2      49.672
2014    8       17    12  42    4.44   509.8    5.2      49.653
2014    8       17    12  48    4.44   509.8    5.2      49.635
2014    8       17    12  54    4.44   509.9    5.1      49.617
2014    8       17    13   0    4.44   509.9    5.1      49.600
2014    8       17    13   6    4.43   509.9    5.1      49.582
2014    8       17    13  12    4.43   510.0    5.1      49.565
2014    8       17    13  17    4.43   510.0    5.1      49.547
2014    8       17    13  23    4.43   510.0    5.1      49.530
2014    8       17    13  29    4.42   510.0    5.1      49.513
2014    8       17    13  35    4.42   510.1    5.1      49.496
2014    8       17    13  41    4.42   510.1    5.1      49.479
2014    8       17    13  47    4.42   510.1    5.1      49.463
2014    8       17    13  53    4.42   510.1    5.1      49.447
2014    8       17    13  59    4.41   510.1    5.1      49.431
2014    8       17    14   5    4.41   510.1    5.1      49.415
2014    8       17    14  11    4.41   510.2    5.1      49.399
2014    8       17    14  17    4.41   510.2    5.1      49.384
2014    8       17    14  23    4.41   510.2    5.1      49.368
2014    8       17    14  29    4.41   510.2    5.1      49.354
2014    8       17    14  35    4.40   510.2    5.1      49.339
2014    8       17    14  41    4.40   510.2    5.1      49.325
2014    8       17    14  46    4.40   510.3    5.1      49.311
2014    8       17    14  52    4.40   510.3    5.1      49.297
2014    8       17    14  58    4.40   510.3    5.1      49.283
2014    8       17    15   4    4.40   510.3    5.1      49.270
2014    8       17    15  10    4.39   510.3    5.1      49.256
2014    8       17    15  16    4.39   510.3    5.1      49.243
2014    8       17    15  22    4.39   510.3    5.1      49.229
2014    8       17    15  28    4.39   510.3    5.1      49.216
2014    8       17    15  34    4.39   510.4    5.1      49.203
2014    8       17    15  40    4.39   510.4    5.1      49.190
2014    8       17    15  46    4.39   510.4    5.1      49.177
2014    8       17    15  52    4.38   510.4    5.1      49.164
2014    8       17    15  58    4.38   510.4    5.1      49.152
2014    8       17    16   4    4.38   510.4    5.1      49.139
2014    8       17    16  10    4.38   510.4    5.1      49.127
2014    8       17    16  15    4.38   510.4    5.1      49.115
2014    8       17    16  21    4.38   510.4    5.1      49.103
2014    8       17    16  27    4.38   510.5    5.1      49.091
2014    8       17    16  33    4.38   510.5    5.1      49.080
2014    8       17    16  39    4.37   510.5    5.1      49.069
2014    8       17    16  45    4.37   510.5    5.1      49.058
2014    8       17    16  51    4.37   510.5    5.1      49.047
2014    8       17    16  57    4.37   510.5    5.1      49.036
2014    8       17    17   3    4.37   510.5    5.1      49.026
2014    8       17    17   9    4.37   510.6    5.1      49.016
2014    8       17    17  15    4.37   510.6    5.1      49.006
2014    8       17    17  21    4.36   510.6    5.1      48.996
2014    8       17    17  27    4.36   510.6    5.1      48.987
2014    8       17    17  33    4.36   510.6    5.1      48.978
2014    8       17    17  38    4.36   510.6    5.1      48.969
2014    8       17    17  44    4.36   510.6    5.1      48.960
2014    8       17    17  50    4.36   510.6    5.1      48.952
2014    8       17    17  56    4.36   510.7    5.1      48.944
2014    8       17    18   2    4.36   510.7    5.1      48.936
2014    8       17    18   8    4.35   510.7    5.1      48.928
2014    8       17    18  14    4.35   510.7    5.1      48.921
2014    8       17    18  20    4.35   510.7    5.1      48.914
2014    8       17    18  26    4.35   510.7    5.0      48.907
2014    8       17    18  32    4.35   510.7    5.0      48.900
2014    8       17    18  38    4.35   510.8    5.0      48.894
2014    8       17    18  44    4.35   510.8    5.0      48.888
2014    8       17    18  50    4.35   510.8    5.0      48.882
2014    8       17    18  56    4.34   510.8    5.0      48.876
2014    8       17    19   2    4.34   510.8    5.0      48.871
2014    8       17    19   8    4.34   510.8    5.0      48.866
2014    8       17    19  13    4.34   510.8    5.0      48.861
2014    8       17    19  19    4.34   510.9    5.0      48.856
2014    8       17    19  25    4.34   510.9    5.0      48.851
2014    8       17    19  31    4.34   510.9    5.0      48.847
2014    8       17    19  37    4.34   510.9    5.0      48.843
2014    8       17    19  43    4.34   510.9    5.0      48.838
2014    8       17    19  49    4.33   510.9    5.0      48.834
2014    8       17    19  55    4.33   510.9    5.0      48.830
2014    8       17    20   1    4.33   511.0    5.0      48.827
2014    8       17    20   7    4.33   511.0    5.0      48.823
2014    8       17    20  13    4.33   511.0    5.0      48.819
2014    8       17    20  19    4.33   511.0    5.0      48.816
2014    8       17    20  25    4.33   511.0    5.0      48.812
2014    8       17    20  31    4.33   511.0    5.0      48.809
2014    8       17    20  37    4.33   511.0    5.0      48.805
2014    8       17    20  42    4.33   511.0    5.0      48.802
2014    8       17    20  48    4.32   511.0    5.0      48.798
2014    8       17    20  54    4.32   511.0    5.0      48.795
2014    8       17    21   0    4.32   511.1    5.0      48.791
2014    8       17    21   6    4.32   511.1    5.0      48.787
2014    8       17    21  12    4.32   511.1    5.0      48.784
2014    8       17    21  18    4.32   511.1    5.0      48.780
2014    8       17    21  24    4.32   511.1    5.0      48.776
2014    8       17    21  30    4.32   511.1    5.0      48.772
2014    8       17    21  36    4.32   511.1    5.0      48.769
2014    8       17    21  42    4.32   511.1    5.0      48.765
2014    8       17    21  48    4.32   511.1    5.0      48.761
2014    8       17    21  54    4.32   511.2    5.0      48.756
2014    8       17    22   0    4.32   511.2    5.0      48.752
2014    8       17    22   6    4.32   511.2    5.0      48.748
2014    8       17    22  11    4.32   511.2    5.0      48.744
2014    8       17    22  17    4.31   511.2    5.0      48.740
2014    8       17    22  23    4.31   511.2    5.0      48.735
2014    8       17    22  29    4.31   511.2    5.0      48.731
2014    8       17    22  35    4.31   511.3    5.0      48.727
2014    8       17    22  41    4.31   511.3    5.0      48.723
2014    8       17    22  47    4.31   511.3    5.0      48.719
2014    8       17    22  53    4.31   511.3    5.0      48.715
2014    8       17    22  59    4.31   511.3    5.0      48.711
2014    8       17    23   5    4.31   511.3    5.0      48.707
2014    8       17    23  11    4.31   511.4    5.0      48.703
2014    8       17    23  17    4.31   511.4    5.0      48.700
2014    8       17    23  23    4.31   511.4    5.0      48.696
2014    8       17    23  29    4.31   511.4    5.0      48.693
2014    8       17    23  35    4.31   511.4    5.0      48.690
2014    8       17    23  40    4.31   511.5    5.0      48.687
2014    8       17    23  46    4.31   511.5    5.0      48.685
2014    8       17    23  52    4.31   511.5    5.0      48.682
2014    8       17    23  58    4.31   511.5    5.0      48.681
2014    8       18     0   4    4.31   511.5    5.0      48.679
2014    8       18     0  10    4.31   511.6    5.0      48.678
2014    8       18     0  16    4.31   511.6    5.0      48.677
2014    8       18     0  22    4.30   511.6    5.0      48.676
2014    8       18     0  28    4.30   511.6    5.0      48.676
2014    8       18     0  34    4.30   511.7    5.0      48.676
2014    8       18     0  40    4.30   511.7    5.0      48.677
2014    8       18     0  46    4.30   511.7    5.0      48.678
2014    8       18     0  52    4.30   511.7    5.0      48.679
2014    8       18     0  58    4.30   511.7    5.0      48.681
2014    8       18     1   3    4.30   511.8    5.0      48.683
2014    8       18     1   9    4.30   511.8    5.0      48.686
2014    8       18     1  15    4.30   511.8    5.0      48.689
2014    8       18     1  21    4.30   511.8    5.0      48.693
2014    8       18     1  27    4.30   511.9    5.0      48.697
2014    8       18     1  33    4.30   511.9    5.0      48.701
2014    8       18     1  39    4.30   511.9    5.0      48.706
2014    8       18     1  45    4.30   511.9    5.0      48.712
2014    8       18     1  51    4.30   512.0    5.0      48.717
2014    8       18     1  57    4.30   512.0    5.0      48.724
2014    8       18     2   3    4.30   512.0    5.0      48.730
2014    8       18     2   9    4.30   512.1    5.0      48.737
2014    8       18     2  15    4.30   512.1    5.0      48.745
2014    8       18     2  21    4.30   512.1    5.0      48.752
2014    8       18     2  27    4.30   512.1    5.0      48.760
2014    8       18     2  33    4.30   512.2    5.0      48.768
2014    8       18     2  38    4.30   512.2    5.0      48.777
2014    8       18     2  44    4.30   512.2    5.0      48.786
2014    8       18     2  50    4.30   512.3    5.0      48.796
2014    8       18     2  56    4.30   512.3    5.0      48.806
2014    8       18     3   2    4.30   512.3    5.0      48.817
2014    8       18     3   8    4.30   512.4    5.0      48.828
2014    8       18     3  14    4.30   512.4    5.0      48.840
2014    8       18     3  20    4.30   512.4    5.0      48.852
2014    8       18     3  26    4.30   512.5    5.0      48.864
2014    8       18     3  32    4.30   512.5    5.0      48.876
2014    8       18     3  38    4.30   512.5    5.0      48.887
2014    8       18     3  44    4.29   512.5    5.0      48.898
2014    8       18     3  50    4.29   512.6    5.0      48.909
2014    8       18     3  56    4.29   512.6    5.0      48.919
2014    8       18     4   2    4.29   512.6    5.0      48.929
2014    8       18     4   7    4.29   512.7    5.0      48.938
2014    8       18     4  13    4.29   512.7    5.0      48.947
2014    8       18     4  19    4.29   512.7    5.0      48.956
2014    8       18     4  25    4.29   512.8    5.0      48.964
2014    8       18     4  31    4.29   512.8    5.0      48.972
2014    8       18     4  37    4.29   512.8    5.0      48.980
2014    8       18     4  43    4.29   512.9    5.0      48.987
2014    8       18     4  49    4.29   512.9    5.0      48.994
2014    8       18     4  55    4.29   512.9    5.0      49.001
2014    8       18     5   1    4.29   513.0    5.0      49.008
2014    8       18     5   7    4.29   513.0    5.0      49.014
2014    8       18     5  13    4.29   513.0    5.0      49.020
2014    8       18     5  19    4.29   513.1    5.0      49.026
2014    8       18     5  25    4.29   513.1    5.0      49.032
2014    8       18     5  31    4.29   513.1    5.0      49.038
2014    8       18     5  36    4.29   513.2    5.0      49.043
2014    8       18     5  42    4.29   513.2    5.0      49.048
2014    8       18     5  48    4.29   513.2    5.0      49.054
2014    8       18     5  54    4.29   513.3    5.0      49.059
2014    8       18     6   0    4.29   513.3    5.0      49.064
2014    8       18     6   6    4.29   513.4    5.0      49.069
2014    8       18     6  12    4.29   513.4    5.0      49.075
2014    8       18     6  18    4.29   513.4    5.0      49.080
2014    8       18     6  24    4.29   513.5    5.0      49.086
2014    8       18     6  30    4.29   513.5    5.0      49.091
2014    8       18     6  36    4.29   513.6    5.0      49.096
2014    8       18     6  42    4.29   513.6    5.0      49.102
2014    8       18     6  48    4.29   513.7    5.0      49.107
2014    8       18     6  54    4.29   513.7    5.0      49.112
2014    8       18     7   0    4.29   513.7    5.0      49.117
2014    8       18     7   5    4.29   513.8    5.0      49.122
2014    8       18     7  11    4.29   513.8    5.0      49.127
2014    8       18     7  17    4.29   513.9    5.0      49.132
2014    8       18     7  23    4.29   513.9    5.0      49.138
2014    8       18     7  29    4.29   514.0    5.0      49.143
2014    8       18     7  35    4.29   514.0    5.0      49.148
2014    8       18     7  41    4.29   514.1    5.0      49.154
2014    8       18     7  47    4.29   514.1    5.0      49.159
2014    8       18     7  53    4.29   514.1    5.0      49.165
2014    8       18     7  59    4.29   514.2    5.0      49.171
2014    8       18     8   5    4.29   514.2    5.0      49.177
2014    8       18     8  11    4.29   514.3    5.0      49.183
2014    8       18     8  17    4.29   514.3    5.0      49.190
2014    8       18     8  23    4.29   514.4    5.0      49.197
2014    8       18     8  29    4.29   514.4    5.0      49.204
2014    8       18     8  34    4.29   514.5    5.0      49.211
2014    8       18     8  40    4.29   514.5    5.0      49.220
2014    8       18     8  46    4.29   514.6    5.0      49.228
2014    8       18     8  52    4.29   514.6    5.0      49.237
2014    8       18     8  58    4.29   514.7    5.0      49.247
2014    8       18     9   4    4.29   514.7    5.0      49.257
2014    8       18     9  10    4.29   514.8    5.0      49.268
2014    8       18     9  16    4.29   514.8    5.0      49.280
2014    8       18     9  22    4.29   514.9    5.0      49.292
2014    8       18     9  28    4.29   514.9    5.0      49.305
2014    8       18     9  34    4.29   515.0    5.0      49.319
2014    8       18     9  40    4.29   515.0    5.0      49.334
2014    8       18     9  46    4.29   515.1    5.0      49.350
2014    8       18     9  52    4.29   515.1    5.0      49.367
2014    8       18     9  58    4.29   515.2    5.0      49.385
2014    8       18    10   3    4.29   515.2    5.0      49.404
2014    8       18    10   9    4.29   515.3    5.0      49.425
2014    8       18    10  15    4.29   515.4    5.0      49.448
2014    8       18    10  21    4.29   515.4    5.0      49.474
2014    8       18    10  27    4.29   515.5    5.0      49.501
2014    8       18    10  33    4.29   515.6    5.0      49.531
2014    8       18    10  39    4.29   515.6    5.0      49.561
2014    8       18    10  45    4.29   515.7    5.0      49.592
2014    8       18    10  51    4.29   515.8    5.0      49.623
2014    8       18    10  57    4.29   515.9    5.0      49.652
2014    8       18    11   3    4.29   515.9    5.0      49.680
2014    8       18    11   9    4.30   516.0    5.0      49.707
2014    8       18    11  15    4.30   516.1    5.0      49.734
2014    8       18    11  21    4.30   516.1    5.0      49.759
2014    8       18    11  27    4.30   516.2    5.0      49.783
2014    8       18    11  32    4.30   516.3    5.0      49.807
2014    8       18    11  38    4.30   516.4    5.0      49.829
2014    8       18    11  44    4.30   516.4    5.0      49.850
2014    8       18    11  50    4.30   516.5    5.0      49.871
2014    8       18    11  56    4.30   516.6    5.0      49.891
2014    8       18    12   2    4.30   516.6    5.0      49.910
2014    8       18    12   8    4.29   516.7    5.0      49.928
2014    8       18    12  14    4.29   516.8    5.0      49.946
2014    8       18    12  20    4.29   516.9    5.0      49.963
2014    8       18    12  26    4.29   516.9    5.0      49.980
2014    8       18    12  32    4.29   517.0    5.0      49.995
2014    8       18    12  38    4.29   517.1    5.0      50.011
2014    8       18    12  44    4.29   517.1    5.0      50.026
2014    8       18    12  50    4.29   517.2    5.0      50.040
2014    8       18    12  56    4.29   517.3    5.0      50.054
2014    8       18    13   1    4.29   517.3    5.0      50.067
2014    8       18    13   7    4.29   517.4    5.0      50.081
2014    8       18    13  13    4.29   517.5    5.0      50.093
2014    8       18    13  19    4.29   517.6    5.0      50.106
2014    8       18    13  25    4.29   517.6    5.0      50.119
2014    8       18    13  31    4.29   517.7    5.0      50.131
2014    8       18    13  37    4.29   517.8    5.0      50.143
2014    8       18    13  43    4.29   517.8    5.0      50.155
2014    8       18    13  49    4.29   517.9    5.0      50.166
2014    8       18    13  55    4.29   518.0    5.0      50.177
2014    8       18    14   1    4.29   518.0    5.0      50.188
2014    8       18    14   7    4.29   518.1    5.0      50.199
2014    8       18    14  13    4.29   518.2    5.0      50.209
2014    8       18    14  19    4.29   518.3    5.0      50.219
2014    8       18    14  25    4.29   518.3    5.0      50.229
2014    8       18    14  30    4.29   518.4    5.0      50.238
2014    8       18    14  36    4.29   518.5    5.0      50.248
2014    8       18    14  42    4.29   518.5    5.0      50.257
2014    8       18    14  48    4.29   518.6    5.0      50.265
2014    8       18    14  54    4.29   518.7    5.0      50.274
2014    8       18    15   0    4.29   518.7    5.0      50.282
2014    8       18    15   6    4.29   518.8    5.0      50.291
2014    8       18    15  12    4.29   518.9    5.0      50.299
2014    8       18    15  18    4.29   518.9    5.0      50.307
2014    8       18    15  24    4.29   519.0    5.0      50.316
2014    8       18    15  30    4.29   519.1    5.0      50.324
2014    8       18    15  36    4.29   519.1    5.0      50.332
2014    8       18    15  42    4.29   519.2    5.0      50.341
2014    8       18    15  48    4.29   519.3    5.0      50.349
2014    8       18    15  54    4.29   519.3    5.0      50.358
2014    8       18    15  59    4.29   519.4    5.0      50.367
2014    8       18    16   5    4.29   519.5    5.0      50.377
2014    8       18    16  11    4.29   519.5    5.0      50.387
2014    8       18    16  17    4.29   519.6    5.0      50.397
2014    8       18    16  23    4.29   519.7    5.0      50.408
2014    8       18    16  29    4.29   519.7    5.0      50.419
2014    8       18    16  35    4.29   519.8    5.0      50.431
2014    8       18    16  41    4.29   519.9    5.0      50.444
2014    8       18    16  47    4.29   519.9    5.0      50.458
2014    8       18    16  53    4.29   520.0    5.0      50.472
2014    8       18    16  59    4.29   520.1    5.0      50.487
2014    8       18    17   5    4.29   520.1    5.0      50.504
2014    8       18    17  11    4.29   520.2    5.0      50.521
2014    8       18    17  17    4.29   520.3    5.0      50.539
2014    8       18    17  23    4.29   520.3    5.0      50.558
2014    8       18    17  28    4.29   520.4    5.0      50.579
2014    8       18    17  34    4.29   520.5    5.0      50.603
2014    8       18    17  40    4.29   520.6    5.0      50.628
2014    8       18    17  46    4.29   520.7    5.0      50.655
2014    8       18    17  52    4.29   520.8    5.0      50.683
2014    8       18    17  58    4.29   520.8    5.0      50.712
2014    8       18    18   4    4.29   520.9    5.0      50.742
2014    8       18    18  10    4.29   521.0    5.0      50.771
2014    8       18    18  16    4.29   521.1    5.0      50.800
2014    8       18    18  22    4.29   521.2    5.0      50.828
2014    8       18    18  28    4.29   521.3    5.0      50.855
2014    8       18    18  34    4.29   521.4    5.0      50.882
2014    8       18    18  40    4.29   521.5    5.0      50.909
2014    8       18    18  46    4.29   521.5    5.0      50.936
2014    8       18    18  52    4.29   521.6    5.0      50.962
2014    8       18    18  57    4.29   521.7    5.0      50.989
2014    8       18    19   3    4.29   521.8    5.0      51.015
2014    8       18    19   9    4.29   521.9    5.0      51.041
2014    8       18    19  15    4.29   522.0    5.0      51.066
2014    8       18    19  21    4.29   522.1    5.0      51.090
2014    8       18    19  27    4.29   522.2    5.0      51.113
2014    8       18    19  33    4.29   522.3    5.0      51.136
2014    8       18    19  39    4.29   522.4    5.0      51.157
2014    8       18    19  45    4.28   522.5    5.0      51.179
2014    8       18    19  51    4.28   522.6    5.0      51.199
2014    8       18    19  57    4.28   522.7    5.0      51.219
2014    8       18    20   3    4.28   522.8    5.0      51.239
2014    8       18    20   9    4.28   522.8    5.0      51.258
2014    8       18    20  15    4.28   522.9    5.0      51.276
2014    8       18    20  21    4.28   523.0    5.0      51.294
2014    8       18    20  26    4.28   523.1    5.0      51.312
2014    8       18    20  32    4.28   523.2    5.0      51.329
2014    8       18    20  38    4.28   523.3    5.0      51.346
2014    8       18    20  44    4.28   523.4    5.0      51.363
2014    8       18    20  50    4.28   523.5    5.0      51.380
2014    8       18    20  56    4.28   523.6    5.0      51.397
2014    8       18    21   2    4.28   523.7    5.0      51.413
2014    8       18    21   8    4.28   523.8    5.0      51.429
2014    8       18    21  14    4.28   523.9    5.0      51.445
2014    8       18    21  20    4.28   524.0    5.0      51.461
2014    8       18    21  26    4.28   524.1    5.0      51.476
2014    8       18    21  32    4.28   524.2    5.0      51.492
2014    8       18    21  38    4.28   524.3    5.0      51.507
2014    8       18    21  44    4.27   524.4    5.0      51.521
2014    8       18    21  50    4.27   524.5    5.0      51.536
2014    8       18    21  55    4.27   524.6    5.0      51.550
2014    8       18    22   1    4.27   524.7    5.0      51.564
2014    8       18    22   7    4.27   524.8    5.0      51.578
2014    8       18    22  13    4.27   524.8    5.0      51.591
2014    8       18    22  19    4.27   524.9    5.0      51.604
2014    8       18    22  25    4.27   525.0    5.0      51.617
2014    8       18    22  31    4.27   525.1    5.0      51.630
2014    8       18    22  37    4.27   525.2    5.0      51.642
2014    8       18    22  43    4.27   525.3    5.0      51.655
2014    8       18    22  49    4.27   525.4    5.0      51.668
2014    8       18    22  55    4.27   525.5    5.0      51.681
2014    8       18    23   1    4.26   525.6    5.0      51.693
2014    8       18    23   7    4.26   525.7    5.0      51.705
2014    8       18    23  13    4.26   525.8    4.9      51.716
2014    8       18    23  19    4.26   525.9    4.9      51.727
2014    8       18    23  24    4.26   525.9    4.9      51.738
2014    8       18    23  30    4.26   526.0    4.9      51.748
2014    8       18    23  36    4.26   526.1    4.9      51.758
2014    8       18    23  42    4.26   526.2    4.9      51.767
2014    8       18    23  48    4.26   526.3    4.9      51.776
2014    8       18    23  54    4.26   526.4    4.9      51.785
2014    8       19     0   0    4.26   526.5    4.9      51.793
2014    8       19     0   6    4.25   526.5    4.9      51.801
2014    8       19     0  12    4.25   526.6    4.9      51.809
2014    8       19     0  18    4.25   526.7    4.9      51.817
2014    8       19     0  24    4.25   526.8    4.9      51.824
2014    8       19     0  30    4.25   526.9    4.9      51.831
2014    8       19     0  36    4.25   526.9    4.9      51.839
2014    8       19     0  42    4.25   527.0    4.9      51.846
2014    8       19     0  48    4.25   527.1    4.9      51.854
2014    8       19     0  53    4.25   527.2    4.9      51.861
2014    8       19     0  59    4.24   527.3    4.9      51.868
2014    8       19     1   5    4.24   527.3    4.9      51.875
2014    8       19     1  11    4.24   527.4    4.9      51.882
2014    8       19     1  17    4.24   527.5    4.9      51.888
2014    8       19     1  23    4.24   527.6    4.9      51.894
2014    8       19     1  29    4.24   527.7    4.9      51.900
2014    8       19     1  35    4.24   527.7    4.9      51.906
2014    8       19     1  41    4.23   527.8    4.9      51.911
2014    8       19     1  47    4.23   527.9    4.9      51.916
2014    8       19     1  53    4.23   528.0    4.9      51.922
2014    8       19     1  59    4.23   528.1    4.9      51.928
2014    8       19     2   5    4.23   528.1    4.9      51.934
2014    8       19     2  11    4.23   528.2    4.9      51.940
2014    8       19     2  17    4.23   528.3    4.9      51.946
2014    8       19     2  22    4.22   528.4    4.9      51.952
2014    8       19     2  28    4.22   528.5    4.9      51.957
2014    8       19     2  34    4.22   528.5    4.9      51.962
2014    8       19     2  40    4.22   528.6    4.9      51.966
2014    8       19     2  46    4.22   528.7    4.9      51.969
2014    8       19     2  52    4.22   528.8    4.9      51.972
2014    8       19     2  58    4.22   528.8    4.9      51.975
2014    8       19     3   4    4.21   528.9    4.9      51.977
2014    8       19     3  10    4.21   529.0    4.8      51.978
2014    8       19     3  16    4.21   529.1    4.8      51.980
2014    8       19     3  22    4.21   529.1    4.8      51.981
2014    8       19     3  28    4.21   529.2    4.8      51.982
2014    8       19     3  34    4.21   529.3    4.8      51.983
2014    8       19     3  40    4.20   529.4    4.8      51.983
2014    8       19     3  46    4.20   529.4    4.8      51.984
2014    8       19     3  51    4.20   529.5    4.8      51.984
2014    8       19     3  57    4.20   529.6    4.8      51.985
2014    8       19     4   3    4.20   529.7    4.8      51.985
2014    8       19     4   9    4.20   529.7    4.8      51.986
2014    8       19     4  15    4.19   529.8    4.8      51.986
2014    8       19     4  21    4.19   529.9    4.8      51.986
2014    8       19     4  27    4.19   530.0    4.8      51.987
2014    8       19     4  33    4.19   530.0    4.8      51.987
2014    8       19     4  39    4.19   530.1    4.8      51.986
2014    8       19     4  45    4.19   530.2    4.8      51.986
2014    8       19     4  51    4.18   530.3    4.8      51.985
2014    8       19     4  57    4.18   530.3    4.8      51.984
2014    8       19     5   3    4.18   530.4    4.8      51.983
2014    8       19     5   9    4.18   530.5    4.8      51.981
2014    8       19     5  15    4.18   530.6    4.8      51.979
2014    8       19     5  20    4.17   530.6    4.8      51.977
2014    8       19     5  26    4.17   530.7    4.8      51.974
2014    8       19     5  32    4.17   530.8    4.8      51.971
2014    8       19     5  38    4.17   530.8    4.8      51.968
2014    8       19     5  44    4.17   530.9    4.8      51.964
2014    8       19     5  50    4.16   531.0    4.8      51.961
2014    8       19     5  56    4.16   531.1    4.8      51.957
2014    8       19     6   2    4.16   531.1    4.8      51.953
2014    8       19     6   8    4.16   531.2    4.8      51.948
2014    8       19     6  14    4.16   531.3    4.8      51.944
2014    8       19     6  20    4.15   531.3    4.7      51.939
2014    8       19     6  26    4.15   531.4    4.7      51.933
2014    8       19     6  32    4.15   531.4    4.7      51.927
2014    8       19     6  38    4.15   531.5    4.7      51.921
2014    8       19     6  44    4.14   531.6    4.7      51.913
2014    8       19     6  49    4.14   531.6    4.7      51.906
2014    8       19     6  55    4.14   531.7    4.7      51.897
2014    8       19     7   1    4.14   531.7    4.7      51.888
2014    8       19     7   7    4.13   531.8    4.7      51.878
2014    8       19     7  13    4.13   531.8    4.7      51.868
2014    8       19     7  19    4.13   531.9    4.7      51.857
2014    8       19     7  25    4.13   531.9    4.7      51.846
2014    8       19     7  31    4.12   532.0    4.7      51.834
2014    8       19     7  37    4.12   532.0    4.7      51.821
2014    8       19     7  43    4.12   532.1    4.7      51.807
2014    8       19     7  49    4.12   532.1    4.7      51.794
2014    8       19     7  55    4.11   532.2    4.7      51.779
2014    8       19     8   1    4.11   532.2    4.7      51.764
2014    8       19     8   7    4.11   532.3    4.7      51.748
2014    8       19     8  13    4.11   532.3    4.7      51.732
2014    8       19     8  18    4.10   532.4    4.7      51.715
2014    8       19     8  24    4.10   532.4    4.7      51.698
2014    8       19     8  30    4.10   532.4    4.7      51.680
2014    8       19     8  36    4.10   532.5    4.7      51.661
2014    8       19     8  42    4.09   532.5    4.6      51.642
2014    8       19     8  48    4.09   532.5    4.6      51.622
2014    8       19     8  54    4.09   532.6    4.6      51.602
2014    8       19     9   0    4.09   532.6    4.6      51.581
2014    8       19     9   6    4.08   532.6    4.6      51.559
2014    8       19     9  12    4.08   532.7    4.6      51.536
2014    8       19     9  18    4.08   532.7    4.6      51.514
2014    8       19     9  24    4.07   532.7    4.6      51.490
2014    8       19     9  30    4.07   532.7    4.6      51.466
2014    8       19     9  36    4.07   532.7    4.6      51.442
2014    8       19     9  42    4.07   532.8    4.6      51.417
2014    8       19     9  47    4.06   532.8    4.6      51.391
2014    8       19     9  53    4.06   532.8    4.6      51.366
2014    8       19     9  59    4.06   532.8    4.6      51.339
2014    8       19    10   5    4.05   532.8    4.6      51.313
2014    8       19    10  11    4.05   532.8    4.6      51.286
2014    8       19    10  17    4.05   532.9    4.6      51.259
2014    8       19    10  23    4.05   532.9    4.6      51.232
2014    8       19    10  29    4.04   532.9    4.6      51.204
2014    8       19    10  35    4.04   532.9    4.6      51.177
2014    8       19    10  41    4.04   532.9    4.6      51.149
2014    8       19    10  47    4.04   532.9    4.6      51.121
2014    8       19    10  53    4.03   532.9    4.6      51.094
2014    8       19    10  59    4.03   532.9    4.5      51.066
2014    8       19    11   5    4.03   532.9    4.5      51.038
2014    8       19    11  11    4.02   532.9    4.5      51.010
2014    8       19    11  16    4.02   532.9    4.5      50.982
2014    8       19    11  22    4.02   532.9    4.5      50.954
2014    8       19    11  28    4.02   532.9    4.5      50.926
2014    8       19    11  34    4.01   532.9    4.5      50.897
2014    8       19    11  40    4.01   532.9    4.5      50.869
2014    8       19    11  46    4.01   532.9    4.5      50.841
2014    8       19    11  52    4.00   532.9    4.5      50.812
2014    8       19    11  58    4.00   532.9    4.5      50.783
2014    8       19    12   4    4.00   532.9    4.5      50.754
2014    8       19    12  10    4.00   532.9    4.5      50.724
2014    8       19    12  16    3.99   532.9    4.5      50.694
2014    8       19    12  22    3.99   532.8    4.5      50.663
2014    8       19    12  28    3.99   532.8    4.5      50.632
2014    8       19    12  34    3.98   532.8    4.5      50.601
2014    8       19    12  40    3.98   532.8    4.5      50.569
2014    8       19    12  45    3.98   532.8    4.5      50.537
2014    8       19    12  51    3.97   532.8    4.5      50.504
2014    8       19    12  57    3.97   532.7    4.5      50.471
2014    8       19    13   3    3.97   532.7    4.5      50.438
2014    8       19    13   9    3.97   532.7    4.5      50.405
2014    8       19    13  15    3.96   532.6    4.5      50.371
2014    8       19    13  21    3.96   532.6    4.5      50.337
2014    8       19    13  27    3.96   532.6    4.5      50.303
2014    8       19    13  33    3.95   532.6    4.5      50.269
2014    8       19    13  39    3.95   532.5    4.4      50.235
2014    8       19    13  45    3.95   532.5    4.4      50.200
2014    8       19    13  51    3.94   532.5    4.4      50.166
2014    8       19    13  57    3.94   532.4    4.4      50.131
2014    8       19    14   3    3.94   532.4    4.4      50.096
2014    8       19    14   9    3.94   532.3    4.4      50.061
2014    8       19    14  14    3.93   532.3    4.4      50.025
2014    8       19    14  20    3.93   532.3    4.4      49.990
2014    8       19    14  26    3.93   532.2    4.4      49.955
2014    8       19    14  32    3.92   532.2    4.4      49.919
2014    8       19    14  38    3.92   532.1    4.4      49.883
2014    8       19    14  44    3.92   532.1    4.4      49.847
2014    8       19    14  50    3.91   532.0    4.4      49.811
2014    8       19    14  56    3.91   532.0    4.4      49.775
2014    8       19    15   2    3.91   531.9    4.4      49.739
2014    8       19    15   8    3.91   531.9    4.4      49.702
2014    8       19    15  14    3.90   531.9    4.4      49.665
2014    8       19    15  20    3.90   531.8    4.4      49.628
2014    8       19    15  26    3.90   531.7    4.4      49.590
2014    8       19    15  32    3.89   531.7    4.4      49.553
2014    8       19    15  38    3.89   531.6    4.4      49.514
2014    8       19    15  43    3.89   531.6    4.4      49.476
2014    8       19    15  49    3.89   531.5    4.4      49.437
2014    8       19    15  55    3.88   531.5    4.4      49.398
2014    8       19    16   1    3.88   531.4    4.4      49.359
2014    8       19    16   7    3.88   531.3    4.4      49.320
2014    8       19    16  13    3.87   531.3    4.4      49.280
2014    8       19    16  19    3.87   531.2    4.4      49.239
2014    8       19    16  25    3.87   531.1    4.4      49.199
2014    8       19    16  31    3.86   531.1    4.3      49.158
2014    8       19    16  37    3.86   531.0    4.3      49.117
2014    8       19    16  43    3.86   530.9    4.3      49.076
2014    8       19    16  49    3.86   530.9    4.3      49.034
2014    8       19    16  55    3.85   530.8    4.3      48.992
2014    8       19    17   1    3.85   530.7    4.3      48.950
2014    8       19    17   7    3.85   530.6    4.3      48.908
2014    8       19    17  12    3.84   530.6    4.3      48.865
2014    8       19    17  18    3.84   530.5    4.3      48.823
2014    8       19    17  24    3.84   530.4    4.3      48.780
2014    8       19    17  30    3.83   530.3    4.3      48.737
2014    8       19    17  36    3.83   530.3    4.3      48.694
2014    8       19    17  42    3.83   530.2    4.3      48.651
2014    8       19    17  48    3.83   530.1    4.3      48.608
2014    8       19    17  54    3.82   530.0    4.3      48.565
2014    8       19    18   0    3.82   529.9    4.3      48.522
2014    8       19    18   6    3.82   529.8    4.3      48.479
2014    8       19    18  12    3.81   529.8    4.3      48.435
2014    8       19    18  18    3.81   529.7    4.3      48.392
2014    8       19    18  24    3.81   529.6    4.3      48.349
2014    8       19    18  30    3.81   529.5    4.3      48.305
2014    8       19    18  36    3.80   529.4    4.3      48.261
2014    8       19    18  41    3.80   529.3    4.3      48.218
2014    8       19    18  47    3.80   529.2    4.3      48.173
2014    8       19    18  53    3.79   529.1    4.3      48.129
2014    8       19    18  59    3.79   529.0    4.3      48.085
2014    8       19    19   5    3.79   528.9    4.3      48.040
2014    8       19    19  11    3.78   528.8    4.3      47.995
2014    8       19    19  17    3.78   528.7    4.3      47.950
2014    8       19    19  23    3.78   528.6    4.3      47.904
2014    8       19    19  29    3.78   528.5    4.3      47.859
2014    8       19    19  35    3.77   528.4    4.3      47.813
2014    8       19    19  41    3.77   528.3    4.2      47.767
2014    8       19    19  47    3.77   528.2    4.2      47.721
2014    8       19    19  53    3.76   528.1    4.2      47.674
2014    8       19    19  59    3.76   528.0    4.2      47.628
2014    8       19    20   5    3.76   527.9    4.2      47.581
2014    8       19    20  10    3.76   527.8    4.2      47.534
2014    8       19    20  16    3.75   527.7    4.2      47.487
2014    8       19    20  22    3.75   527.6    4.2      47.440
2014    8       19    20  28    3.75   527.4    4.2      47.393
2014    8       19    20  34    3.74   527.3    4.2      47.346
2014    8       19    20  40    3.74   527.2    4.2      47.299
2014    8       19    20  46    3.74   527.1    4.2      47.252
2014    8       19    20  52    3.74   527.0    4.2      47.205
2014    8       19    20  58    3.73   526.8    4.2      47.158
2014    8       19    21   4    3.73   526.7    4.2      47.111
2014    8       19    21  10    3.73   526.6    4.2      47.064
2014    8       19    21  16    3.73   526.5    4.2      47.017
2014    8       19    21  22    3.72   526.3    4.2      46.970
2014    8       19    21  28    3.72   526.2    4.2      46.923
2014    8       19    21  34    3.72   526.1    4.2      46.877
2014    8       19    21  39    3.71   526.0    4.2      46.830
2014    8       19    21  45    3.71   525.8    4.2      46.783
2014    8       19    21  51    3.71   525.7    4.2      46.737
2014    8       19    21  57    3.71   525.6    4.2      46.690
2014    8       19    22   3    3.70   525.4    4.2      46.644
2014    8       19    22   9    3.70   525.3    4.2      46.598
2014    8       19    22  15    3.70   525.2    4.2      46.551
2014    8       19    22  21    3.70   525.0    4.2      46.505
2014    8       19    22  27    3.69   524.9    4.2      46.459
2014    8       19    22  33    3.69   524.8    4.2      46.413
2014    8       19    22  39    3.69   524.6    4.2      46.367
2014    8       19    22  45    3.69   524.5    4.2      46.322
2014    8       19    22  51    3.68   524.4    4.2      46.276
2014    8       19    22  57    3.68   524.2    4.2      46.230
2014    8       19    23   3    3.68   524.1    4.2      46.185
2014    8       19    23   9    3.68   524.0    4.2      46.139
2014    8       19    23  14    3.67   523.8    4.2      46.094
2014    8       19    23  20    3.67   523.7    4.2      46.049
2014    8       19    23  26    3.67   523.5    4.2      46.004
2014    8       19    23  32    3.67   523.4    4.2      45.959
2014    8       19    23  38    3.66   523.2    4.2      45.914
2014    8       19    23  44    3.66   523.1    4.2      45.869
2014    8       19    23  50    3.66   523.0    4.2      45.824
2014    8       19    23  56    3.66   522.8    4.2      45.779
2014    8       20     0   2    3.66   522.7    4.2      45.734
2014    8       20     0   8    3.65   522.5    4.2      45.690
2014    8       20     0  14    3.65   522.4    4.2      45.645
2014    8       20     0  20    3.65   522.2    4.2      45.600
2014    8       20     0  26    3.65   522.1    4.2      45.555
2014    8       20     0  32    3.64   521.9    4.2      45.511
2014    8       20     0  38    3.64   521.8    4.2      45.466
2014    8       20     0  43    3.64   521.6    4.2      45.421
2014    8       20     0  49    3.64   521.5    4.2      45.376
2014    8       20     0  55    3.63   521.3    4.2      45.331
2014    8       20     1   1    3.63   521.2    4.2      45.286
2014    8       20     1   7    3.63   521.0    4.1      45.241
2014    8       20     1  13    3.63   520.9    4.1      45.196
2014    8       20     1  19    3.62   520.7    4.1      45.151
2014    8       20     1  25    3.62   520.5    4.1      45.106
2014    8       20     1  31    3.62   520.4    4.1      45.060
2014    8       20     1  37    3.62   520.2    4.1      45.015
2014    8       20     1  43    3.61   520.1    4.1      44.970
2014    8       20     1  49    3.61   519.9    4.1      44.925
2014    8       20     1  55    3.61   519.7    4.1      44.879
2014    8       20     2   1    3.61   519.6    4.1      44.833
2014    8       20     2   6    3.60   519.4    4.1      44.788
2014    8       20     2  12    3.60   519.2    4.1      44.742
2014    8       20     2  18    3.60   519.1    4.1      44.695
2014    8       20     2  24    3.60   518.9    4.1      44.649
2014    8       20     2  30    3.60   518.8    4.1      44.603
2014    8       20     2  36    3.59   518.6    4.1      44.556
2014    8       20     2  42    3.59   518.4    4.1      44.510
2014    8       20     2  48    3.59   518.3    4.1      44.463
2014    8       20     2  54    3.59   518.1    4.1      44.416
2014    8       20     3   0    3.58   517.9    4.1      44.369
2014    8       20     3   6    3.58   517.8    4.1      44.322
2014    8       20     3  12    3.58   517.6    4.1      44.275
2014    8       20     3  18    3.58   517.4    4.1      44.228
2014    8       20     3  24    3.57   517.2    4.1      44.181
2014    8       20     3  30    3.57   517.1    4.1      44.133
2014    8       20     3  35    3.57   516.9    4.1      44.086
2014    8       20     3  41    3.57   516.7    4.1      44.039
2014    8       20     3  47    3.57   516.6    4.1      43.991
2014    8       20     3  53    3.56   516.4    4.1      43.943
2014    8       20     3  59    3.56   516.2    4.1      43.896
2014    8       20     4   5    3.56   516.0    4.1      43.848
2014    8       20     4  11    3.56   515.9    4.1      43.800
2014    8       20     4  17    3.56   515.7    4.1      43.752
2014    8       20     4  23    3.55   515.5    4.1      43.704
2014    8       20     4  29    3.55   515.3    4.1      43.656
2014    8       20     4  35    3.55   515.1    4.1      43.608
2014    8       20     4  41    3.55   515.0    4.1      43.560
2014    8       20     4  47    3.54   514.8    4.1      43.511
2014    8       20     4  53    3.54   514.6    4.1      43.463
2014    8       20     4  59    3.54   514.4    4.1      43.415
2014    8       20     5   4    3.54   514.3    4.1      43.367
2014    8       20     5  10    3.54   514.1    4.1      43.319
2014    8       20     5  16    3.53   513.9    4.1      43.271
2014    8       20     5  22    3.53   513.7    4.1      43.223
2014    8       20     5  28    3.53   513.5    4.1      43.175
2014    8       20     5  34    3.53   513.3    4.1      43.128
2014    8       20     5  40    3.53   513.2    4.1      43.080
2014    8       20     5  46    3.52   513.0    4.1      43.033
2014    8       20     5  52    3.52   512.8    4.1      42.985
2014    8       20     5  58    3.52   512.6    4.1      42.938
2014    8       20     6   4    3.52   512.4    4.1      42.891
2014    8       20     6  10    3.52   512.3    4.1      42.844
2014    8       20     6  16    3.52   512.1    4.1      42.798
2014    8       20     6  22    3.51   511.9    4.1      42.751
2014    8       20     6  28    3.51   511.7    4.1      42.705
2014    8       20     6  33    3.51   511.5    4.1      42.659
2014    8       20     6  39    3.51   511.3    4.1      42.613
2014    8       20     6  45    3.51   511.2    4.1      42.567
2014    8       20     6  51    3.50   511.0    4.1      42.522
2014    8       20     6  57    3.50   510.8    4.1      42.476
2014    8       20     7   3    3.50   510.6    4.1      42.431
2014    8       20     7   9    3.50   510.4    4.1      42.386
2014    8       20     7  15    3.50   510.2    4.1      42.341
2014    8       20     7  21    3.50   510.0    4.1      42.296
2014    8       20     7  27    3.49   509.9    4.1      42.251
2014    8       20     7  33    3.49   509.7    4.1      42.206
2014    8       20     7  39    3.49   509.5    4.1      42.161
2014    8       20     7  45    3.49   509.3    4.1      42.116
2014    8       20     7  51    3.49   509.1    4.1      42.071
2014    8       20     7  57    3.48   508.9    4.1      42.026
2014    8       20     8   3    3.48   508.7    4.1      41.982
2014    8       20     8   8    3.48   508.5    4.1      41.937
2014    8       20     8  14    3.48   508.3    4.1      41.892
2014    8       20     8  20    3.48   508.1    4.1      41.847
2014    8       20     8  26    3.48   508.0    4.1      41.802
2014    8       20     8  32    3.47   507.8    4.1      41.758
2014    8       20     8  38    3.47   507.6    4.1      41.713
2014    8       20     8  44    3.47   507.4    4.1      41.669
2014    8       20     8  50    3.47   507.2    4.1      41.624
2014    8       20     8  56    3.47   507.0    4.1      41.580
2014    8       20     9   2    3.46   506.8    4.1      41.536
2014    8       20     9   8    3.46   506.6    4.1      41.492
2014    8       20     9  14    3.46   506.4    4.1      41.448
2014    8       20     9  20    3.46   506.2    4.1      41.404
2014    8       20     9  26    3.46   506.0    4.1      41.361
2014    8       20     9  31    3.46   505.8    4.1      41.318
2014    8       20     9  37    3.45   505.6    4.1      41.274
2014    8       20     9  43    3.45   505.4    4.1      41.231
2014    8       20     9  49    3.45   505.2    4.1      41.188
2014    8       20     9  55    3.45   505.0    4.1      41.145
2014    8       20    10   1    3.45   504.7    4.1      41.102
2014    8       20    10   7    3.45   504.5    4.1      41.060
2014    8       20    10  13    3.44   504.3    4.1      41.017
2014    8       20    10  19    3.44   504.1    4.1      40.975
2014    8       20    10  25    3.44   503.9    4.1      40.932
2014    8       20    10  31    3.44   503.7    4.1      40.890
2014    8       20    10  37    3.44   503.5    4.1      40.847
2014    8       20    10  43    3.44   503.3    4.1      40.805
2014    8       20    10  49    3.44   503.1    4.1      40.762
2014    8       20    10  55    3.43   502.9    4.1      40.720
2014    8       20    11   0    3.43   502.7    4.1      40.677
2014    8       20    11   6    3.43   502.5    4.1      40.635
2014    8       20    11  12    3.43   502.3    4.1      40.592
2014    8       20    11  18    3.43   502.1    4.1      40.549
2014    8       20    11  24    3.43   501.9    4.1      40.506
2014    8       20    11  30    3.43   501.6    4.1      40.463
2014    8       20    11  36    3.42   501.4    4.1      40.419
2014    8       20    11  42    3.42   501.2    4.1      40.376
2014    8       20    11  48    3.42   501.0    4.1      40.333
2014    8       20    11  54    3.42   500.8    4.1      40.289
2014    8       20    12   0    3.42   500.6    4.1      40.245
2014    8       20    12   6    3.42   500.4    4.1      40.201
2014    8       20    12  12    3.42   500.1    4.1      40.157
2014    8       20    12  18    3.41   499.9    4.1      40.113
2014    8       20    12  24    3.41   499.7    4.1      40.069
2014    8       20    12  29    3.41   499.5    4.1      40.025
2014    8       20    12  35    3.41   499.3    4.1      39.981
2014    8       20    12  41    3.41   499.1    4.1      39.936
2014    8       20    12  47    3.41   498.8    4.1      39.892
2014    8       20    12  53    3.41   498.6    4.1      39.848
2014    8       20    12  59    3.41   498.4    4.1      39.803
2014    8       20    13   5    3.40   498.2    4.1      39.759
2014    8       20    13  11    3.40   498.0    4.1      39.714
2014    8       20    13  17    3.40   497.7    4.1      39.670
2014    8       20    13  23    3.40   497.5    4.1      39.625
2014    8       20    13  29    3.40   497.3    4.1      39.580
2014    8       20    13  35    3.40   497.1    4.1      39.536
2014    8       20    13  41    3.40   496.9    4.1      39.491
2014    8       20    13  47    3.39   496.6    4.1      39.447
2014    8       20    13  53    3.39   496.4    4.1      39.402
2014    8       20    13  59    3.39   496.2    4.1      39.357
2014    8       20    14   4    3.39   496.0    4.1      39.313
2014    8       20    14  10    3.39   495.8    4.1      39.268
2014    8       20    14  16    3.39   495.5    4.1      39.224
2014    8       20    14  22    3.39   495.3    4.1      39.179
2014    8       20    14  28    3.39   495.1    4.1      39.135
2014    8       20    14  34    3.38   494.9    4.1      39.090
2014    8       20    14  40    3.38   494.6    4.1      39.046
2014    8       20    14  46    3.38   494.4    4.1      39.001
2014    8       20    14  52    3.38   494.2    4.1      38.957
2014    8       20    14  58    3.38   494.0    4.1      38.913
2014    8       20    15   4    3.38   493.7    4.1      38.869
2014    8       20    15  10    3.38   493.5    4.1      38.825
2014    8       20    15  16    3.38   493.3    4.1      38.781
2014    8       20    15  22    3.38   493.0    4.1      38.737
2014    8       20    15  28    3.37   492.8    4.1      38.694
2014    8       20    15  33    3.37   492.6    4.1      38.651
2014    8       20    15  39    3.37   492.4    4.1      38.608
2014    8       20    15  45    3.37   492.1    4.1      38.565
2014    8       20    15  51    3.37   491.9    4.1      38.522
2014    8       20    15  57    3.37   491.7    4.1      38.480
2014    8       20    16   3    3.37   491.4    4.1      38.438
2014    8       20    16   9    3.37   491.2    4.1      38.396
2014    8       20    16  15    3.37   491.0    4.1      38.355
2014    8       20    16  21    3.36   490.7    4.1      38.313
2014    8       20    16  27    3.36   490.5    4.1      38.272
2014    8       20    16  33    3.36   490.3    4.1      38.232
2014    8       20    16  39    3.36   490.0    4.1      38.192
2014    8       20    16  45    3.36   489.8    4.1      38.152
2014    8       20    16  51    3.36   489.6    4.1      38.112
2014    8       20    16  57    3.36   489.3    4.1      38.073
2014    8       20    17   2    3.36   489.1    4.1      38.034
2014    8       20    17   8    3.36   488.8    4.1      37.995
2014    8       20    17  14    3.36   488.6    4.1      37.957
2014    8       20    17  20    3.36   488.4    4.1      37.919
2014    8       20    17  26    3.35   488.1    4.1      37.881
2014    8       20    17  32    3.35   487.9    4.1      37.844
2014    8       20    17  38    3.35   487.7    4.1      37.806
2014    8       20    17  44    3.35   487.4    4.1      37.770
2014    8       20    17  50    3.35   487.2    4.1      37.733
2014    8       20    17  56    3.35   487.0    4.1      37.696
2014    8       20    18   2    3.35   486.7    4.1      37.660
2014    8       20    18   8    3.35   486.5    4.1      37.624
2014    8       20    18  14    3.35   486.3    4.1      37.588
2014    8       20    18  20    3.35   486.0    4.1      37.552
2014    8       20    18  25    3.35   485.8    4.1      37.516
2014    8       20    18  31    3.35   485.5    4.1      37.481
2014    8       20    18  37    3.35   485.3    4.1      37.445
2014    8       20    18  43    3.35   485.1    4.1      37.410
2014    8       20    18  49    3.35   484.8    4.1      37.374
2014    8       20    18  55    3.34   484.6    4.2      37.339
2014    8       20    19   1    3.34   484.4    4.2      37.303
2014    8       20    19   7    3.34   484.1    4.2      37.267
2014    8       20    19  13    3.34   483.9    4.2      37.232
2014    8       20    19  19    3.34   483.6    4.2      37.196
2014    8       20    19  25    3.34   483.4    4.2      37.160
2014    8       20    19  31    3.34   483.2    4.2      37.124
2014    8       20    19  37    3.34   482.9    4.2      37.089
2014    8       20    19  43    3.34   482.7    4.2      37.053
2014    8       20    19  49    3.34   482.4    4.2      37.017
2014    8       20    19  54    3.34   482.2    4.2      36.981
2014    8       20    20   0    3.34   481.9    4.2      36.945
2014    8       20    20   6    3.34   481.7    4.2      36.909
2014    8       20    20  12    3.34   481.4    4.2      36.872
2014    8       20    20  18    3.34   481.2    4.2      36.836
2014    8       20    20  24    3.34   480.9    4.2      36.800
2014    8       20    20  30    3.34   480.7    4.2      36.764
2014    8       20    20  36    3.34   480.4    4.2      36.727
2014    8       20    20  42    3.33   480.2    4.2      36.691
2014    8       20    20  48    3.33   479.9    4.2      36.654
2014    8       20    20  54    3.33   479.7    4.2      36.617
2014    8       20    21   0    3.33   479.4    4.2      36.581
2014    8       20    21   6    3.33   479.2    4.2      36.544
2014    8       20    21  12    3.33   478.9    4.2      36.508
2014    8       20    21  18    3.33   478.7    4.2      36.471
2014    8       20    21  24    3.33   478.4    4.2      36.435
2014    8       20    21  29    3.33   478.1    4.2      36.398
2014    8       20    21  35    3.33   477.9    4.2      36.362
2014    8       20    21  41    3.33   477.6    4.2      36.326
2014    8       20    21  47    3.33   477.4    4.2      36.290
2014    8       20    21  53    3.33   477.1    4.2      36.254
2014    8       20    21  59    3.33   476.8    4.2      36.218
2014    8       20    22   5    3.33   476.6    4.2      36.183
2014    8       20    22  11    3.33   476.3    4.2      36.148
2014    8       20    22  17    3.33   476.0    4.2      36.113
2014    8       20    22  23    3.33   475.8    4.2      36.078
2014    8       20    22  29    3.33   475.5    4.2      36.044
2014    8       20    22  35    3.33   475.2    4.2      36.010
2014    8       20    22  41    3.33   475.0    4.2      35.977
2014    8       20    22  47    3.33   474.7    4.2      35.944
2014    8       20    22  53    3.33   474.4    4.2      35.911
2014    8       20    22  58    3.33   474.1    4.2      35.879
2014    8       20    23   4    3.33   473.9    4.2      35.848
2014    8       20    23  10    3.33   473.6    4.2      35.816
2014    8       20    23  16    3.33   473.3    4.3      35.786
2014    8       20    23  22    3.33   473.1    4.3      35.756
2014    8       20    23  28    3.33   472.8    4.3      35.726
2014    8       20    23  34    3.33   472.5    4.3      35.697
2014    8       20    23  40    3.33   472.3    4.3      35.668
2014    8       20    23  46    3.33   472.0    4.3      35.640
2014    8       20    23  52    3.33   471.7    4.3      35.613
2014    8       20    23  58    3.33   471.5    4.3      35.586
2014    8       21     0   4    3.33   471.2    4.3      35.559
2014    8       21     0  10    3.33   470.9    4.3      35.532
2014    8       21     0  16    3.33   470.7    4.3      35.507
2014    8       21     0  21    3.33   470.4    4.3      35.481
2014    8       21     0  27    3.34   470.1    4.3      35.456
2014    8       21     0  33    3.34   469.9    4.3      35.432
2014    8       21     0  39    3.34   469.6    4.3      35.407
2014    8       21     0  45    3.34   469.4    4.3      35.383
2014    8       21     0  51    3.34   469.1    4.3      35.360
2014    8       21     0  57    3.34   468.8    4.3      35.337
2014    8       21     1   3    3.34   468.6    4.3      35.314
2014    8       21     1   9    3.34   468.3    4.3      35.291
2014    8       21     1  15    3.34   468.1    4.3      35.268
2014    8       21     1  21    3.34   467.8    4.4      35.246
2014    8       21     1  27    3.34   467.5    4.4      35.224
2014    8       21     1  33    3.35   467.3    4.4      35.202
2014    8       21     1  39    3.35   467.0    4.4      35.180
2014    8       21     1  45    3.35   466.8    4.4      35.159
2014    8       21     1  50    3.35   466.5    4.4      35.137
2014    8       21     1  56    3.35   466.3    4.4      35.116
2014    8       21     2   2    3.35   466.0    4.4      35.095
2014    8       21     2   8    3.35   465.8    4.4      35.074
2014    8       21     2  14    3.35   465.5    4.4      35.053
2014    8       21     2  20    3.36   465.3    4.4      35.032
2014    8       21     2  26    3.36   465.0    4.4      35.011
2014    8       21     2  32    3.36   464.8    4.4      34.990
2014    8       21     2  38    3.36   464.5    4.4      34.970
2014    8       21     2  44    3.36   464.3    4.4      34.949
2014    8       21     2  50    3.36   464.0    4.4      34.929
2014    8       21     2  56    3.36   463.8    4.5      34.908
2014    8       21     3   2    3.36   463.5    4.5      34.888
2014    8       21     3   8    3.37   463.3    4.5      34.868
2014    8       21     3  14    3.37   463.0    4.5      34.848
2014    8       21     3  20    3.37   462.8    4.5      34.828
2014    8       21     3  25    3.37   462.5    4.5      34.808
2014    8       21     3  31    3.37   462.3    4.5      34.788
2014    8       21     3  37    3.37   462.0    4.5      34.768
2014    8       21     3  43    3.37   461.8    4.5      34.748
2014    8       21     3  49    3.38   461.5    4.5      34.729
2014    8       21     3  55    3.38   461.3    4.5      34.709
2014    8       21     4   1    3.38   461.1    4.5      34.690
2014    8       21     4   7    3.38   460.8    4.5      34.671
2014    8       21     4  13    3.38   460.6    4.5      34.652
2014    8       21     4  19    3.38   460.3    4.5      34.633
2014    8       21     4  25    3.39   460.1    4.5      34.614
2014    8       21     4  31    3.39   459.8    4.6      34.596
2014    8       21     4  37    3.39   459.6    4.6      34.578
2014    8       21     4  43    3.39   459.3    4.6      34.561
2014    8       21     4  49    3.39   459.1    4.6      34.543
2014    8       21     4  54    3.39   458.8    4.6      34.526
2014    8       21     5   0    3.40   458.6    4.6      34.510
2014    8       21     5   6    3.40   458.4    4.6      34.494
2014    8       21     5  12    3.40   458.1    4.6      34.479
2014    8       21     5  18    3.40   457.9    4.6      34.464
2014    8       21     5  24    3.40   457.6    4.6      34.450
2014    8       21     5  30    3.41   457.4    4.6      34.437
2014    8       21     5  36    3.41   457.1    4.6      34.424
2014    8       21     5  42    3.41   456.9    4.6      34.413
2014    8       21     5  48    3.41   456.7    4.7      34.402
2014    8       21     5  54    3.42   456.4    4.7      34.392
2014    8       21     6   0    3.42   456.2    4.7      34.383
2014    8       21     6   6    3.42   455.9    4.7      34.374
2014    8       21     6  12    3.42   455.7    4.7      34.367
2014    8       21     6  17    3.43   455.5    4.7      34.361
2014    8       21     6  23    3.43   455.3    4.7      34.356
2014    8       21     6  29    3.43   455.0    4.7      34.352
2014    8       21     6  35    3.43   454.8    4.7      34.348
2014    8       21     6  41    3.44   454.6    4.7      34.346
2014    8       21     6  47    3.44   454.3    4.7      34.345
2014    8       21     6  53    3.44   454.1    4.8      34.344
2014    8       21     6  59    3.45   453.9    4.8      34.345
2014    8       21     7   5    3.45   453.7    4.8      34.347
2014    8       21     7  11    3.45   453.5    4.8      34.349
2014    8       21     7  17    3.46   453.3    4.8      34.353
2014    8       21     7  23    3.46   453.0    4.8      34.357
2014    8       21     7  29    3.46   452.8    4.8      34.362
2014    8       21     7  35    3.47   452.6    4.8      34.368
2014    8       21     7  41    3.47   452.4    4.8      34.375
2014    8       21     7  46    3.48   452.2    4.9      34.383
2014    8       21     7  52    3.48   452.0    4.9      34.392
2014    8       21     7  58    3.48   451.9    4.9      34.402
2014    8       21     8   4    3.49   451.7    4.9      34.413
2014    8       21     8  10    3.49   451.5    4.9      34.426
2014    8       21     8  16    3.49   451.3    4.9      34.439
2014    8       21     8  22    3.50   451.1    4.9      34.452
2014    8       21     8  28    3.50   451.0    4.9      34.466
2014    8       21     8  34    3.50   450.8    4.9      34.480
2014    8       21     8  40    3.51   450.6    5.0      34.493
2014    8       21     8  46    3.51   450.5    5.0      34.507
2014    8       21     8  52    3.52   450.3    5.0      34.521
2014    8       21     8  58    3.52   450.1    5.0      34.534
2014    8       21     9   4    3.52   450.0    5.0      34.547
2014    8       21     9  10    3.53   449.8    5.0      34.560
2014    8       21     9  15    3.53   449.6    5.0      34.572
2014    8       21     9  21    3.54   449.5    5.0      34.584
2014    8       21     9  27    3.54   449.3    5.0      34.596
2014    8       21     9  33    3.54   449.1    5.0      34.608
2014    8       21     9  39    3.55   449.0    5.1      34.619
2014    8       21     9  45    3.55   448.8    5.1      34.630
2014    8       21     9  51    3.55   448.7    5.1      34.641
2014    8       21     9  57    3.56   448.5    5.1      34.652
2014    8       21    10   3    3.56   448.4    5.1      34.662
2014    8       21    10   9    3.57   448.2    5.1      34.672
2014    8       21    10  15    3.57   448.0    5.1      34.683
2014    8       21    10  21    3.57   447.9    5.1      34.693
2014    8       21    10  27    3.58   447.7    5.1      34.703
2014    8       21    10  33    3.58   447.6    5.2      34.712
2014    8       21    10  39    3.59   447.4    5.2      34.722
2014    8       21    10  45    3.59   447.3    5.2      34.732
2014    8       21    10  50    3.59   447.1    5.2      34.742
2014    8       21    10  56    3.60   447.0    5.2      34.752
2014    8       21    11   2    3.60   446.8    5.2      34.763
2014    8       21    11   8    3.61   446.7    5.2      34.773
2014    8       21    11  14    3.61   446.5    5.2      34.784
2014    8       21    11  20    3.61   446.4    5.2      34.796
2014    8       21    11  26    3.62   446.2    5.3      34.807
2014    8       21    11  32    3.62   446.1    5.3      34.820
2014    8       21    11  38    3.63   445.9    5.3      34.832
2014    8       21    11  44    3.63   445.8    5.3      34.846
2014    8       21    11  50    3.63   445.6    5.3      34.860
2014    8       21    11  56    3.64   445.5    5.3      34.875
2014    8       21    12   2    3.64   445.3    5.3      34.891
2014    8       21    12   8    3.65   445.2    5.3      34.908
2014    8       21    12  13    3.65   445.1    5.3      34.925
2014    8       21    12  19    3.66   444.9    5.4      34.944
2014    8       21    12  25    3.66   444.8    5.4      34.965
2014    8       21    12  31    3.67   444.6    5.4      34.987
2014    8       21    12  37    3.67   444.5    5.4      35.011
2014    8       21    12  43    3.68   444.4    5.4      35.037
2014    8       21    12  49    3.68   444.3    5.4      35.065
2014    8       21    12  55    3.69   444.2    5.4      35.094
2014    8       21    13   1    3.69   444.0    5.4      35.124
2014    8       21    13   7    3.69   443.9    5.5      35.156
2014    8       21    13  13    3.70   443.8    5.5      35.187
2014    8       21    13  19    3.70   443.7    5.5      35.218
2014    8       21    13  25    3.71   443.6    5.5      35.249
2014    8       21    13  31    3.72   443.5    5.5      35.281
2014    8       21    13  37    3.72   443.4    5.5      35.312
2014    8       21    13  43    3.73   443.3    5.5      35.344
2014    8       21    13  48    3.73   443.2    5.5      35.376
2014    8       21    13  54    3.74   443.1    5.6      35.408
2014    8       21    14   0    3.74   443.0    5.6      35.440
2014    8       21    14   6    3.75   442.9    5.6      35.472
2014    8       21    14  12    3.75   442.9    5.6      35.504
2014    8       21    14  18    3.76   442.8    5.6      35.536
2014    8       21    14  24    3.76   442.7    5.6      35.569
2014    8       21    14  30    3.77   442.6    5.6      35.601
2014    8       21    14  36    3.77   442.5    5.6      35.634
2014    8       21    14  42    3.78   442.4    5.7      35.666
2014    8       21    14  48    3.78   442.4    5.7      35.699
2014    8       21    14  54    3.79   442.3    5.7      35.732
2014    8       21    15   0    3.79   442.2    5.7      35.765
2014    8       21    15   6    3.80   442.2    5.7      35.799
2014    8       21    15  11    3.80   442.1    5.7      35.833
2014    8       21    15  17    3.81   442.1    5.7      35.868
2014    8       21    15  23    3.81   442.0    5.7      35.903
2014    8       21    15  29    3.82   442.0    5.7      35.939
2014    8       21    15  35    3.82   441.9    5.8      35.975
2014    8       21    15  41    3.83   441.9    5.8      36.011
2014    8       21    15  47    3.83   441.8    5.8      36.047
2014    8       21    15  53    3.84   441.8    5.8      36.082
2014    8       21    15  59    3.84   441.7    5.8      36.117
2014    8       21    16   5    3.85   441.7    5.8      36.152
2014    8       21    16  11    3.85   441.6    5.8      36.187
2014    8       21    16  17    3.86   441.6    5.8      36.221
2014    8       21    16  23    3.86   441.6    5.8      36.255
2014    8       21    16  29    3.87   441.5    5.9      36.288
2014    8       21    16  35    3.87   441.5    5.9      36.322
2014    8       21    16  40    3.88   441.4    5.9      36.355
2014    8       21    16  46    3.88   441.4    5.9      36.387
2014    8       21    16  52    3.89   441.3    5.9      36.420
2014    8       21    16  58    3.89   441.3    5.9      36.452
2014    8       21    17   4    3.90   441.3    5.9      36.485
2014    8       21    17  10    3.90   441.2    5.9      36.518
2014    8       21    17  16    3.91   441.2    5.9      36.551
2014    8       21    17  22    3.91   441.1    6.0      36.585
2014    8       21    17  28    3.92   441.1    6.0      36.619
2014    8       21    17  34    3.92   441.1    6.0      36.654
2014    8       21    17  40    3.93   441.0    6.0      36.690
2014    8       21    17  46    3.93   441.0    6.0      36.725
2014    8       21    17  52    3.94   441.0    6.0      36.761
2014    8       21    17  58    3.94   440.9    6.0      36.797
2014    8       21    18   4    3.95   440.9    6.0      36.834
2014    8       21    18   9    3.95   440.9    6.0      36.871
2014    8       21    18  15    3.96   440.9    6.1      36.909
2014    8       21    18  21    3.96   440.8    6.1      36.947
2014    8       21    18  27    3.97   440.8    6.1      36.986
2014    8       21    18  33    3.97   440.8    6.1      37.025
2014    8       21    18  39    3.98   440.7    6.1      37.065
2014    8       21    18  45    3.98   440.7    6.1      37.106
2014    8       21    18  51    3.98   440.7    6.1      37.148
2014    8       21    18  57    3.99   440.7    6.1      37.191
2014    8       21    19   3    3.99   440.7    6.1      37.234
2014    8       21    19   9    4.00   440.6    6.1      37.278
2014    8       21    19  15    4.00   440.6    6.2      37.322
2014    8       21    19  21    4.01   440.6    6.2      37.367
2014    8       21    19  27    4.01   440.6    6.2      37.411
2014    8       21    19  33    4.02   440.6    6.2      37.455
2014    8       21    19  38    4.02   440.6    6.2      37.499
2014    8       21    19  44    4.03   440.6    6.2      37.545
2014    8       21    19  50    4.03   440.6    6.2      37.591
2014    8       21    19  56    4.04   440.5    6.2      37.638
2014    8       21    20   2    4.04   440.5    6.2      37.686
2014    8       21    20   8    4.05   440.5    6.3      37.735
2014    8       21    20  14    4.05   440.6    6.3      37.784
2014    8       21    20  20    4.06   440.6    6.3      37.833
2014    8       21    20  26    4.06   440.6    6.3      37.883
2014    8       21    20  32    4.07   440.6    6.3      37.931
2014    8       21    20  38    4.07   440.6    6.3      37.978
2014    8       21    20  44    4.08   440.6    6.3      38.025
2014    8       21    20  50    4.08   440.6    6.3      38.072
2014    8       21    20  56    4.09   440.6    6.3      38.120
2014    8       21    21   2    4.09   440.6    6.3      38.168
2014    8       21    21   7    4.10   440.6    6.4      38.217
2014    8       21    21  13    4.10   440.7    6.4      38.267
2014    8       21    21  19    4.11   440.7    6.4      38.317
2014    8       21    21  25    4.11   440.7    6.4      38.367
2014    8       21    21  31    4.12   440.8    6.4      38.417
2014    8       21    21  37    4.12   440.8    6.4      38.465
2014    8       21    21  43    4.13   440.9    6.4      38.514
2014    8       21    21  49    4.13   440.9    6.4      38.561
2014    8       21    21  55    4.14   440.9    6.4      38.608
2014    8       21    22   1    4.14   441.0    6.4      38.654
2014    8       21    22   7    4.15   441.0    6.4      38.700
2014    8       21    22  13    4.15   441.1    6.4      38.745
2014    8       21    22  19    4.16   441.1    6.5      38.789
2014    8       21    22  25    4.16   441.1    6.5      38.832
2014    8       21    22  31    4.16   441.2    6.5      38.875
2014    8       21    22  36    4.17   441.2    6.5      38.918
2014    8       21    22  42    4.17   441.3    6.5      38.960
2014    8       21    22  48    4.18   441.3    6.5      39.001
2014    8       21    22  54    4.18   441.3    6.5      39.042
2014    8       21    23   0    4.18   441.4    6.5      39.083
2014    8       21    23   6    4.19   441.4    6.5      39.123
2014    8       21    23  12    4.19   441.5    6.5      39.163
2014    8       21    23  18    4.20   441.5    6.5      39.203
2014    8       21    23  24    4.20   441.5    6.5      39.242
2014    8       21    23  30    4.20   441.6    6.5      39.281
2014    8       21    23  36    4.21   441.6    6.5      39.320
2014    8       21    23  42    4.21   441.6    6.5      39.359
2014    8       21    23  48    4.22   441.7    6.5      39.397
2014    8       21    23  54    4.22   441.7    6.6      39.436
2014    8       22    24   0    4.22   441.8    6.6      39.474
