year    month   day   hour  minute  B_enl V_enl   n_enl       T_enl
[year] [month] [day] [hour][minute] [nT]  [km/s]  [cm-3]      [kK]
2014    8       24     0   3    5.13   377.3    9.8      36.239
2014    8       24     0   9    5.13   377.4    9.8      36.239
2014    8       24     0  15    5.13   377.5    9.8      36.239
2014    8       24     0  21    5.12   377.6    9.8      36.238
2014    8       24     0  27    5.12   377.7    9.8      36.237
2014    8       24     0  33    5.12   377.8    9.8      36.235
2014    8       24     0  39    5.12   377.9    9.7      36.233
2014    8       24     0  44    5.12   378.0    9.7      36.230
2014    8       24     0  50    5.12   378.1    9.7      36.227
2014    8       24     0  56    5.11   378.2    9.7      36.223
2014    8       24     1   2    5.11   378.3    9.7      36.218
2014    8       24     1   8    5.11   378.4    9.7      36.213
2014    8       24     1  14    5.11   378.5    9.7      36.207
2014    8       24     1  20    5.11   378.6    9.7      36.201
2014    8       24     1  26    5.11   378.7    9.7      36.194
2014    8       24     1  32    5.10   378.8    9.6      36.187
2014    8       24     1  38    5.10   378.9    9.6      36.179
2014    8       24     1  43    5.10   379.0    9.6      36.171
2014    8       24     1  49    5.10   379.1    9.6      36.163
2014    8       24     1  55    5.10   379.2    9.6      36.153
2014    8       24     2   1    5.09   379.2    9.6      36.144
2014    8       24     2   7    5.09   379.3    9.6      36.133
2014    8       24     2  13    5.09   379.4    9.6      36.123
2014    8       24     2  19    5.09   379.5    9.5      36.112
2014    8       24     2  25    5.08   379.6    9.5      36.100
2014    8       24     2  31    5.08   379.7    9.5      36.088
2014    8       24     2  37    5.08   379.8    9.5      36.075
2014    8       24     2  42    5.08   379.9    9.5      36.062
2014    8       24     2  48    5.08   380.0    9.5      36.048
2014    8       24     2  54    5.07   380.1    9.5      36.033
2014    8       24     3   0    5.07   380.1    9.5      36.018
2014    8       24     3   6    5.07   380.2    9.4      36.002
2014    8       24     3  12    5.07   380.3    9.4      35.986
2014    8       24     3  18    5.06   380.4    9.4      35.969
2014    8       24     3  24    5.06   380.5    9.4      35.952
2014    8       24     3  30    5.06   380.6    9.4      35.935
2014    8       24     3  36    5.06   380.6    9.4      35.917
2014    8       24     3  41    5.05   380.7    9.4      35.899
2014    8       24     3  47    5.05   380.8    9.4      35.880
2014    8       24     3  53    5.05   380.9    9.3      35.862
2014    8       24     3  59    5.05   380.9    9.3      35.843
2014    8       24     4   5    5.05   381.0    9.3      35.824
2014    8       24     4  11    5.04   381.1    9.3      35.804
2014    8       24     4  17    5.04   381.2    9.3      35.785
2014    8       24     4  23    5.04   381.2    9.3      35.765
2014    8       24     4  29    5.04   381.3    9.3      35.745
2014    8       24     4  35    5.03   381.4    9.3      35.725
2014    8       24     4  41    5.03   381.4    9.2      35.705
2014    8       24     4  46    5.03   381.5    9.2      35.684
2014    8       24     4  52    5.03   381.6    9.2      35.663
2014    8       24     4  58    5.02   381.7    9.2      35.642
2014    8       24     5   4    5.02   381.7    9.2      35.621
2014    8       24     5  10    5.02   381.8    9.2      35.599
2014    8       24     5  16    5.02   381.9    9.2      35.578
2014    8       24     5  22    5.01   381.9    9.1      35.556
2014    8       24     5  28    5.01   382.0    9.1      35.534
2014    8       24     5  34    5.01   382.1    9.1      35.511
2014    8       24     5  40    5.01   382.2    9.1      35.489
2014    8       24     5  46    5.00   382.2    9.1      35.465
2014    8       24     5  52    5.00   382.3    9.1      35.441
2014    8       24     5  57    5.00   382.3    9.1      35.417
2014    8       24     6   3    5.00   382.4    9.1      35.393
2014    8       24     6   9    4.99   382.5    9.0      35.368
2014    8       24     6  15    4.99   382.5    9.0      35.343
2014    8       24     6  21    4.99   382.6    9.0      35.318
2014    8       24     6  27    4.99   382.7    9.0      35.292
2014    8       24     6  33    4.99   382.7    9.0      35.267
2014    8       24     6  39    4.98   382.8    9.0      35.241
2014    8       24     6  45    4.98   382.8    9.0      35.215
2014    8       24     6  51    4.98   382.9    9.0      35.188
2014    8       24     6  57    4.98   382.9    8.9      35.162
2014    8       24     7   3    4.97   383.0    8.9      35.136
2014    8       24     7   8    4.97   383.1    8.9      35.109
2014    8       24     7  14    4.97   383.1    8.9      35.083
2014    8       24     7  20    4.97   383.2    8.9      35.056
2014    8       24     7  26    4.96   383.2    8.9      35.029
2014    8       24     7  32    4.96   383.3    8.9      35.002
2014    8       24     7  38    4.96   383.3    8.9      34.975
2014    8       24     7  44    4.96   383.4    8.8      34.948
2014    8       24     7  50    4.96   383.4    8.8      34.921
2014    8       24     7  56    4.95   383.5    8.8      34.894
2014    8       24     8   2    4.95   383.5    8.8      34.866
2014    8       24     8   8    4.95   383.6    8.8      34.839
2014    8       24     8  13    4.95   383.6    8.8      34.811
2014    8       24     8  19    4.94   383.6    8.8      34.783
2014    8       24     8  25    4.94   383.7    8.8      34.755
2014    8       24     8  31    4.94   383.7    8.7      34.727
2014    8       24     8  37    4.94   383.8    8.7      34.699
2014    8       24     8  43    4.93   383.8    8.7      34.671
2014    8       24     8  49    4.93   383.9    8.7      34.643
2014    8       24     8  55    4.93   383.9    8.7      34.615
2014    8       24     9   1    4.93   383.9    8.7      34.587
2014    8       24     9   7    4.93   384.0    8.7      34.559
2014    8       24     9  13    4.92   384.0    8.7      34.531
2014    8       24     9  18    4.92   384.1    8.7      34.504
2014    8       24     9  24    4.92   384.1    8.7      34.476
2014    8       24     9  30    4.92   384.1    8.6      34.449
2014    8       24     9  36    4.92   384.2    8.6      34.422
2014    8       24     9  42    4.91   384.2    8.6      34.395
2014    8       24     9  48    4.91   384.2    8.6      34.368
2014    8       24     9  54    4.91   384.3    8.6      34.341
2014    8       24    10   0    4.91   384.3    8.6      34.315
2014    8       24    10   6    4.90   384.3    8.6      34.288
2014    8       24    10  12    4.90   384.4    8.6      34.261
2014    8       24    10  17    4.90   384.4    8.6      34.234
2014    8       24    10  23    4.90   384.4    8.6      34.208
2014    8       24    10  29    4.90   384.5    8.6      34.182
2014    8       24    10  35    4.89   384.5    8.5      34.156
2014    8       24    10  41    4.89   384.5    8.5      34.131
2014    8       24    10  47    4.89   384.5    8.5      34.107
2014    8       24    10  53    4.89   384.6    8.5      34.082
2014    8       24    10  59    4.89   384.6    8.5      34.059
2014    8       24    11   5    4.88   384.6    8.5      34.035
2014    8       24    11  11    4.88   384.6    8.5      34.012
2014    8       24    11  16    4.88   384.7    8.5      33.989
2014    8       24    11  22    4.88   384.7    8.5      33.966
2014    8       24    11  28    4.88   384.7    8.5      33.943
2014    8       24    11  34    4.88   384.7    8.5      33.920
2014    8       24    11  40    4.87   384.7    8.5      33.898
2014    8       24    11  46    4.87   384.8    8.5      33.875
2014    8       24    11  52    4.87   384.8    8.5      33.853
2014    8       24    11  58    4.87   384.8    8.5      33.831
2014    8       24    12   4    4.87   384.8    8.4      33.809
2014    8       24    12  10    4.87   384.9    8.4      33.786
2014    8       24    12  16    4.86   384.9    8.4      33.764
2014    8       24    12  21    4.86   384.9    8.4      33.742
2014    8       24    12  27    4.86   384.9    8.4      33.721
2014    8       24    12  33    4.86   385.0    8.4      33.699
2014    8       24    12  39    4.86   385.0    8.4      33.677
2014    8       24    12  45    4.86   385.0    8.4      33.655
2014    8       24    12  51    4.86   385.0    8.4      33.633
2014    8       24    12  57    4.85   385.0    8.4      33.611
2014    8       24    13   3    4.85   385.1    8.4      33.588
2014    8       24    13   9    4.85   385.1    8.4      33.566
2014    8       24    13  15    4.85   385.1    8.4      33.544
2014    8       24    13  21    4.85   385.1    8.4      33.521
2014    8       24    13  27    4.85   385.1    8.4      33.498
2014    8       24    13  32    4.85   385.1    8.4      33.476
2014    8       24    13  38    4.85   385.1    8.3      33.453
2014    8       24    13  44    4.84   385.1    8.3      33.431
2014    8       24    13  50    4.84   385.2    8.3      33.409
2014    8       24    13  56    4.84   385.2    8.3      33.387
2014    8       24    14   2    4.84   385.2    8.3      33.365
2014    8       24    14   8    4.84   385.2    8.3      33.343
2014    8       24    14  14    4.84   385.2    8.3      33.321
2014    8       24    14  20    4.84   385.2    8.3      33.299
2014    8       24    14  26    4.84   385.2    8.3      33.278
2014    8       24    14  32    4.84   385.2    8.3      33.256
2014    8       24    14  38    4.83   385.2    8.3      33.235
2014    8       24    14  43    4.83   385.2    8.3      33.214
2014    8       24    14  49    4.83   385.2    8.3      33.193
2014    8       24    14  55    4.83   385.2    8.3      33.173
2014    8       24    15   1    4.83   385.2    8.3      33.152
2014    8       24    15   7    4.83   385.2    8.3      33.132
2014    8       24    15  13    4.83   385.2    8.3      33.111
2014    8       24    15  19    4.83   385.2    8.2      33.092
2014    8       24    15  25    4.83   385.2    8.2      33.072
2014    8       24    15  31    4.83   385.2    8.2      33.052
2014    8       24    15  37    4.83   385.2    8.2      33.032
2014    8       24    15  43    4.82   385.2    8.2      33.013
2014    8       24    15  48    4.82   385.2    8.2      32.994
2014    8       24    15  54    4.82   385.2    8.2      32.975
2014    8       24    16   0    4.82   385.2    8.2      32.957
2014    8       24    16   6    4.82   385.2    8.2      32.939
2014    8       24    16  12    4.82   385.2    8.2      32.921
2014    8       24    16  18    4.82   385.2    8.2      32.904
2014    8       24    16  24    4.82   385.2    8.2      32.887
2014    8       24    16  30    4.82   385.2    8.2      32.871
2014    8       24    16  36    4.82   385.2    8.2      32.855
2014    8       24    16  42    4.82   385.2    8.2      32.840
2014    8       24    16  47    4.82   385.2    8.2      32.825
2014    8       24    16  53    4.82   385.2    8.2      32.811
2014    8       24    16  59    4.82   385.2    8.2      32.797
2014    8       24    17   5    4.82   385.2    8.2      32.784
2014    8       24    17  11    4.82   385.1    8.2      32.771
2014    8       24    17  17    4.82   385.1    8.2      32.759
2014    8       24    17  23    4.82   385.1    8.2      32.748
2014    8       24    17  29    4.82   385.1    8.2      32.737
2014    8       24    17  35    4.82   385.1    8.2      32.727
2014    8       24    17  41    4.82   385.1    8.2      32.717
2014    8       24    17  46    4.82   385.1    8.2      32.709
2014    8       24    17  52    4.82   385.1    8.2      32.700
2014    8       24    17  58    4.82   385.1    8.2      32.693
2014    8       24    18   4    4.82   385.1    8.2      32.686
2014    8       24    18  10    4.82   385.1    8.2      32.679
2014    8       24    18  16    4.82   385.1    8.2      32.673
2014    8       24    18  22    4.82   385.1    8.2      32.667
2014    8       24    18  28    4.82   385.1    8.2      32.662
2014    8       24    18  34    4.82   385.1    8.2      32.656
2014    8       24    18  40    4.82   385.1    8.2      32.651
2014    8       24    18  46    4.82   385.1    8.2      32.645
2014    8       24    18  51    4.82   385.1    8.2      32.640
2014    8       24    18  57    4.82   385.1    8.2      32.635
2014    8       24    19   3    4.82   385.1    8.2      32.630
2014    8       24    19   9    4.82   385.0    8.2      32.626
2014    8       24    19  15    4.82   385.0    8.2      32.621
2014    8       24    19  21    4.82   385.0    8.2      32.616
2014    8       24    19  27    4.82   385.0    8.2      32.611
2014    8       24    19  33    4.82   385.0    8.2      32.607
2014    8       24    19  39    4.82   385.0    8.2      32.602
2014    8       24    19  45    4.82   385.0    8.2      32.597
2014    8       24    19  51    4.82   385.0    8.2      32.592
2014    8       24    19  56    4.82   385.0    8.2      32.587
2014    8       24    20   2    4.82   385.0    8.2      32.583
2014    8       24    20   8    4.82   385.0    8.2      32.578
2014    8       24    20  14    4.83   385.0    8.2      32.573
2014    8       24    20  20    4.83   385.0    8.2      32.568
2014    8       24    20  26    4.83   385.0    8.2      32.563
2014    8       24    20  32    4.83   385.0    8.2      32.558
2014    8       24    20  38    4.83   385.0    8.2      32.553
2014    8       24    20  44    4.83   384.9    8.2      32.548
2014    8       24    20  50    4.83   384.9    8.2      32.543
2014    8       24    20  56    4.83   384.9    8.2      32.538
2014    8       24    21   2    4.83   384.9    8.2      32.533
2014    8       24    21   7    4.83   384.9    8.2      32.528
2014    8       24    21  13    4.83   384.9    8.2      32.523
2014    8       24    21  19    4.83   384.9    8.2      32.519
2014    8       24    21  25    4.83   384.9    8.2      32.514
2014    8       24    21  31    4.84   384.9    8.2      32.509
2014    8       24    21  37    4.84   384.9    8.2      32.504
2014    8       24    21  43    4.84   384.9    8.2      32.500
2014    8       24    21  49    4.84   384.8    8.2      32.495
2014    8       24    21  55    4.84   384.8    8.2      32.491
2014    8       24    22   1    4.84   384.8    8.2      32.487
2014    8       24    22   7    4.84   384.8    8.2      32.483
2014    8       24    22  13    4.84   384.8    8.2      32.480
2014    8       24    22  18    4.85   384.8    8.2      32.476
2014    8       24    22  24    4.85   384.8    8.2      32.473
2014    8       24    22  30    4.85   384.8    8.2      32.470
2014    8       24    22  36    4.85   384.8    8.3      32.468
2014    8       24    22  42    4.85   384.8    8.3      32.465
2014    8       24    22  48    4.85   384.8    8.3      32.463
2014    8       24    22  54    4.85   384.7    8.3      32.462
2014    8       24    23   0    4.86   384.7    8.3      32.461
2014    8       24    23   6    4.86   384.7    8.3      32.460
2014    8       24    23  12    4.86   384.7    8.3      32.460
2014    8       24    23  18    4.86   384.7    8.3      32.460
2014    8       24    23  23    4.86   384.7    8.3      32.461
2014    8       24    23  29    4.87   384.7    8.3      32.463
2014    8       24    23  35    4.87   384.7    8.3      32.465
2014    8       24    23  41    4.87   384.7    8.3      32.468
2014    8       24    23  47    4.87   384.7    8.3      32.472
2014    8       24    23  53    4.87   384.6    8.3      32.477
2014    8       24    23  59    4.88   384.6    8.3      32.483
2014    8       25     0   5    4.88   384.6    8.3      32.489
2014    8       25     0  11    4.88   384.6    8.3      32.495
2014    8       25     0  17    4.89   384.6    8.3      32.504
2014    8       25     0  22    4.89   384.6    8.3      32.514
2014    8       25     0  28    4.89   384.6    8.3      32.527
2014    8       25     0  34    4.89   384.6    8.4      32.541
2014    8       25     0  40    4.90   384.6    8.4      32.557
2014    8       25     0  46    4.90   384.7    8.4      32.574
2014    8       25     0  52    4.90   384.7    8.4      32.594
2014    8       25     0  58    4.91   384.7    8.4      32.615
2014    8       25     1   4    4.91   384.7    8.4      32.636
2014    8       25     1  10    4.91   384.7    8.4      32.657
2014    8       25     1  16    4.92   384.8    8.4      32.678
2014    8       25     1  21    4.92   384.8    8.4      32.699
2014    8       25     1  27    4.92   384.8    8.4      32.718
2014    8       25     1  33    4.92   384.9    8.4      32.738
2014    8       25     1  39    4.93   384.9    8.4      32.757
2014    8       25     1  45    4.93   384.9    8.4      32.776
2014    8       25     1  51    4.93   384.9    8.4      32.794
2014    8       25     1  57    4.94   385.0    8.5      32.811
2014    8       25     2   3    4.94   385.0    8.5      32.828
2014    8       25     2   9    4.94   385.0    8.5      32.843
2014    8       25     2  15    4.95   385.1    8.5      32.859
2014    8       25     2  20    4.95   385.1    8.5      32.873
2014    8       25     2  26    4.95   385.1    8.5      32.888
2014    8       25     2  32    4.95   385.2    8.5      32.901
2014    8       25     2  38    4.96   385.2    8.5      32.915
2014    8       25     2  44    4.96   385.2    8.5      32.927
2014    8       25     2  50    4.96   385.2    8.5      32.940
2014    8       25     2  56    4.96   385.3    8.5      32.952
2014    8       25     3   2    4.97   385.3    8.5      32.963
2014    8       25     3   8    4.97   385.3    8.5      32.974
2014    8       25     3  14    4.97   385.4    8.5      32.985
2014    8       25     3  20    4.98   385.4    8.5      32.996
2014    8       25     3  26    4.98   385.4    8.5      33.006
2014    8       25     3  31    4.98   385.5    8.5      33.016
2014    8       25     3  37    4.98   385.5    8.5      33.026
2014    8       25     3  43    4.99   385.5    8.5      33.035
2014    8       25     3  49    4.99   385.5    8.5      33.045
2014    8       25     3  55    4.99   385.6    8.5      33.054
2014    8       25     4   1    5.00   385.6    8.5      33.063
2014    8       25     4   7    5.00   385.6    8.5      33.072
2014    8       25     4  13    5.00   385.7    8.5      33.081
2014    8       25     4  19    5.01   385.7    8.5      33.089
2014    8       25     4  25    5.01   385.7    8.5      33.098
2014    8       25     4  31    5.01   385.7    8.5      33.107
2014    8       25     4  37    5.01   385.8    8.5      33.115
2014    8       25     4  42    5.02   385.8    8.5      33.124
2014    8       25     4  48    5.02   385.8    8.6      33.133
2014    8       25     4  54    5.02   385.9    8.6      33.142
2014    8       25     5   0    5.03   385.9    8.6      33.150
2014    8       25     5   6    5.03   385.9    8.6      33.160
2014    8       25     5  12    5.03   385.9    8.6      33.169
2014    8       25     5  18    5.04   386.0    8.6      33.178
2014    8       25     5  24    5.04   386.0    8.6      33.188
2014    8       25     5  30    5.04   386.0    8.6      33.199
2014    8       25     5  36    5.05   386.1    8.6      33.209
2014    8       25     5  42    5.05   386.1    8.6      33.220
2014    8       25     5  48    5.05   386.1    8.6      33.232
2014    8       25     5  53    5.06   386.2    8.6      33.244
2014    8       25     5  59    5.06   386.2    8.6      33.257
2014    8       25     6   5    5.06   386.2    8.6      33.270
2014    8       25     6  11    5.07   386.3    8.6      33.284
2014    8       25     6  17    5.07   386.3    8.6      33.299
2014    8       25     6  23    5.08   386.3    8.6      33.315
2014    8       25     6  29    5.08   386.4    8.6      33.331
2014    8       25     6  35    5.08   386.4    8.6      33.348
2014    8       25     6  41    5.09   386.4    8.7      33.367
2014    8       25     6  47    5.09   386.5    8.7      33.386
2014    8       25     6  52    5.10   386.5    8.7      33.407
2014    8       25     6  58    5.10   386.5    8.7      33.429
2014    8       25     7   4    5.10   386.6    8.7      33.453
2014    8       25     7  10    5.11   386.6    8.7      33.477
2014    8       25     7  16    5.11   386.6    8.7      33.503
2014    8       25     7  22    5.12   386.7    8.7      33.530
2014    8       25     7  28    5.12   386.7    8.7      33.559
2014    8       25     7  34    5.13   386.8    8.8      33.591
2014    8       25     7  40    5.13   386.8    8.8      33.625
2014    8       25     7  46    5.14   386.9    8.8      33.661
2014    8       25     7  51    5.14   387.0    8.8      33.699
2014    8       25     7  57    5.15   387.0    8.8      33.738
2014    8       25     8   3    5.15   387.1    8.8      33.781
2014    8       25     8   9    5.16   387.2    8.8      33.825
2014    8       25     8  15    5.16   387.3    8.8      33.872
2014    8       25     8  21    5.17   387.4    8.9      33.919
2014    8       25     8  27    5.17   387.4    8.9      33.968
2014    8       25     8  33    5.18   387.5    8.9      34.017
2014    8       25     8  39    5.18   387.6    8.9      34.066
2014    8       25     8  45    5.19   387.7    8.9      34.115
2014    8       25     8  50    5.19   387.8    8.9      34.165
2014    8       25     8  56    5.20   387.9    8.9      34.214
2014    8       25     9   2    5.20   388.0    8.9      34.263
2014    8       25     9   8    5.21   388.1    9.0      34.310
2014    8       25     9  14    5.21   388.2    9.0      34.356
2014    8       25     9  20    5.22   388.3    9.0      34.402
2014    8       25     9  26    5.22   388.4    9.0      34.447
2014    8       25     9  32    5.22   388.5    9.0      34.491
2014    8       25     9  38    5.23   388.6    9.0      34.535
2014    8       25     9  44    5.23   388.7    9.0      34.578
2014    8       25     9  50    5.24   388.8    9.0      34.620
2014    8       25     9  55    5.24   388.9    9.0      34.661
2014    8       25    10   1    5.25   389.0    9.0      34.702
2014    8       25    10   7    5.25   389.1    9.0      34.742
2014    8       25    10  13    5.25   389.2    9.0      34.781
2014    8       25    10  19    5.26   389.3    9.1      34.820
2014    8       25    10  25    5.26   389.4    9.1      34.858
2014    8       25    10  31    5.27   389.5    9.1      34.896
2014    8       25    10  37    5.27   389.6    9.1      34.933
2014    8       25    10  43    5.28   389.7    9.1      34.970
2014    8       25    10  49    5.28   389.8    9.1      35.006
2014    8       25    10  55    5.28   389.9    9.1      35.041
2014    8       25    11   1    5.29   390.0    9.1      35.076
2014    8       25    11   6    5.29   390.2    9.1      35.111
2014    8       25    11  12    5.30   390.3    9.1      35.145
2014    8       25    11  18    5.30   390.4    9.1      35.179
2014    8       25    11  24    5.31   390.5    9.1      35.212
2014    8       25    11  30    5.31   390.6    9.1      35.244
2014    8       25    11  36    5.31   390.7    9.1      35.276
2014    8       25    11  42    5.32   390.8    9.1      35.308
2014    8       25    11  48    5.32   390.9    9.1      35.339
2014    8       25    11  54    5.33   391.0    9.1      35.369
2014    8       25    12   0    5.33   391.1    9.1      35.399
2014    8       25    12   6    5.33   391.3    9.1      35.428
2014    8       25    12  12    5.34   391.4    9.1      35.457
2014    8       25    12  17    5.34   391.5    9.1      35.485
2014    8       25    12  23    5.35   391.6    9.1      35.513
2014    8       25    12  29    5.35   391.7    9.1      35.541
2014    8       25    12  35    5.35   391.8    9.1      35.568
2014    8       25    12  41    5.36   391.9    9.1      35.594
2014    8       25    12  47    5.36   392.1    9.1      35.620
2014    8       25    12  53    5.36   392.2    9.1      35.647
2014    8       25    12  59    5.37   392.3    9.1      35.672
2014    8       25    13   5    5.37   392.4    9.1      35.698
2014    8       25    13  11    5.37   392.5    9.1      35.723
2014    8       25    13  17    5.38   392.6    9.1      35.748
2014    8       25    13  23    5.38   392.7    9.1      35.774
2014    8       25    13  28    5.39   392.9    9.1      35.799
2014    8       25    13  34    5.39   393.0    9.1      35.824
2014    8       25    13  40    5.39   393.1    9.1      35.849
2014    8       25    13  46    5.40   393.2    9.1      35.874
2014    8       25    13  52    5.40   393.3    9.1      35.900
2014    8       25    13  58    5.40   393.4    9.1      35.925
2014    8       25    14   4    5.41   393.5    9.1      35.951
2014    8       25    14  10    5.41   393.7    9.1      35.978
2014    8       25    14  16    5.41   393.8    9.1      36.005
2014    8       25    14  22    5.42   393.9    9.2      36.032
2014    8       25    14  27    5.42   394.0    9.2      36.059
2014    8       25    14  33    5.43   394.1    9.2      36.087
2014    8       25    14  39    5.43   394.2    9.2      36.116
2014    8       25    14  45    5.43   394.3    9.2      36.145
2014    8       25    14  51    5.44   394.4    9.2      36.173
2014    8       25    14  57    5.44   394.6    9.2      36.203
2014    8       25    15   3    5.44   394.7    9.2      36.232
2014    8       25    15   9    5.45   394.8    9.2      36.261
2014    8       25    15  15    5.45   394.9    9.2      36.292
2014    8       25    15  21    5.46   395.0    9.2      36.324
2014    8       25    15  26    5.46   395.1    9.2      36.356
2014    8       25    15  32    5.46   395.3    9.2      36.390
2014    8       25    15  38    5.47   395.4    9.2      36.425
2014    8       25    15  44    5.47   395.5    9.2      36.461
2014    8       25    15  50    5.47   395.6    9.2      36.497
2014    8       25    15  56    5.48   395.8    9.2      36.535
2014    8       25    16   2    5.48   395.9    9.2      36.572
2014    8       25    16   8    5.49   396.0    9.2      36.610
2014    8       25    16  14    5.49   396.1    9.2      36.647
2014    8       25    16  20    5.49   396.3    9.2      36.684
2014    8       25    16  25    5.50   396.4    9.2      36.720
2014    8       25    16  31    5.50   396.5    9.2      36.757
2014    8       25    16  37    5.50   396.6    9.2      36.793
2014    8       25    16  43    5.51   396.8    9.2      36.830
2014    8       25    16  49    5.51   396.9    9.2      36.866
2014    8       25    16  55    5.51   397.0    9.2      36.902
2014    8       25    17   1    5.52   397.1    9.2      36.938
2014    8       25    17   7    5.52   397.3    9.2      36.975
2014    8       25    17  13    5.52   397.4    9.3      37.011
2014    8       25    17  19    5.53   397.5    9.3      37.048
2014    8       25    17  25    5.53   397.6    9.3      37.085
2014    8       25    17  30    5.54   397.8    9.3      37.122
2014    8       25    17  36    5.54   397.9    9.3      37.160
2014    8       25    17  42    5.54   398.0    9.3      37.198
2014    8       25    17  48    5.55   398.1    9.3      37.237
2014    8       25    17  54    5.55   398.3    9.3      37.277
2014    8       25    18   0    5.56   398.4    9.3      37.317
2014    8       25    18   6    5.56   398.5    9.3      37.358
2014    8       25    18  12    5.56   398.7    9.3      37.399
2014    8       25    18  18    5.57   398.8    9.3      37.440
2014    8       25    18  24    5.57   398.9    9.3      37.483
2014    8       25    18  30    5.58   399.1    9.3      37.529
2014    8       25    18  36    5.58   399.2    9.3      37.576
2014    8       25    18  41    5.58   399.4    9.3      37.625
2014    8       25    18  47    5.59   399.5    9.3      37.675
2014    8       25    18  53    5.59   399.7    9.3      37.727
2014    8       25    18  59    5.60   399.9    9.3      37.780
2014    8       25    19   5    5.60   400.0    9.4      37.835
2014    8       25    19  11    5.60   400.2    9.4      37.889
2014    8       25    19  17    5.61   400.4    9.4      37.941
2014    8       25    19  23    5.61   400.5    9.4      37.992
2014    8       25    19  29    5.62   400.7    9.4      38.043
2014    8       25    19  35    5.62   400.9    9.4      38.092
2014    8       25    19  41    5.62   401.1    9.4      38.140
2014    8       25    19  47    5.63   401.2    9.4      38.187
2014    8       25    19  53    5.63   401.4    9.4      38.232
2014    8       25    19  58    5.63   401.6    9.4      38.277
2014    8       25    20   4    5.64   401.8    9.4      38.320
2014    8       25    20  10    5.64   401.9    9.4      38.362
2014    8       25    20  16    5.64   402.1    9.4      38.403
2014    8       25    20  22    5.65   402.3    9.4      38.443
2014    8       25    20  28    5.65   402.5    9.4      38.482
2014    8       25    20  34    5.65   402.6    9.4      38.520
2014    8       25    20  40    5.65   402.8    9.4      38.556
2014    8       25    20  46    5.66   403.0    9.4      38.592
2014    8       25    20  52    5.66   403.2    9.4      38.627
2014    8       25    20  58    5.66   403.3    9.4      38.662
2014    8       25    21   3    5.66   403.5    9.4      38.695
2014    8       25    21   9    5.67   403.7    9.4      38.728
2014    8       25    21  15    5.67   403.9    9.4      38.759
2014    8       25    21  21    5.67   404.0    9.3      38.790
2014    8       25    21  27    5.67   404.2    9.3      38.821
2014    8       25    21  33    5.68   404.4    9.3      38.850
2014    8       25    21  39    5.68   404.5    9.3      38.879
2014    8       25    21  45    5.68   404.7    9.3      38.907
2014    8       25    21  51    5.68   404.9    9.3      38.935
2014    8       25    21  57    5.68   405.1    9.3      38.962
2014    8       25    22   2    5.69   405.2    9.3      38.988
2014    8       25    22   8    5.69   405.4    9.3      39.014
2014    8       25    22  14    5.69   405.6    9.3      39.039
2014    8       25    22  20    5.69   405.7    9.3      39.063
2014    8       25    22  26    5.70   405.9    9.3      39.087
2014    8       25    22  32    5.70   406.1    9.3      39.111
2014    8       25    22  38    5.70   406.2    9.3      39.134
2014    8       25    22  44    5.70   406.4    9.3      39.156
2014    8       25    22  50    5.70   406.6    9.3      39.178
2014    8       25    22  56    5.70   406.7    9.3      39.199
2014    8       25    23   1    5.71   406.9    9.3      39.219
2014    8       25    23   7    5.71   407.1    9.2      39.240
2014    8       25    23  13    5.71   407.2    9.2      39.259
2014    8       25    23  19    5.71   407.4    9.2      39.279
2014    8       25    23  25    5.71   407.6    9.2      39.297
2014    8       25    23  31    5.72   407.7    9.2      39.316
2014    8       25    23  37    5.72   407.9    9.2      39.334
2014    8       25    23  43    5.72   408.0    9.2      39.352
2014    8       25    23  49    5.72   408.2    9.2      39.370
2014    8       25    23  54    5.72   408.3    9.2      39.387
2014    8       26     0   0    5.73   408.5    9.2      39.404
2014    8       26     0   6    5.73   408.6    9.2      39.422
2014    8       26     0  12    5.73   408.8    9.2      39.439
2014    8       26     0  18    5.73   408.9    9.2      39.457
2014    8       26     0  24    5.73   409.1    9.2      39.474
2014    8       26     0  30    5.74   409.2    9.2      39.492
2014    8       26     0  36    5.74   409.4    9.2      39.510
2014    8       26     0  42    5.74   409.5    9.2      39.529
2014    8       26     0  48    5.74   409.7    9.1      39.548
2014    8       26     0  53    5.74   409.8    9.1      39.567
2014    8       26     0  59    5.75   410.0    9.1      39.587
2014    8       26     1   5    5.75   410.1    9.1      39.608
2014    8       26     1  11    5.75   410.3    9.1      39.630
2014    8       26     1  17    5.75   410.4    9.1      39.652
2014    8       26     1  23    5.76   410.5    9.1      39.675
2014    8       26     1  29    5.76   410.7    9.1      39.697
2014    8       26     1  35    5.76   410.8    9.1      39.722
2014    8       26     1  41    5.76   411.0    9.1      39.749
2014    8       26     1  47    5.77   411.1    9.1      39.778
2014    8       26     1  52    5.77   411.3    9.1      39.809
2014    8       26     1  58    5.77   411.4    9.1      39.842
2014    8       26     2   4    5.78   411.6    9.1      39.876
2014    8       26     2  10    5.78   411.8    9.1      39.913
2014    8       26     2  16    5.78   411.9    9.1      39.951
2014    8       26     2  22    5.78   412.1    9.1      39.989
2014    8       26     2  28    5.79   412.3    9.1      40.028
2014    8       26     2  34    5.79   412.4    9.1      40.066
2014    8       26     2  40    5.79   412.6    9.1      40.103
2014    8       26     2  46    5.79   412.7    9.1      40.140
2014    8       26     2  51    5.80   412.9    9.1      40.176
2014    8       26     2  57    5.80   413.1    9.1      40.212
2014    8       26     3   3    5.80   413.3    9.1      40.248
2014    8       26     3   9    5.80   413.4    9.1      40.284
2014    8       26     3  15    5.81   413.6    9.1      40.320
2014    8       26     3  21    5.81   413.8    9.1      40.355
2014    8       26     3  27    5.81   413.9    9.1      40.390
2014    8       26     3  33    5.81   414.1    9.1      40.424
2014    8       26     3  39    5.82   414.3    9.1      40.458
2014    8       26     3  45    5.82   414.5    9.1      40.492
2014    8       26     3  50    5.82   414.6    9.1      40.524
2014    8       26     3  56    5.82   414.8    9.1      40.556
2014    8       26     4   2    5.83   415.0    9.1      40.587
2014    8       26     4   8    5.83   415.2    9.1      40.618
2014    8       26     4  14    5.83   415.3    9.1      40.647
2014    8       26     4  20    5.83   415.5    9.1      40.676
2014    8       26     4  26    5.83   415.7    9.1      40.704
2014    8       26     4  32    5.84   415.9    9.1      40.731
2014    8       26     4  38    5.84   416.1    9.1      40.758
2014    8       26     4  43    5.84   416.2    9.1      40.783
2014    8       26     4  49    5.84   416.4    9.1      40.808
2014    8       26     4  55    5.84   416.6    9.1      40.832
2014    8       26     5   1    5.84   416.8    9.1      40.855
2014    8       26     5   7    5.85   417.0    9.1      40.878
2014    8       26     5  13    5.85   417.1    9.1      40.899
2014    8       26     5  19    5.85   417.3    9.0      40.920
2014    8       26     5  25    5.85   417.5    9.0      40.941
2014    8       26     5  31    5.85   417.7    9.0      40.960
2014    8       26     5  37    5.85   417.9    9.0      40.979
2014    8       26     5  42    5.85   418.1    9.0      40.997
2014    8       26     5  48    5.86   418.2    9.0      41.015
2014    8       26     5  54    5.86   418.4    9.0      41.032
2014    8       26     6   0    5.86   418.6    9.0      41.049
2014    8       26     6   6    5.86   418.8    9.0      41.065
2014    8       26     6  12    5.86   419.0    9.0      41.080
2014    8       26     6  18    5.86   419.1    9.0      41.095
2014    8       26     6  24    5.86   419.3    9.0      41.109
2014    8       26     6  30    5.86   419.5    8.9      41.123
2014    8       26     6  36    5.86   419.7    8.9      41.136
2014    8       26     6  41    5.86   419.9    8.9      41.149
2014    8       26     6  47    5.87   420.1    8.9      41.161
2014    8       26     6  53    5.87   420.2    8.9      41.173
2014    8       26     6  59    5.87   420.4    8.9      41.184
2014    8       26     7   5    5.87   420.6    8.9      41.195
2014    8       26     7  11    5.87   420.8    8.9      41.206
2014    8       26     7  17    5.87   421.0    8.9      41.216
2014    8       26     7  23    5.87   421.1    8.9      41.225
2014    8       26     7  29    5.87   421.3    8.8      41.234
2014    8       26     7  34    5.87   421.5    8.8      41.243
2014    8       26     7  40    5.87   421.7    8.8      41.251
2014    8       26     7  46    5.87   421.8    8.8      41.259
2014    8       26     7  52    5.87   422.0    8.8      41.267
2014    8       26     7  58    5.87   422.2    8.8      41.274
2014    8       26     8   4    5.88   422.4    8.8      41.281
2014    8       26     8  10    5.88   422.5    8.8      41.288
2014    8       26     8  16    5.88   422.7    8.8      41.294
2014    8       26     8  22    5.88   422.9    8.7      41.301
2014    8       26     8  28    5.88   423.0    8.7      41.307
2014    8       26     8  33    5.88   423.2    8.7      41.313
2014    8       26     8  39    5.88   423.4    8.7      41.319
2014    8       26     8  45    5.88   423.6    8.7      41.324
2014    8       26     8  51    5.88   423.7    8.7      41.330
2014    8       26     8  57    5.88   423.9    8.7      41.335
2014    8       26     9   3    5.88   424.1    8.7      41.339
2014    8       26     9   9    5.88   424.2    8.7      41.344
2014    8       26     9  15    5.88   424.4    8.7      41.348
2014    8       26     9  21    5.88   424.6    8.6      41.351
2014    8       26     9  27    5.88   424.7    8.6      41.355
2014    8       26     9  32    5.89   424.9    8.6      41.357
2014    8       26     9  38    5.89   425.0    8.6      41.360
2014    8       26     9  44    5.89   425.2    8.6      41.363
2014    8       26     9  50    5.89   425.3    8.6      41.365
2014    8       26     9  56    5.89   425.5    8.6      41.368
2014    8       26    10   2    5.89   425.6    8.6      41.372
2014    8       26    10   8    5.89   425.8    8.6      41.375
2014    8       26    10  14    5.89   425.9    8.6      41.379
2014    8       26    10  20    5.89   426.1    8.5      41.384
2014    8       26    10  26    5.89   426.2    8.5      41.389
2014    8       26    10  31    5.89   426.4    8.5      41.395
2014    8       26    10  37    5.89   426.5    8.5      41.402
2014    8       26    10  43    5.89   426.7    8.5      41.409
2014    8       26    10  49    5.90   426.8    8.5      41.417
2014    8       26    10  55    5.90   427.0    8.5      41.425
2014    8       26    11   1    5.90   427.1    8.5      41.434
2014    8       26    11   7    5.90   427.3    8.5      41.442
2014    8       26    11  13    5.90   427.5    8.5      41.450
2014    8       26    11  19    5.90   427.6    8.5      41.458
2014    8       26    11  25    5.90   427.8    8.4      41.466
2014    8       26    11  30    5.90   427.9    8.4      41.473
2014    8       26    11  36    5.90   428.1    8.4      41.480
2014    8       26    11  42    5.90   428.3    8.4      41.487
2014    8       26    11  48    5.90   428.4    8.4      41.493
2014    8       26    11  54    5.90   428.6    8.4      41.499
2014    8       26    12   0    5.91   428.7    8.4      41.505
2014    8       26    12   6    5.91   428.9    8.4      41.510
2014    8       26    12  12    5.91   429.0    8.4      41.515
2014    8       26    12  18    5.91   429.2    8.4      41.520
2014    8       26    12  23    5.91   429.3    8.4      41.525
2014    8       26    12  29    5.91   429.5    8.4      41.529
2014    8       26    12  35    5.91   429.7    8.4      41.534
2014    8       26    12  41    5.91   429.8    8.3      41.538
2014    8       26    12  47    5.91   430.0    8.3      41.543
2014    8       26    12  53    5.91   430.1    8.3      41.548
2014    8       26    12  59    5.91   430.3    8.3      41.553
2014    8       26    13   5    5.91   430.4    8.3      41.558
2014    8       26    13  11    5.91   430.6    8.3      41.563
2014    8       26    13  17    5.91   430.7    8.3      41.569
2014    8       26    13  22    5.91   430.9    8.3      41.576
2014    8       26    13  28    5.91   431.0    8.3      41.584
2014    8       26    13  34    5.91   431.2    8.3      41.592
2014    8       26    13  40    5.91   431.3    8.3      41.600
2014    8       26    13  46    5.91   431.5    8.3      41.608
2014    8       26    13  52    5.91   431.6    8.3      41.617
2014    8       26    13  58    5.91   431.8    8.3      41.628
2014    8       26    14   4    5.91   431.9    8.3      41.641
2014    8       26    14  10    5.91   432.1    8.3      41.654
2014    8       26    14  16    5.91   432.2    8.3      41.669
2014    8       26    14  21    5.91   432.4    8.3      41.684
2014    8       26    14  27    5.92   432.5    8.2      41.701
2014    8       26    14  33    5.92   432.7    8.2      41.719
2014    8       26    14  39    5.92   432.9    8.2      41.737
2014    8       26    14  45    5.92   433.0    8.2      41.755
2014    8       26    14  51    5.92   433.2    8.2      41.772
2014    8       26    14  57    5.92   433.3    8.2      41.789
2014    8       26    15   3    5.92   433.5    8.2      41.806
2014    8       26    15   9    5.92   433.6    8.2      41.822
2014    8       26    15  15    5.92   433.8    8.2      41.837
2014    8       26    15  21    5.92   433.9    8.2      41.853
2014    8       26    15  27    5.92   434.1    8.2      41.867
2014    8       26    15  32    5.92   434.2    8.2      41.881
2014    8       26    15  38    5.92   434.4    8.2      41.894
2014    8       26    15  44    5.92   434.5    8.2      41.907
2014    8       26    15  50    5.92   434.7    8.2      41.919
2014    8       26    15  56    5.92   434.8    8.2      41.931
2014    8       26    16   2    5.92   435.0    8.1      41.941
2014    8       26    16   8    5.92   435.1    8.1      41.952
2014    8       26    16  14    5.92   435.3    8.1      41.961
2014    8       26    16  20    5.92   435.4    8.1      41.970
2014    8       26    16  26    5.92   435.6    8.1      41.979
2014    8       26    16  32    5.92   435.7    8.1      41.986
2014    8       26    16  38    5.92   435.9    8.1      41.993
2014    8       26    16  43    5.93   436.0    8.1      41.999
2014    8       26    16  49    5.93   436.2    8.1      42.005
2014    8       26    16  55    5.93   436.3    8.1      42.010
2014    8       26    17   1    5.93   436.5    8.1      42.015
2014    8       26    17   7    5.93   436.6    8.0      42.020
2014    8       26    17  13    5.93   436.7    8.0      42.024
2014    8       26    17  19    5.93   436.9    8.0      42.029
2014    8       26    17  25    5.93   437.0    8.0      42.033
2014    8       26    17  31    5.93   437.2    8.0      42.038
2014    8       26    17  37    5.93   437.3    8.0      42.042
2014    8       26    17  43    5.93   437.5    8.0      42.047
2014    8       26    17  49    5.93   437.6    8.0      42.052
2014    8       26    17  54    5.93   437.7    8.0      42.058
2014    8       26    18   0    5.93   437.9    8.0      42.063
2014    8       26    18   6    5.93   438.0    8.0      42.069
2014    8       26    18  12    5.93   438.2    8.0      42.074
2014    8       26    18  18    5.93   438.3    7.9      42.080
2014    8       26    18  24    5.93   438.5    7.9      42.086
2014    8       26    18  30    5.93   438.6    7.9      42.092
2014    8       26    18  36    5.93   438.8    7.9      42.097
2014    8       26    18  42    5.93   438.9    7.9      42.103
2014    8       26    18  48    5.93   439.1    7.9      42.109
2014    8       26    18  54    5.93   439.2    7.9      42.114
2014    8       26    18  59    5.93   439.4    7.9      42.120
2014    8       26    19   5    5.93   439.5    7.9      42.125
2014    8       26    19  11    5.93   439.7    7.9      42.131
2014    8       26    19  17    5.93   439.8    7.9      42.137
2014    8       26    19  23    5.93   439.9    7.9      42.143
2014    8       26    19  29    5.93   440.1    7.9      42.149
2014    8       26    19  35    5.93   440.2    7.9      42.155
2014    8       26    19  41    5.93   440.4    7.9      42.162
2014    8       26    19  47    5.93   440.5    7.8      42.169
2014    8       26    19  53    5.93   440.7    7.8      42.176
2014    8       26    19  58    5.93   440.8    7.8      42.185
2014    8       26    20   4    5.93   440.9    7.8      42.194
2014    8       26    20  10    5.93   441.1    7.8      42.203
2014    8       26    20  16    5.93   441.2    7.8      42.213
2014    8       26    20  22    5.93   441.4    7.8      42.225
2014    8       26    20  28    5.93   441.5    7.8      42.237
2014    8       26    20  34    5.93   441.6    7.8      42.250
2014    8       26    20  40    5.93   441.8    7.8      42.264
2014    8       26    20  46    5.93   441.9    7.8      42.280
2014    8       26    20  52    5.93   442.0    7.8      42.297
2014    8       26    20  57    5.93   442.2    7.8      42.315
2014    8       26    21   3    5.93   442.3    7.8      42.334
2014    8       26    21   9    5.93   442.5    7.8      42.354
2014    8       26    21  15    5.94   442.6    7.8      42.377
2014    8       26    21  21    5.94   442.7    7.8      42.402
2014    8       26    21  27    5.94   442.9    7.8      42.428
2014    8       26    21  33    5.94   443.0    7.8      42.458
2014    8       26    21  39    5.94   443.2    7.8      42.490
2014    8       26    21  45    5.94   443.3    7.8      42.525
2014    8       26    21  51    5.94   443.5    7.8      42.562
2014    8       26    21  56    5.94   443.6    7.8      42.600
2014    8       26    22   2    5.94   443.8    7.8      42.638
2014    8       26    22   8    5.94   443.9    7.8      42.677
2014    8       26    22  14    5.95   444.1    7.8      42.715
2014    8       26    22  20    5.95   444.2    7.8      42.754
2014    8       26    22  26    5.95   444.4    7.8      42.791
2014    8       26    22  32    5.95   444.6    7.8      42.829
2014    8       26    22  38    5.95   444.7    7.8      42.866
2014    8       26    22  44    5.95   444.9    7.8      42.903
2014    8       26    22  50    5.95   445.0    7.8      42.938
2014    8       26    22  56    5.95   445.2    7.8      42.973
2014    8       26    23   2    5.95   445.3    7.8      43.007
2014    8       26    23   7    5.95   445.5    7.8      43.041
2014    8       26    23  13    5.95   445.6    7.8      43.073
2014    8       26    23  19    5.95   445.8    7.8      43.104
2014    8       26    23  25    5.96   446.0    7.8      43.135
2014    8       26    23  31    5.96   446.1    7.8      43.165
2014    8       26    23  37    5.96   446.3    7.8      43.194
2014    8       26    23  43    5.96   446.4    7.8      43.223
2014    8       26    23  49    5.96   446.6    7.8      43.251
2014    8       26    23  55    5.96   446.8    7.8      43.278
2014    8       27     0   1    5.96   446.9    7.8      43.305
2014    8       27     0   7    5.96   447.1    7.8      43.331
2014    8       27     0  13    5.96   447.3    7.8      43.356
2014    8       27     0  18    5.96   447.4    7.8      43.381
2014    8       27     0  24    5.96   447.6    7.8      43.405
2014    8       27     0  30    5.96   447.8    7.8      43.429
2014    8       27     0  36    5.96   447.9    7.8      43.452
2014    8       27     0  42    5.96   448.1    7.8      43.475
2014    8       27     0  48    5.96   448.3    7.8      43.498
2014    8       27     0  54    5.97   448.4    7.8      43.520
2014    8       27     1   0    5.97   448.6    7.8      43.541
2014    8       27     1   6    5.97   448.8    7.8      43.563
2014    8       27     1  12    5.97   448.9    7.7      43.584
2014    8       27     1  18    5.97   449.1    7.7      43.605
2014    8       27     1  23    5.97   449.3    7.7      43.625
2014    8       27     1  29    5.97   449.4    7.7      43.645
2014    8       27     1  35    5.97   449.6    7.7      43.665
2014    8       27     1  41    5.97   449.8    7.7      43.685
2014    8       27     1  47    5.97   450.0    7.7      43.705
2014    8       27     1  53    5.97   450.1    7.7      43.724
2014    8       27     1  59    5.97   450.3    7.7      43.743
2014    8       27     2   5    5.97   450.5    7.7      43.762
2014    8       27     2  11    5.97   450.6    7.7      43.781
2014    8       27     2  17    5.97   450.8    7.7      43.800
2014    8       27     2  23    5.97   451.0    7.7      43.819
2014    8       27     2  28    5.97   451.2    7.7      43.838
2014    8       27     2  34    5.97   451.3    7.7      43.856
2014    8       27     2  40    5.97   451.5    7.7      43.876
2014    8       27     2  46    5.97   451.7    7.7      43.895
2014    8       27     2  52    5.98   451.9    7.7      43.914
2014    8       27     2  58    5.98   452.0    7.6      43.933
2014    8       27     3   4    5.98   452.2    7.6      43.953
2014    8       27     3  10    5.98   452.4    7.6      43.974
2014    8       27     3  16    5.98   452.6    7.6      43.994
2014    8       27     3  22    5.98   452.7    7.6      44.015
2014    8       27     3  27    5.98   452.9    7.6      44.037
2014    8       27     3  33    5.98   453.1    7.6      44.059
2014    8       27     3  39    5.98   453.3    7.6      44.082
2014    8       27     3  45    5.98   453.5    7.6      44.106
2014    8       27     3  51    5.98   453.6    7.6      44.130
2014    8       27     3  57    5.98   453.8    7.6      44.154
2014    8       27     4   3    5.98   454.0    7.6      44.180
2014    8       27     4   9    5.98   454.2    7.6      44.207
2014    8       27     4  15    5.98   454.4    7.6      44.236
2014    8       27     4  21    5.98   454.6    7.6      44.266
2014    8       27     4  26    5.99   454.8    7.6      44.297
2014    8       27     4  32    5.99   455.0    7.6      44.329
2014    8       27     4  38    5.99   455.2    7.6      44.361
2014    8       27     4  44    5.99   455.4    7.6      44.395
2014    8       27     4  50    5.99   455.6    7.6      44.429
2014    8       27     4  56    5.99   455.8    7.6      44.464
2014    8       27     5   2    5.99   456.0    7.6      44.501
2014    8       27     5   8    5.99   456.2    7.6      44.538
2014    8       27     5  14    5.99   456.4    7.6      44.576
2014    8       27     5  20    5.99   456.6    7.6      44.615
2014    8       27     5  25    5.99   456.8    7.6      44.653
2014    8       27     5  31    5.99   457.0    7.6      44.691
2014    8       27     5  37    5.99   457.2    7.6      44.728
2014    8       27     5  43    5.99   457.4    7.6      44.765
2014    8       27     5  49    5.99   457.6    7.6      44.802
2014    8       27     5  55    5.99   457.8    7.6      44.838
2014    8       27     6   1    5.99   458.0    7.6      44.874
2014    8       27     6   7    5.99   458.2    7.6      44.910
2014    8       27     6  13    6.00   458.5    7.6      44.945
2014    8       27     6  19    6.00   458.7    7.6      44.980
2014    8       27     6  25    6.00   458.9    7.6      45.014
2014    8       27     6  30    6.00   459.1    7.6      45.047
2014    8       27     6  36    6.00   459.3    7.5      45.080
2014    8       27     6  42    6.00   459.5    7.5      45.112
2014    8       27     6  48    6.00   459.7    7.5      45.144
2014    8       27     6  54    6.00   459.9    7.5      45.176
2014    8       27     7   0    6.00   460.1    7.5      45.207
2014    8       27     7   6    6.00   460.3    7.5      45.238
2014    8       27     7  12    6.00   460.5    7.5      45.268
2014    8       27     7  18    6.00   460.8    7.5      45.297
2014    8       27     7  24    6.00   461.0    7.5      45.327
2014    8       27     7  30    6.00   461.2    7.5      45.356
2014    8       27     7  36    6.00   461.4    7.5      45.384
2014    8       27     7  41    6.00   461.6    7.5      45.412
2014    8       27     7  47    5.99   461.8    7.5      45.440
2014    8       27     7  53    5.99   462.1    7.5      45.467
2014    8       27     7  59    5.99   462.3    7.5      45.494
2014    8       27     8   5    5.99   462.5    7.4      45.520
2014    8       27     8  11    5.99   462.7    7.4      45.547
2014    8       27     8  17    5.99   462.9    7.4      45.572
2014    8       27     8  23    5.99   463.1    7.4      45.598
2014    8       27     8  29    5.99   463.4    7.4      45.623
2014    8       27     8  35    5.99   463.6    7.4      45.648
2014    8       27     8  41    5.99   463.8    7.4      45.672
2014    8       27     8  47    5.99   464.0    7.4      45.697
2014    8       27     8  52    5.99   464.2    7.4      45.721
2014    8       27     8  58    5.99   464.5    7.4      45.745
2014    8       27     9   4    5.99   464.7    7.4      45.769
2014    8       27     9  10    5.99   464.9    7.4      45.792
2014    8       27     9  16    5.99   465.1    7.4      45.816
2014    8       27     9  22    5.99   465.3    7.3      45.839
2014    8       27     9  28    5.99   465.5    7.3      45.862
2014    8       27     9  34    5.99   465.8    7.3      45.886
2014    8       27     9  40    5.99   466.0    7.3      45.909
2014    8       27     9  46    5.99   466.2    7.3      45.933
2014    8       27     9  51    5.99   466.4    7.3      45.956
2014    8       27     9  57    5.98   466.6    7.3      45.980
2014    8       27    10   3    5.98   466.8    7.3      46.004
2014    8       27    10   9    5.98   467.1    7.3      46.028
2014    8       27    10  15    5.98   467.3    7.3      46.051
2014    8       27    10  21    5.98   467.5    7.3      46.075
2014    8       27    10  27    5.98   467.7    7.3      46.099
2014    8       27    10  33    5.98   467.9    7.3      46.123
2014    8       27    10  39    5.98   468.1    7.2      46.148
2014    8       27    10  45    5.98   468.4    7.2      46.172
2014    8       27    10  50    5.98   468.6    7.2      46.197
2014    8       27    10  56    5.98   468.8    7.2      46.223
2014    8       27    11   2    5.98   469.0    7.2      46.248
2014    8       27    11   8    5.98   469.2    7.2      46.274
2014    8       27    11  14    5.98   469.4    7.2      46.300
2014    8       27    11  20    5.97   469.6    7.2      46.328
2014    8       27    11  26    5.97   469.9    7.2      46.355
2014    8       27    11  32    5.97   470.1    7.2      46.383
2014    8       27    11  38    5.97   470.3    7.2      46.411
2014    8       27    11  44    5.97   470.6    7.2      46.439
2014    8       27    11  49    5.97   470.8    7.2      46.467
2014    8       27    11  55    5.97   471.0    7.2      46.495
2014    8       27    12   1    5.97   471.2    7.2      46.522
2014    8       27    12   7    5.97   471.5    7.2      46.548
2014    8       27    12  13    5.97   471.7    7.1      46.573
2014    8       27    12  19    5.97   471.9    7.1      46.598
2014    8       27    12  25    5.96   472.2    7.1      46.622
2014    8       27    12  31    5.96   472.4    7.1      46.645
2014    8       27    12  37    5.96   472.7    7.1      46.667
2014    8       27    12  43    5.96   472.9    7.1      46.689
2014    8       27    12  48    5.96   473.1    7.1      46.710
2014    8       27    12  54    5.96   473.4    7.1      46.730
2014    8       27    13   0    5.96   473.6    7.1      46.749
2014    8       27    13   6    5.95   473.8    7.1      46.768
2014    8       27    13  12    5.95   474.1    7.1      46.786
2014    8       27    13  18    5.95   474.3    7.1      46.803
2014    8       27    13  24    5.95   474.5    7.0      46.820
2014    8       27    13  30    5.95   474.8    7.0      46.836
2014    8       27    13  36    5.95   475.0    7.0      46.851
2014    8       27    13  42    5.94   475.2    7.0      46.866
2014    8       27    13  48    5.94   475.5    7.0      46.880
2014    8       27    13  54    5.94   475.7    7.0      46.894
2014    8       27    13  59    5.94   475.9    7.0      46.907
2014    8       27    14   5    5.94   476.1    7.0      46.920
2014    8       27    14  11    5.94   476.4    7.0      46.933
2014    8       27    14  17    5.93   476.6    7.0      46.946
2014    8       27    14  23    5.93   476.8    6.9      46.958
2014    8       27    14  29    5.93   477.1    6.9      46.970
2014    8       27    14  35    5.93   477.3    6.9      46.981
2014    8       27    14  41    5.92   477.5    6.9      46.993
2014    8       27    14  47    5.92   477.7    6.9      47.004
2014    8       27    14  53    5.92   478.0    6.9      47.015
2014    8       27    14  59    5.92   478.2    6.9      47.026
2014    8       27    15   4    5.92   478.4    6.9      47.036
2014    8       27    15  10    5.91   478.7    6.9      47.047
2014    8       27    15  16    5.91   478.9    6.9      47.057
2014    8       27    15  22    5.91   479.1    6.8      47.067
2014    8       27    15  28    5.91   479.3    6.8      47.077
2014    8       27    15  34    5.90   479.6    6.8      47.087
2014    8       27    15  40    5.90   479.8    6.8      47.097
2014    8       27    15  46    5.90   480.0    6.8      47.107
2014    8       27    15  52    5.90   480.2    6.8      47.117
2014    8       27    15  58    5.90   480.4    6.8      47.127
2014    8       27    16   4    5.89   480.7    6.8      47.137
2014    8       27    16   9    5.89   480.9    6.8      47.146
2014    8       27    16  15    5.89   481.1    6.8      47.155
2014    8       27    16  21    5.89   481.3    6.7      47.164
2014    8       27    16  27    5.88   481.5    6.7      47.173
2014    8       27    16  33    5.88   481.8    6.7      47.181
2014    8       27    16  39    5.88   482.0    6.7      47.189
2014    8       27    16  45    5.88   482.2    6.7      47.197
2014    8       27    16  51    5.87   482.4    6.7      47.205
2014    8       27    16  57    5.87   482.6    6.7      47.212
2014    8       27    17   3    5.87   482.8    6.7      47.220
2014    8       27    17   9    5.87   483.0    6.7      47.227
2014    8       27    17  14    5.86   483.2    6.6      47.235
2014    8       27    17  20    5.86   483.4    6.6      47.242
2014    8       27    17  26    5.86   483.6    6.6      47.249
2014    8       27    17  32    5.86   483.8    6.6      47.257
2014    8       27    17  38    5.85   484.0    6.6      47.264
2014    8       27    17  44    5.85   484.2    6.6      47.272
2014    8       27    17  50    5.85   484.4    6.6      47.279
2014    8       27    17  56    5.85   484.6    6.6      47.287
2014    8       27    18   2    5.84   484.8    6.6      47.295
2014    8       27    18   7    5.84   485.0    6.6      47.304
2014    8       27    18  13    5.84   485.2    6.5      47.312
2014    8       27    18  19    5.84   485.4    6.5      47.320
2014    8       27    18  25    5.83   485.6    6.5      47.328
2014    8       27    18  31    5.83   485.8    6.5      47.334
2014    8       27    18  37    5.83   486.0    6.5      47.340
2014    8       27    18  43    5.83   486.2    6.5      47.345
2014    8       27    18  49    5.82   486.4    6.5      47.349
2014    8       27    18  55    5.82   486.6    6.5      47.351
2014    8       27    19   1    5.82   486.8    6.5      47.353
2014    8       27    19   7    5.82   487.0    6.5      47.355
2014    8       27    19  12    5.81   487.2    6.4      47.355
2014    8       27    19  18    5.81   487.4    6.4      47.354
2014    8       27    19  24    5.81   487.6    6.4      47.353
2014    8       27    19  30    5.80   487.8    6.4      47.351
2014    8       27    19  36    5.80   488.0    6.4      47.347
2014    8       27    19  42    5.80   488.2    6.4      47.343
2014    8       27    19  48    5.80   488.4    6.4      47.339
2014    8       27    19  54    5.79   488.6    6.4      47.333
2014    8       27    20   0    5.79   488.8    6.4      47.327
2014    8       27    20   6    5.79   489.0    6.4      47.320
2014    8       27    20  11    5.78   489.2    6.3      47.312
2014    8       27    20  17    5.78   489.3    6.3      47.304
2014    8       27    20  23    5.78   489.5    6.3      47.295
2014    8       27    20  29    5.78   489.7    6.3      47.286
2014    8       27    20  35    5.77   489.9    6.3      47.276
2014    8       27    20  41    5.77   490.1    6.3      47.266
2014    8       27    20  47    5.77   490.3    6.3      47.255
2014    8       27    20  53    5.76   490.4    6.3      47.243
2014    8       27    20  59    5.76   490.6    6.3      47.232
2014    8       27    21   5    5.76   490.8    6.3      47.220
2014    8       27    21  11    5.75   491.0    6.2      47.208
2014    8       27    21  16    5.75   491.1    6.2      47.196
2014    8       27    21  22    5.75   491.3    6.2      47.184
2014    8       27    21  28    5.75   491.5    6.2      47.172
2014    8       27    21  34    5.74   491.6    6.2      47.160
2014    8       27    21  40    5.74   491.8    6.2      47.148
2014    8       27    21  46    5.74   491.9    6.2      47.136
2014    8       27    21  52    5.73   492.1    6.2      47.125
2014    8       27    21  58    5.73   492.3    6.2      47.114
2014    8       27    22   4    5.73   492.4    6.2      47.103
2014    8       27    22  10    5.73   492.6    6.2      47.092
2014    8       27    22  16    5.72   492.7    6.2      47.082
2014    8       27    22  22    5.72   492.9    6.1      47.072
2014    8       27    22  27    5.72   493.0    6.1      47.063
2014    8       27    22  33    5.71   493.2    6.1      47.054
2014    8       27    22  39    5.71   493.3    6.1      47.046
2014    8       27    22  45    5.71   493.5    6.1      47.039
2014    8       27    22  51    5.71   493.6    6.1      47.032
2014    8       27    22  57    5.70   493.8    6.1      47.026
2014    8       27    23   3    5.70   493.9    6.1      47.022
2014    8       27    23   9    5.70   494.1    6.1      47.017
2014    8       27    23  15    5.69   494.2    6.1      47.013
2014    8       27    23  21    5.69   494.4    6.1      47.010
2014    8       27    23  26    5.69   494.5    6.1      47.008
2014    8       27    23  32    5.69   494.7    6.1      47.007
2014    8       27    23  38    5.69   494.8    6.0      47.006
2014    8       27    23  44    5.68   495.0    6.0      47.007
2014    8       27    23  50    5.68   495.1    6.0      47.008
2014    8       27    23  56    5.68   495.3    6.0      47.008
2014    8       28     0   2    5.68   495.4    6.0      47.008
2014    8       28     0   8    5.67   495.5    6.0      47.008
2014    8       28     0  14    5.67   495.7    6.0      47.007
2014    8       28     0  20    5.67   495.8    6.0      47.006
2014    8       28     0  26    5.67   496.0    6.0      47.004
2014    8       28     0  31    5.67   496.1    6.0      47.002
2014    8       28     0  37    5.66   496.2    6.0      46.999
2014    8       28     0  43    5.66   496.4    6.0      46.997
2014    8       28     0  49    5.66   496.5    6.0      46.994
2014    8       28     0  55    5.66   496.6    6.0      46.991
2014    8       28     1   1    5.66   496.8    5.9      46.989
2014    8       28     1   7    5.65   496.9    5.9      46.986
2014    8       28     1  13    5.65   497.1    5.9      46.984
2014    8       28     1  19    5.65   497.2    5.9      46.981
2014    8       28     1  25    5.65   497.3    5.9      46.978
2014    8       28     1  30    5.65   497.5    5.9      46.974
2014    8       28     1  36    5.64   497.6    5.9      46.970
2014    8       28     1  42    5.64   497.7    5.9      46.965
2014    8       28     1  48    5.64   497.9    5.9      46.961
2014    8       28     1  54    5.64   498.0    5.9      46.955
2014    8       28     2   0    5.63   498.2    5.9      46.950
2014    8       28     2   6    5.63   498.3    5.9      46.944
2014    8       28     2  12    5.63   498.4    5.9      46.938
2014    8       28     2  18    5.63   498.6    5.9      46.931
2014    8       28     2  23    5.63   498.7    5.8      46.924
2014    8       28     2  29    5.62   498.8    5.8      46.917
2014    8       28     2  35    5.62   499.0    5.8      46.910
2014    8       28     2  41    5.62   499.1    5.8      46.902
2014    8       28     2  47    5.62   499.2    5.8      46.895
2014    8       28     2  53    5.62   499.3    5.8      46.887
2014    8       28     2  59    5.61   499.5    5.8      46.879
2014    8       28     3   5    5.61   499.6    5.8      46.871
2014    8       28     3  11    5.61   499.7    5.8      46.863
2014    8       28     3  17    5.61   499.8    5.8      46.855
2014    8       28     3  23    5.61   500.0    5.8      46.847
2014    8       28     3  28    5.60   500.1    5.8      46.839
2014    8       28     3  34    5.60   500.2    5.8      46.832
2014    8       28     3  40    5.60   500.3    5.8      46.824
2014    8       28     3  46    5.60   500.5    5.8      46.817
2014    8       28     3  52    5.60   500.6    5.8      46.809
2014    8       28     3  58    5.60   500.7    5.7      46.801
2014    8       28     4   4    5.59   500.8    5.7      46.794
2014    8       28     4  10    5.59   500.9    5.7      46.786
2014    8       28     4  16    5.59   501.1    5.7      46.778
2014    8       28     4  22    5.59   501.2    5.7      46.771
2014    8       28     4  28    5.59   501.3    5.7      46.764
2014    8       28     4  33    5.58   501.4    5.7      46.757
2014    8       28     4  39    5.58   501.5    5.7      46.750
2014    8       28     4  45    5.58   501.6    5.7      46.743
2014    8       28     4  51    5.58   501.7    5.7      46.737
2014    8       28     4  57    5.58   501.8    5.7      46.731
2014    8       28     5   3    5.58   501.9    5.7      46.725
2014    8       28     5   9    5.57   502.0    5.7      46.720
2014    8       28     5  15    5.57   502.1    5.7      46.715
2014    8       28     5  21    5.57   502.2    5.7      46.711
2014    8       28     5  27    5.57   502.3    5.7      46.707
2014    8       28     5  33    5.57   502.4    5.7      46.704
2014    8       28     5  38    5.57   502.5    5.7      46.701
2014    8       28     5  44    5.56   502.6    5.7      46.699
2014    8       28     5  50    5.56   502.7    5.7      46.697
2014    8       28     5  56    5.56   502.8    5.7      46.696
2014    8       28     6   2    5.56   502.9    5.6      46.696
2014    8       28     6   8    5.56   503.0    5.6      46.696
2014    8       28     6  14    5.56   503.1    5.6      46.698
2014    8       28     6  20    5.56   503.2    5.6      46.700
2014    8       28     6  26    5.55   503.3    5.6      46.703
2014    8       28     6  32    5.55   503.4    5.6      46.707
2014    8       28     6  38    5.55   503.5    5.6      46.711
2014    8       28     6  43    5.55   503.6    5.6      46.717
2014    8       28     6  49    5.55   503.7    5.6      46.724
2014    8       28     6  55    5.55   503.8    5.6      46.733
2014    8       28     7   1    5.55   503.9    5.6      46.743
2014    8       28     7   7    5.55   504.0    5.6      46.754
2014    8       28     7  13    5.55   504.1    5.6      46.766
2014    8       28     7  19    5.55   504.2    5.6      46.778
2014    8       28     7  25    5.55   504.3    5.6      46.789
2014    8       28     7  31    5.55   504.4    5.6      46.800
2014    8       28     7  37    5.55   504.5    5.6      46.811
2014    8       28     7  42    5.54   504.6    5.6      46.822
2014    8       28     7  48    5.54   504.7    5.6      46.833
2014    8       28     7  54    5.54   504.8    5.6      46.844
2014    8       28     8   0    5.54   504.9    5.6      46.854
2014    8       28     8   6    5.54   505.0    5.6      46.865
2014    8       28     8  12    5.54   505.2    5.6      46.875
2014    8       28     8  18    5.54   505.3    5.6      46.885
2014    8       28     8  24    5.54   505.4    5.6      46.895
2014    8       28     8  30    5.54   505.5    5.6      46.905
2014    8       28     8  36    5.54   505.6    5.6      46.915
2014    8       28     8  41    5.54   505.7    5.6      46.925
2014    8       28     8  47    5.54   505.8    5.6      46.935
2014    8       28     8  53    5.54   505.9    5.6      46.945
2014    8       28     8  59    5.54   506.0    5.6      46.955
2014    8       28     9   5    5.54   506.1    5.6      46.965
2014    8       28     9  11    5.54   506.2    5.5      46.975
2014    8       28     9  17    5.54   506.4    5.5      46.985
2014    8       28     9  23    5.54   506.5    5.5      46.995
2014    8       28     9  29    5.54   506.6    5.5      47.005
2014    8       28     9  35    5.54   506.7    5.5      47.015
2014    8       28     9  40    5.54   506.8    5.5      47.025
2014    8       28     9  46    5.54   506.9    5.5      47.035
2014    8       28     9  52    5.54   507.0    5.5      47.046
2014    8       28     9  58    5.54   507.1    5.5      47.057
2014    8       28    10   4    5.54   507.2    5.5      47.069
2014    8       28    10  10    5.54   507.4    5.5      47.081
2014    8       28    10  16    5.54   507.5    5.5      47.095
2014    8       28    10  22    5.54   507.6    5.5      47.108
2014    8       28    10  28    5.54   507.7    5.5      47.123
2014    8       28    10  34    5.54   507.8    5.5      47.137
2014    8       28    10  39    5.54   507.9    5.5      47.152
2014    8       28    10  45    5.54   508.0    5.5      47.167
2014    8       28    10  51    5.54   508.2    5.5      47.181
2014    8       28    10  57    5.54   508.3    5.5      47.195
2014    8       28    11   3    5.54   508.4    5.5      47.209
2014    8       28    11   9    5.53   508.5    5.5      47.222
2014    8       28    11  15    5.53   508.6    5.5      47.234
2014    8       28    11  21    5.53   508.7    5.5      47.247
2014    8       28    11  27    5.53   508.8    5.5      47.259
2014    8       28    11  33    5.53   509.0    5.5      47.270
2014    8       28    11  39    5.53   509.1    5.5      47.281
2014    8       28    11  44    5.53   509.2    5.5      47.292
2014    8       28    11  50    5.53   509.3    5.5      47.302
2014    8       28    11  56    5.53   509.4    5.5      47.312
2014    8       28    12   2    5.52   509.5    5.5      47.322
2014    8       28    12   8    5.52   509.6    5.5      47.332
2014    8       28    12  14    5.52   509.7    5.5      47.341
2014    8       28    12  20    5.52   509.8    5.5      47.350
2014    8       28    12  26    5.52   509.9    5.5      47.359
2014    8       28    12  32    5.52   510.0    5.5      47.368
2014    8       28    12  38    5.51   510.1    5.5      47.376
2014    8       28    12  44    5.51   510.2    5.5      47.385
2014    8       28    12  49    5.51   510.3    5.5      47.393
2014    8       28    12  55    5.51   510.4    5.4      47.402
2014    8       28    13   1    5.51   510.5    5.4      47.410
2014    8       28    13   7    5.50   510.6    5.4      47.419
2014    8       28    13  13    5.50   510.7    5.4      47.427
2014    8       28    13  19    5.50   510.8    5.4      47.436
2014    8       28    13  25    5.50   510.9    5.4      47.445
2014    8       28    13  31    5.49   511.0    5.4      47.455
2014    8       28    13  37    5.49   511.1    5.4      47.464
2014    8       28    13  43    5.49   511.3    5.4      47.474
2014    8       28    13  49    5.49   511.4    5.4      47.485
2014    8       28    13  54    5.48   511.5    5.4      47.496
2014    8       28    14   0    5.48   511.6    5.4      47.508
2014    8       28    14   6    5.48   511.7    5.4      47.521
2014    8       28    14  12    5.48   511.8    5.4      47.535
2014    8       28    14  18    5.47   511.9    5.4      47.550
2014    8       28    14  24    5.47   512.0    5.4      47.566
2014    8       28    14  30    5.47   512.1    5.4      47.584
2014    8       28    14  36    5.46   512.2    5.4      47.603
2014    8       28    14  42    5.46   512.3    5.4      47.623
2014    8       28    14  48    5.46   512.4    5.4      47.646
2014    8       28    14  53    5.45   512.5    5.4      47.670
2014    8       28    14  59    5.45   512.6    5.4      47.697
2014    8       28    15   5    5.44   512.8    5.4      47.726
2014    8       28    15  11    5.44   512.9    5.4      47.758
2014    8       28    15  17    5.44   513.0    5.4      47.793
2014    8       28    15  23    5.44   513.1    5.4      47.830
2014    8       28    15  29    5.43   513.3    5.4      47.871
2014    8       28    15  35    5.43   513.4    5.4      47.915
2014    8       28    15  41    5.43   513.6    5.4      47.963
2014    8       28    15  47    5.42   513.7    5.4      48.015
2014    8       28    15  52    5.42   513.9    5.4      48.071
2014    8       28    15  58    5.42   514.0    5.4      48.132
2014    8       28    16   4    5.42   514.2    5.4      48.197
2014    8       28    16  10    5.42   514.3    5.4      48.267
2014    8       28    16  16    5.41   514.5    5.4      48.342
2014    8       28    16  22    5.41   514.7    5.4      48.423
2014    8       28    16  28    5.41   514.9    5.4      48.510
2014    8       28    16  34    5.41   515.1    5.4      48.603
2014    8       28    16  40    5.41   515.3    5.4      48.703
2014    8       28    16  46    5.41   515.5    5.5      48.809
2014    8       28    16  51    5.41   515.7    5.5      48.923
2014    8       28    16  57    5.41   515.9    5.5      49.044
2014    8       28    17   3    5.41   516.2    5.5      49.174
2014    8       28    17   9    5.40   516.4    5.5      49.312
2014    8       28    17  15    5.40   516.6    5.5      49.459
2014    8       28    17  21    5.40   516.9    5.6      49.615
2014    8       28    17  27    5.40   517.2    5.6      49.781
2014    8       28    17  33    5.41   517.4    5.6      49.958
2014    8       28    17  39    5.41   517.7    5.6      50.145
2014    8       28    17  45    5.41   518.0    5.7      50.341
2014    8       28    17  51    5.41   518.3    5.7      50.547
2014    8       28    17  56    5.41   518.6    5.7      50.773
2014    8       28    18   2    5.41   518.9    5.8      51.014
2014    8       28    18   8    5.41   519.2    5.8      51.266
2014    8       28    18  14    5.41   519.6    5.8      51.529
2014    8       28    18  20    5.42   520.0    5.9      51.796
2014    8       28    18  26    5.42   520.3    5.9      52.061
2014    8       28    18  32    5.42   520.7    5.9      52.316
2014    8       28    18  38    5.42   521.0    6.0      52.565
2014    8       28    18  44    5.43   521.3    6.0      52.804
2014    8       28    18  50    5.43   521.7    6.0      53.035
2014    8       28    18  55    5.43   522.0    6.1      53.258
2014    8       28    19   1    5.43   522.3    6.1      53.473
2014    8       28    19   7    5.44   522.7    6.1      53.677
2014    8       28    19  13    5.44   523.0    6.1      53.868
2014    8       28    19  19    5.44   523.3    6.2      54.048
2014    8       28    19  25    5.44   523.6    6.2      54.214
2014    8       28    19  31    5.45   523.9    6.2      54.364
2014    8       28    19  37    5.45   524.2    6.2      54.501
2014    8       28    19  43    5.45   524.5    6.2      54.622
2014    8       28    19  49    5.45   524.7    6.2      54.729
2014    8       28    19  55    5.46   525.0    6.2      54.822
2014    8       28    20   0    5.46   525.2    6.2      54.903
2014    8       28    20   6    5.46   525.5    6.2      54.970
2014    8       28    20  12    5.46   525.7    6.2      55.026
2014    8       28    20  18    5.46   525.9    6.2      55.070
2014    8       28    20  24    5.47   526.1    6.2      55.104
2014    8       28    20  30    5.47   526.3    6.2      55.128
2014    8       28    20  36    5.47   526.4    6.2      55.142
2014    8       28    20  42    5.47   526.6    6.2      55.149
2014    8       28    20  48    5.47   526.8    6.2      55.148
2014    8       28    20  54    5.48   526.9    6.2      55.139
2014    8       28    21   0    5.48   527.0    6.2      55.125
2014    8       28    21   5    5.48   527.1    6.2      55.106
2014    8       28    21  11    5.49   527.3    6.2      55.081
2014    8       28    21  17    5.49   527.4    6.2      55.052
2014    8       28    21  23    5.50   527.5    6.2      55.020
2014    8       28    21  29    5.50   527.6    6.1      54.985
2014    8       28    21  35    5.50   527.7    6.1      54.947
2014    8       28    21  41    5.51   527.8    6.1      54.907
2014    8       28    21  47    5.52   527.9    6.1      54.866
2014    8       28    21  53    5.52   528.0    6.1      54.823
2014    8       28    21  59    5.53   528.1    6.1      54.778
2014    8       28    22   4    5.53   528.2    6.1      54.732
2014    8       28    22  10    5.54   528.3    6.0      54.684
2014    8       28    22  16    5.55   528.4    6.0      54.633
2014    8       28    22  22    5.55   528.5    6.0      54.580
2014    8       28    22  28    5.56   528.6    6.0      54.524
2014    8       28    22  34    5.56   528.8    6.0      54.465
2014    8       28    22  40    5.57   528.9    6.0      54.402
2014    8       28    22  46    5.57   529.0    5.9      54.335
2014    8       28    22  52    5.58   529.1    5.9      54.264
2014    8       28    22  58    5.58   529.2    5.9      54.187
2014    8       28    23   3    5.59   529.3    5.9      54.109
2014    8       28    23   9    5.59   529.4    5.8      54.023
2014    8       28    23  15    5.60   529.5    5.8      53.930
2014    8       28    23  21    5.60   529.6    5.8      53.831
2014    8       28    23  27    5.61   529.6    5.8      53.725
2014    8       28    23  33    5.61   529.7    5.7      53.613
2014    8       28    23  39    5.62   529.8    5.7      53.495
2014    8       28    23  45    5.62   529.9    5.7      53.373
2014    8       28    23  51    5.63   529.9    5.7      53.251
2014    8       28    23  57    5.63   530.0    5.6      53.126
2014    8       29     0   2    5.63   530.1    5.6      53.003
2014    8       29     0   8    5.64   530.1    5.6      52.879
2014    8       29     0  14    5.64   530.2    5.5      52.754
2014    8       29     0  20    5.64   530.2    5.5      52.628
2014    8       29     0  26    5.65   530.3    5.5      52.503
2014    8       29     0  32    5.65   530.3    5.5      52.378
2014    8       29     0  38    5.65   530.4    5.4      52.254
2014    8       29     0  44    5.65   530.4    5.4      52.131
2014    8       29     0  50    5.66   530.5    5.4      52.011
2014    8       29     0  56    5.66   530.5    5.3      51.893
2014    8       29     1   1    5.66   530.6    5.3      51.776
2014    8       29     1   7    5.66   530.7    5.3      51.662
2014    8       29     1  13    5.67   530.7    5.3      51.551
2014    8       29     1  19    5.67   530.8    5.3      51.442
2014    8       29     1  25    5.67   530.8    5.2      51.337
2014    8       29     1  31    5.67   530.8    5.2      51.236
2014    8       29     1  37    5.68   530.9    5.2      51.139
2014    8       29     1  43    5.68   530.9    5.2      51.047
2014    8       29     1  49    5.68   531.0    5.1      50.958
2014    8       29     1  55    5.68   531.0    5.1      50.873
2014    8       29     2   0    5.69   531.1    5.1      50.794
2014    8       29     2   6    5.69   531.2    5.1      50.719
2014    8       29     2  12    5.69   531.2    5.1      50.650
2014    8       29     2  18    5.69   531.3    5.1      50.586
2014    8       29     2  24    5.70   531.4    5.1      50.526
2014    8       29     2  30    5.70   531.4    5.0      50.472
2014    8       29     2  36    5.70   531.5    5.0      50.422
2014    8       29     2  42    5.71   531.6    5.0      50.377
2014    8       29     2  48    5.71   531.7    5.0      50.337
2014    8       29     2  54    5.71   531.8    5.0      50.302
2014    8       29     3   0    5.72   531.9    5.0      50.274
2014    8       29     3   5    5.72   531.9    5.0      50.252
2014    8       29     3  11    5.72   532.1    5.0      50.237
2014    8       29     3  17    5.73   532.2    5.0      50.230
2014    8       29     3  23    5.73   532.3    5.0      50.231
2014    8       29     3  29    5.73   532.4    5.0      50.240
2014    8       29     3  35    5.74   532.6    5.0      50.257
2014    8       29     3  41    5.74   532.7    4.9      50.282
2014    8       29     3  47    5.74   532.9    4.9      50.316
2014    8       29     3  53    5.74   533.0    4.9      50.359
2014    8       29     3  59    5.74   533.2    5.0      50.410
2014    8       29     4   5    5.75   533.3    5.0      50.468
2014    8       29     4  10    5.75   533.5    5.0      50.536
2014    8       29     4  16    5.75   533.7    5.0      50.621
2014    8       29     4  22    5.75   533.9    5.0      50.719
2014    8       29     4  28    5.75   534.1    5.0      50.829
2014    8       29     4  34    5.75   534.4    5.0      50.950
2014    8       29     4  40    5.75   534.7    5.0      51.080
2014    8       29     4  46    5.75   534.9    5.0      51.212
2014    8       29     4  52    5.75   535.2    5.0      51.342
2014    8       29     4  58    5.75   535.5    5.0      51.470
2014    8       29     5   4    5.75   535.7    5.0      51.595
2014    8       29     5   9    5.75   536.0    5.0      51.719
2014    8       29     5  15    5.75   536.3    5.0      51.844
2014    8       29     5  21    5.75   536.5    5.0      51.966
2014    8       29     5  27    5.74   536.8    5.0      52.087
2014    8       29     5  33    5.74   537.1    5.0      52.206
2014    8       29     5  39    5.74   537.4    5.0      52.322
2014    8       29     5  45    5.74   537.7    5.0      52.434
2014    8       29     5  51    5.74   538.0    5.0      52.540
2014    8       29     5  57    5.73   538.3    5.0      52.639
2014    8       29     6   3    5.73   538.5    5.0      52.732
2014    8       29     6   8    5.73   538.8    5.0      52.819
2014    8       29     6  14    5.72   539.1    5.0      52.901
2014    8       29     6  20    5.72   539.4    5.0      52.976
2014    8       29     6  26    5.72   539.7    5.0      53.046
2014    8       29     6  32    5.71   539.9    5.0      53.110
2014    8       29     6  38    5.71   540.2    5.0      53.169
2014    8       29     6  44    5.71   540.5    5.0      53.222
2014    8       29     6  50    5.70   540.7    5.0      53.272
2014    8       29     6  56    5.70   541.0    5.0      53.316
2014    8       29     7   2    5.70   541.3    5.0      53.357
2014    8       29     7   7    5.69   541.5    5.0      53.394
2014    8       29     7  13    5.69   541.8    5.0      53.427
2014    8       29     7  19    5.69   542.0    5.0      53.456
2014    8       29     7  25    5.68   542.3    5.0      53.483
2014    8       29     7  31    5.68   542.5    5.0      53.506
2014    8       29     7  37    5.67   542.8    5.0      53.527
2014    8       29     7  43    5.67   543.0    5.0      53.546
2014    8       29     7  49    5.67   543.3    4.9      53.563
2014    8       29     7  55    5.66   543.5    4.9      53.577
2014    8       29     8   1    5.66   543.8    4.9      53.590
2014    8       29     8   6    5.65   544.0    4.9      53.601
2014    8       29     8  12    5.65   544.2    4.9      53.610
2014    8       29     8  18    5.65   544.5    4.9      53.618
2014    8       29     8  24    5.64   544.7    4.9      53.625
2014    8       29     8  30    5.64   545.0    4.9      53.631
2014    8       29     8  36    5.63   545.2    4.9      53.636
2014    8       29     8  42    5.63   545.4    4.9      53.640
2014    8       29     8  48    5.63   545.7    4.9      53.644
2014    8       29     8  54    5.62   545.9    4.9      53.646
2014    8       29     9   0    5.62   546.2    4.8      53.648
2014    8       29     9   5    5.61   546.4    4.8      53.648
2014    8       29     9  11    5.61   546.6    4.8      53.649
2014    8       29     9  17    5.60   546.9    4.8      53.648
2014    8       29     9  23    5.60   547.1    4.8      53.648
2014    8       29     9  29    5.60   547.3    4.8      53.647
2014    8       29     9  35    5.59   547.6    4.8      53.645
2014    8       29     9  41    5.59   547.8    4.8      53.643
2014    8       29     9  47    5.58   548.1    4.8      53.641
2014    8       29     9  53    5.58   548.3    4.8      53.639
2014    8       29     9  59    5.58   548.5    4.8      53.636
2014    8       29    10   4    5.57   548.8    4.8      53.634
2014    8       29    10  10    5.57   549.0    4.8      53.630
2014    8       29    10  16    5.56   549.3    4.7      53.626
2014    8       29    10  22    5.56   549.5    4.7      53.622
2014    8       29    10  28    5.55   549.7    4.7      53.616
2014    8       29    10  34    5.55   550.0    4.7      53.611
2014    8       29    10  40    5.55   550.2    4.7      53.604
2014    8       29    10  46    5.54   550.5    4.7      53.598
2014    8       29    10  52    5.54   550.7    4.7      53.590
2014    8       29    10  58    5.53   551.0    4.7      53.583
2014    8       29    11   4    5.53   551.2    4.7      53.575
2014    8       29    11   9    5.53   551.5    4.7      53.567
2014    8       29    11  15    5.52   551.7    4.7      53.559
2014    8       29    11  21    5.52   552.0    4.7      53.550
2014    8       29    11  27    5.51   552.2    4.7      53.541
2014    8       29    11  33    5.51   552.5    4.6      53.531
2014    8       29    11  39    5.51   552.7    4.6      53.522
2014    8       29    11  45    5.50   553.0    4.6      53.511
2014    8       29    11  51    5.50   553.2    4.6      53.501
2014    8       29    11  57    5.49   553.5    4.6      53.491
2014    8       29    12   3    5.49   553.7    4.6      53.480
2014    8       29    12   8    5.49   553.9    4.6      53.470
2014    8       29    12  14    5.48   554.2    4.6      53.460
2014    8       29    12  20    5.48   554.4    4.6      53.450
2014    8       29    12  26    5.48   554.7    4.6      53.441
2014    8       29    12  32    5.47   554.9    4.6      53.432
2014    8       29    12  38    5.47   555.1    4.6      53.423
2014    8       29    12  44    5.47   555.4    4.6      53.415
2014    8       29    12  50    5.47   555.6    4.6      53.408
2014    8       29    12  56    5.46   555.8    4.6      53.401
2014    8       29    13   2    5.46   556.1    4.6      53.396
2014    8       29    13   7    5.46   556.3    4.5      53.391
2014    8       29    13  13    5.45   556.5    4.5      53.387
2014    8       29    13  19    5.45   556.7    4.5      53.385
2014    8       29    13  25    5.45   556.9    4.5      53.383
2014    8       29    13  31    5.45   557.2    4.5      53.383
2014    8       29    13  37    5.44   557.4    4.5      53.385
2014    8       29    13  43    5.44   557.6    4.5      53.388
2014    8       29    13  49    5.44   557.8    4.5      53.392
2014    8       29    13  55    5.44   558.0    4.5      53.399
2014    8       29    14   1    5.44   558.2    4.5      53.407
2014    8       29    14   6    5.43   558.4    4.5      53.418
2014    8       29    14  12    5.43   558.5    4.5      53.431
2014    8       29    14  18    5.43   558.7    4.5      53.447
2014    8       29    14  24    5.43   558.9    4.5      53.465
2014    8       29    14  30    5.43   559.1    4.5      53.486
2014    8       29    14  36    5.43   559.2    4.5      53.510
2014    8       29    14  42    5.43   559.4    4.5      53.538
2014    8       29    14  48    5.42   559.6    4.5      53.570
2014    8       29    14  54    5.42   559.8    4.5      53.606
2014    8       29    15   0    5.42   559.9    4.5      53.645
2014    8       29    15   5    5.42   560.1    4.5      53.686
2014    8       29    15  11    5.42   560.3    4.5      53.730
2014    8       29    15  17    5.42   560.5    4.5      53.774
2014    8       29    15  23    5.42   560.7    4.5      53.819
2014    8       29    15  29    5.42   560.9    4.5      53.865
2014    8       29    15  35    5.42   561.0    4.5      53.911
2014    8       29    15  41    5.42   561.2    4.5      53.957
2014    8       29    15  47    5.42   561.4    4.5      54.002
2014    8       29    15  53    5.42   561.6    4.5      54.047
2014    8       29    15  59    5.42   561.8    4.5      54.091
2014    8       29    16   4    5.41   562.0    4.5      54.133
2014    8       29    16  10    5.41   562.2    4.5      54.172
2014    8       29    16  16    5.41   562.4    4.5      54.211
2014    8       29    16  22    5.41   562.7    4.5      54.248
2014    8       29    16  28    5.41   562.9    4.5      54.285
2014    8       29    16  34    5.41   563.1    4.5      54.319
2014    8       29    16  40    5.41   563.3    4.4      54.353
2014    8       29    16  46    5.41   563.5    4.4      54.385
2014    8       29    16  52    5.41   563.7    4.4      54.417
2014    8       29    16  58    5.41   563.9    4.4      54.447
2014    8       29    17   3    5.41   564.1    4.4      54.477
2014    8       29    17   9    5.41   564.3    4.4      54.505
2014    8       29    17  15    5.41   564.6    4.4      54.533
2014    8       29    17  21    5.41   564.8    4.4      54.560
2014    8       29    17  27    5.41   565.0    4.4      54.587
2014    8       29    17  33    5.41   565.2    4.4      54.612
2014    8       29    17  39    5.41   565.4    4.4      54.637
2014    8       29    17  45    5.41   565.6    4.4      54.662
2014    8       29    17  51    5.41   565.9    4.4      54.685
2014    8       29    17  57    5.41   566.1    4.4      54.708
2014    8       29    18   2    5.41   566.3    4.4      54.730
2014    8       29    18   8    5.41   566.5    4.4      54.752
2014    8       29    18  14    5.41   566.7    4.4      54.773
2014    8       29    18  20    5.40   566.9    4.4      54.794
2014    8       29    18  26    5.40   567.1    4.4      54.814
2014    8       29    18  32    5.40   567.3    4.4      54.834
2014    8       29    18  38    5.40   567.5    4.4      54.853
2014    8       29    18  44    5.40   567.7    4.4      54.873
2014    8       29    18  50    5.40   567.9    4.3      54.892
2014    8       29    18  56    5.40   568.1    4.3      54.912
2014    8       29    19   2    5.40   568.3    4.3      54.932
2014    8       29    19   7    5.40   568.5    4.3      54.952
2014    8       29    19  13    5.40   568.7    4.3      54.973
2014    8       29    19  19    5.40   568.9    4.3      54.994
2014    8       29    19  25    5.40   569.0    4.3      55.015
2014    8       29    19  31    5.39   569.2    4.3      55.038
2014    8       29    19  37    5.39   569.4    4.3      55.061
2014    8       29    19  43    5.39   569.6    4.3      55.084
2014    8       29    19  49    5.39   569.8    4.3      55.109
2014    8       29    19  55    5.39   569.9    4.3      55.134
2014    8       29    20   0    5.39   570.1    4.3      55.161
2014    8       29    20   6    5.39   570.3    4.3      55.188
2014    8       29    20  12    5.39   570.5    4.3      55.215
2014    8       29    20  18    5.39   570.6    4.3      55.243
2014    8       29    20  24    5.39   570.8    4.3      55.272
2014    8       29    20  30    5.38   571.0    4.3      55.301
2014    8       29    20  36    5.38   571.1    4.3      55.331
2014    8       29    20  42    5.38   571.3    4.3      55.360
2014    8       29    20  48    5.38   571.5    4.3      55.390
2014    8       29    20  54    5.38   571.6    4.3      55.418
2014    8       29    20  59    5.38   571.8    4.3      55.446
2014    8       29    21   5    5.38   571.9    4.3      55.473
2014    8       29    21  11    5.38   572.1    4.3      55.499
2014    8       29    21  17    5.38   572.3    4.3      55.524
2014    8       29    21  23    5.38   572.4    4.3      55.548
2014    8       29    21  29    5.38   572.6    4.3      55.572
2014    8       29    21  35    5.37   572.7    4.2      55.594
2014    8       29    21  41    5.37   572.9    4.2      55.616
2014    8       29    21  47    5.37   573.0    4.2      55.637
2014    8       29    21  53    5.37   573.2    4.2      55.658
2014    8       29    21  58    5.37   573.3    4.2      55.678
2014    8       29    22   4    5.37   573.5    4.2      55.697
2014    8       29    22  10    5.37   573.6    4.2      55.716
2014    8       29    22  16    5.37   573.8    4.2      55.734
2014    8       29    22  22    5.37   573.9    4.2      55.752
2014    8       29    22  28    5.37   574.0    4.2      55.770
2014    8       29    22  34    5.37   574.2    4.2      55.788
2014    8       29    22  40    5.37   574.3    4.2      55.806
2014    8       29    22  46    5.36   574.5    4.2      55.824
2014    8       29    22  52    5.36   574.6    4.2      55.843
2014    8       29    22  57    5.36   574.7    4.2      55.861
2014    8       29    23   3    5.36   574.9    4.2      55.880
2014    8       29    23   9    5.36   575.0    4.2      55.900
2014    8       29    23  15    5.36   575.1    4.2      55.919
2014    8       29    23  21    5.36   575.3    4.2      55.939
2014    8       29    23  27    5.36   575.4    4.2      55.960
2014    8       29    23  33    5.36   575.5    4.2      55.982
2014    8       29    23  39    5.36   575.7    4.2      56.004
2014    8       29    23  45    5.36   575.8    4.2      56.027
2014    8       29    23  51    5.35   575.9    4.2      56.050
2014    8       29    23  56    5.35   576.1    4.2      56.074
2014    8       30     0   2    5.35   576.2    4.2      56.096
2014    8       30     0   8    5.35   576.3    4.2      56.119
2014    8       30     0  14    5.35   576.5    4.2      56.140
2014    8       30     0  20    5.35   576.6    4.2      56.161
2014    8       30     0  26    5.35   576.7    4.2      56.181
2014    8       30     0  32    5.35   576.9    4.2      56.200
2014    8       30     0  38    5.35   577.0    4.2      56.219
2014    8       30     0  44    5.34   577.1    4.2      56.237
2014    8       30     0  50    5.34   577.3    4.2      56.255
2014    8       30     0  55    5.34   577.4    4.1      56.272
2014    8       30     1   1    5.34   577.5    4.1      56.288
2014    8       30     1   7    5.34   577.6    4.1      56.304
2014    8       30     1  13    5.34   577.8    4.1      56.319
2014    8       30     1  19    5.34   577.9    4.1      56.334
2014    8       30     1  25    5.33   578.0    4.1      56.349
2014    8       30     1  31    5.33   578.2    4.1      56.363
2014    8       30     1  37    5.33   578.3    4.1      56.376
2014    8       30     1  43    5.33   578.4    4.1      56.389
2014    8       30     1  49    5.33   578.5    4.1      56.402
2014    8       30     1  54    5.33   578.6    4.1      56.414
2014    8       30     2   0    5.33   578.8    4.1      56.427
2014    8       30     2   6    5.32   578.9    4.1      56.439
2014    8       30     2  12    5.32   579.0    4.1      56.450
2014    8       30     2  18    5.32   579.1    4.1      56.462
2014    8       30     2  24    5.32   579.3    4.1      56.473
2014    8       30     2  30    5.32   579.4    4.1      56.484
2014    8       30     2  36    5.31   579.5    4.1      56.496
2014    8       30     2  42    5.31   579.6    4.1      56.507
2014    8       30     2  48    5.31   579.7    4.1      56.518
2014    8       30     2  53    5.31   579.8    4.1      56.529
2014    8       30     2  59    5.31   580.0    4.1      56.539
2014    8       30     3   5    5.31   580.1    4.1      56.550
2014    8       30     3  11    5.30   580.2    4.1      56.560
2014    8       30     3  17    5.30   580.3    4.1      56.570
2014    8       30     3  23    5.30   580.4    4.1      56.580
2014    8       30     3  29    5.30   580.5    4.1      56.590
2014    8       30     3  35    5.30   580.6    4.1      56.600
2014    8       30     3  41    5.29   580.7    4.1      56.610
2014    8       30     3  47    5.29   580.9    4.1      56.619
2014    8       30     3  52    5.29   581.0    4.1      56.628
2014    8       30     3  58    5.29   581.1    4.1      56.638
2014    8       30     4   4    5.29   581.2    4.1      56.647
2014    8       30     4  10    5.28   581.3    4.0      56.655
2014    8       30     4  16    5.28   581.4    4.0      56.664
2014    8       30     4  22    5.28   581.5    4.0      56.673
2014    8       30     4  28    5.28   581.6    4.0      56.681
2014    8       30     4  34    5.28   581.7    4.0      56.690
2014    8       30     4  40    5.27   581.8    4.0      56.698
2014    8       30     4  46    5.27   581.9    4.0      56.706
2014    8       30     4  51    5.27   582.0    4.0      56.714
2014    8       30     4  57    5.27   582.1    4.0      56.721
2014    8       30     5   3    5.27   582.2    4.0      56.729
2014    8       30     5   9    5.26   582.3    4.0      56.737
2014    8       30     5  15    5.26   582.4    4.0      56.744
2014    8       30     5  21    5.26   582.5    4.0      56.752
2014    8       30     5  27    5.26   582.6    4.0      56.759
2014    8       30     5  33    5.26   582.7    4.0      56.766
2014    8       30     5  39    5.25   582.8    4.0      56.774
2014    8       30     5  44    5.25   582.8    4.0      56.781
2014    8       30     5  50    5.25   582.9    4.0      56.788
2014    8       30     5  56    5.25   583.0    4.0      56.795
2014    8       30     6   2    5.24   583.1    4.0      56.802
2014    8       30     6   8    5.24   583.2    4.0      56.809
2014    8       30     6  14    5.24   583.3    4.0      56.815
2014    8       30     6  20    5.24   583.4    4.0      56.820
2014    8       30     6  26    5.24   583.5    4.0      56.825
2014    8       30     6  32    5.23   583.6    4.0      56.830
2014    8       30     6  38    5.23   583.7    4.0      56.834
2014    8       30     6  43    5.23   583.8    4.0      56.837
2014    8       30     6  49    5.23   583.9    4.0      56.840
2014    8       30     6  55    5.22   584.0    4.0      56.843
2014    8       30     7   1    5.22   584.1    4.0      56.845
2014    8       30     7   7    5.22   584.2    4.0      56.847
2014    8       30     7  13    5.22   584.2    4.0      56.849
2014    8       30     7  19    5.21   584.3    4.0      56.850
2014    8       30     7  25    5.21   584.4    4.0      56.850
2014    8       30     7  31    5.21   584.5    4.0      56.851
2014    8       30     7  37    5.21   584.6    3.9      56.850
2014    8       30     7  42    5.20   584.7    3.9      56.850
2014    8       30     7  48    5.20   584.8    3.9      56.849
2014    8       30     7  54    5.20   584.8    3.9      56.848
2014    8       30     8   0    5.20   584.9    3.9      56.847
2014    8       30     8   6    5.19   585.0    3.9      56.845
2014    8       30     8  12    5.19   585.1    3.9      56.844
2014    8       30     8  18    5.19   585.2    3.9      56.842
2014    8       30     8  24    5.19   585.2    3.9      56.840
2014    8       30     8  30    5.18   585.3    3.9      56.837
2014    8       30     8  36    5.18   585.4    3.9      56.835
2014    8       30     8  41    5.18   585.5    3.9      56.833
2014    8       30     8  47    5.18   585.6    3.9      56.831
2014    8       30     8  53    5.17   585.6    3.9      56.828
2014    8       30     8  59    5.17   585.7    3.9      56.826
2014    8       30     9   5    5.17   585.8    3.9      56.824
2014    8       30     9  11    5.17   585.9    3.9      56.822
2014    8       30     9  17    5.16   585.9    3.9      56.821
2014    8       30     9  23    5.16   586.0    3.9      56.819
2014    8       30     9  29    5.16   586.1    3.9      56.818
2014    8       30     9  35    5.16   586.1    3.9      56.816
2014    8       30     9  40    5.15   586.2    3.9      56.816
2014    8       30     9  46    5.15   586.3    3.9      56.815
2014    8       30     9  52    5.15   586.3    3.9      56.814
2014    8       30     9  58    5.15   586.4    3.9      56.814
2014    8       30    10   4    5.14   586.5    3.9      56.813
2014    8       30    10  10    5.14   586.6    3.9      56.813
2014    8       30    10  16    5.14   586.6    3.9      56.813
2014    8       30    10  22    5.13   586.7    3.9      56.813
2014    8       30    10  28    5.13   586.8    3.9      56.813
2014    8       30    10  34    5.13   586.8    3.9      56.813
2014    8       30    10  39    5.13   586.9    3.9      56.813
2014    8       30    10  45    5.12   587.0    3.9      56.813
2014    8       30    10  51    5.12   587.0    3.9      56.812
2014    8       30    10  57    5.12   587.1    3.9      56.812
2014    8       30    11   3    5.12   587.2    3.9      56.811
2014    8       30    11   9    5.11   587.2    3.8      56.811
2014    8       30    11  15    5.11   587.3    3.8      56.810
2014    8       30    11  21    5.11   587.4    3.8      56.809
2014    8       30    11  27    5.11   587.4    3.8      56.808
2014    8       30    11  33    5.10   587.5    3.8      56.807
2014    8       30    11  38    5.10   587.5    3.8      56.805
2014    8       30    11  44    5.10   587.6    3.8      56.804
2014    8       30    11  50    5.09   587.7    3.8      56.802
2014    8       30    11  56    5.09   587.7    3.8      56.800
2014    8       30    12   2    5.09   587.8    3.8      56.798
2014    8       30    12   8    5.09   587.8    3.8      56.796
2014    8       30    12  14    5.08   587.9    3.8      56.794
2014    8       30    12  20    5.08   588.0    3.8      56.791
2014    8       30    12  26    5.08   588.0    3.8      56.789
2014    8       30    12  31    5.07   588.1    3.8      56.786
2014    8       30    12  37    5.07   588.1    3.8      56.784
2014    8       30    12  43    5.07   588.2    3.8      56.781
2014    8       30    12  49    5.07   588.2    3.8      56.778
2014    8       30    12  55    5.06   588.3    3.8      56.774
2014    8       30    13   1    5.06   588.3    3.8      56.771
2014    8       30    13   7    5.06   588.4    3.8      56.767
2014    8       30    13  13    5.05   588.5    3.8      56.763
2014    8       30    13  19    5.05   588.5    3.8      56.759
2014    8       30    13  25    5.05   588.6    3.8      56.754
2014    8       30    13  30    5.05   588.6    3.8      56.749
2014    8       30    13  36    5.04   588.7    3.8      56.743
2014    8       30    13  42    5.04   588.7    3.8      56.737
2014    8       30    13  48    5.04   588.8    3.8      56.731
2014    8       30    13  54    5.03   588.8    3.8      56.724
2014    8       30    14   0    5.03   588.8    3.8      56.717
2014    8       30    14   6    5.03   588.9    3.8      56.709
2014    8       30    14  12    5.02   588.9    3.8      56.701
2014    8       30    14  18    5.02   589.0    3.8      56.692
2014    8       30    14  24    5.02   589.0    3.8      56.683
2014    8       30    14  29    5.02   589.1    3.8      56.673
2014    8       30    14  35    5.01   589.1    3.8      56.664
2014    8       30    14  41    5.01   589.1    3.8      56.653
2014    8       30    14  47    5.01   589.2    3.8      56.643
2014    8       30    14  53    5.00   589.2    3.8      56.632
2014    8       30    14  59    5.00   589.3    3.8      56.621
2014    8       30    15   5    5.00   589.3    3.7      56.609
2014    8       30    15  11    4.99   589.3    3.7      56.597
2014    8       30    15  17    4.99   589.4    3.7      56.585
2014    8       30    15  23    4.99   589.4    3.7      56.572
2014    8       30    15  28    4.99   589.4    3.7      56.560
2014    8       30    15  34    4.98   589.5    3.7      56.547
2014    8       30    15  40    4.98   589.5    3.7      56.534
2014    8       30    15  46    4.98   589.5    3.7      56.521
2014    8       30    15  52    4.97   589.6    3.7      56.507
2014    8       30    15  58    4.97   589.6    3.7      56.494
2014    8       30    16   4    4.97   589.6    3.7      56.480
2014    8       30    16  10    4.96   589.6    3.7      56.467
2014    8       30    16  16    4.96   589.7    3.7      56.453
2014    8       30    16  22    4.96   589.7    3.7      56.440
2014    8       30    16  27    4.96   589.7    3.7      56.427
2014    8       30    16  33    4.95   589.7    3.7      56.413
2014    8       30    16  39    4.95   589.8    3.7      56.400
2014    8       30    16  45    4.95   589.8    3.7      56.387
2014    8       30    16  51    4.94   589.8    3.7      56.373
2014    8       30    16  57    4.94   589.8    3.7      56.361
2014    8       30    17   3    4.94   589.8    3.7      56.347
2014    8       30    17   9    4.94   589.9    3.7      56.335
2014    8       30    17  15    4.93   589.9    3.7      56.322
2014    8       30    17  21    4.93   589.9    3.7      56.310
2014    8       30    17  26    4.93   589.9    3.7      56.297
2014    8       30    17  32    4.92   589.9    3.7      56.285
2014    8       30    17  38    4.92   590.0    3.7      56.273
2014    8       30    17  44    4.92   590.0    3.7      56.261
2014    8       30    17  50    4.91   590.0    3.7      56.249
2014    8       30    17  56    4.91   590.0    3.7      56.237
2014    8       30    18   2    4.91   590.0    3.7      56.225
2014    8       30    18   8    4.91   590.0    3.7      56.214
2014    8       30    18  14    4.90   590.1    3.7      56.202
2014    8       30    18  20    4.90   590.1    3.7      56.190
2014    8       30    18  25    4.90   590.1    3.7      56.178
2014    8       30    18  31    4.89   590.1    3.7      56.166
2014    8       30    18  37    4.89   590.1    3.7      56.154
2014    8       30    18  43    4.89   590.1    3.7      56.142
2014    8       30    18  49    4.88   590.1    3.7      56.130
2014    8       30    18  55    4.88   590.1    3.7      56.117
2014    8       30    19   1    4.88   590.1    3.7      56.105
2014    8       30    19   7    4.87   590.1    3.6      56.092
2014    8       30    19  13    4.87   590.2    3.6      56.079
2014    8       30    19  18    4.87   590.2    3.6      56.066
2014    8       30    19  24    4.87   590.2    3.6      56.053
2014    8       30    19  30    4.86   590.2    3.6      56.040
2014    8       30    19  36    4.86   590.2    3.6      56.026
2014    8       30    19  42    4.86   590.2    3.6      56.012
2014    8       30    19  48    4.85   590.2    3.6      55.998
2014    8       30    19  54    4.85   590.2    3.6      55.985
2014    8       30    20   0    4.85   590.2    3.6      55.970
2014    8       30    20   6    4.84   590.2    3.6      55.956
2014    8       30    20  12    4.84   590.2    3.6      55.941
2014    8       30    20  17    4.84   590.2    3.6      55.926
2014    8       30    20  23    4.83   590.2    3.6      55.911
2014    8       30    20  29    4.83   590.2    3.6      55.896
2014    8       30    20  35    4.83   590.2    3.6      55.880
2014    8       30    20  41    4.83   590.2    3.6      55.865
2014    8       30    20  47    4.82   590.2    3.6      55.848
2014    8       30    20  53    4.82   590.1    3.6      55.832
2014    8       30    20  59    4.82   590.1    3.6      55.815
2014    8       30    21   5    4.81   590.1    3.6      55.797
2014    8       30    21  11    4.81   590.1    3.6      55.779
2014    8       30    21  16    4.81   590.1    3.6      55.761
2014    8       30    21  22    4.80   590.1    3.6      55.743
2014    8       30    21  28    4.80   590.1    3.6      55.724
2014    8       30    21  34    4.80   590.1    3.6      55.705
2014    8       30    21  40    4.80   590.1    3.6      55.686
2014    8       30    21  46    4.79   590.1    3.6      55.666
2014    8       30    21  52    4.79   590.1    3.6      55.647
2014    8       30    21  58    4.79   590.0    3.6      55.626
2014    8       30    22   4    4.78   590.0    3.6      55.606
2014    8       30    22  10    4.78   590.0    3.6      55.586
2014    8       30    22  15    4.78   590.0    3.6      55.565
2014    8       30    22  21    4.78   590.0    3.6      55.544
2014    8       30    22  27    4.77   590.0    3.6      55.523
2014    8       30    22  33    4.77   589.9    3.6      55.502
2014    8       30    22  39    4.77   589.9    3.6      55.481
2014    8       30    22  45    4.76   589.9    3.6      55.460
2014    8       30    22  51    4.76   589.9    3.6      55.439
2014    8       30    22  57    4.76   589.9    3.6      55.417
2014    8       30    23   3    4.75   589.9    3.6      55.396
2014    8       30    23   9    4.75   589.8    3.6      55.374
2014    8       30    23  14    4.75   589.8    3.6      55.353
2014    8       30    23  20    4.75   589.8    3.6      55.332
2014    8       30    23  26    4.74   589.8    3.5      55.310
2014    8       30    23  32    4.74   589.7    3.5      55.289
2014    8       30    23  38    4.74   589.7    3.5      55.268
2014    8       30    23  44    4.73   589.7    3.5      55.247
2014    8       30    23  50    4.73   589.7    3.5      55.226
2014    8       30    23  56    4.73   589.7    3.5      55.205
2014    8       31     0   2    4.72   589.6    3.5      55.184
2014    8       31     0   8    4.72   589.6    3.5      55.162
2014    8       31     0  13    4.72   589.6    3.5      55.142
2014    8       31     0  19    4.72   589.5    3.5      55.120
2014    8       31     0  25    4.71   589.5    3.5      55.099
2014    8       31     0  31    4.71   589.5    3.5      55.078
2014    8       31     0  37    4.71   589.5    3.5      55.057
2014    8       31     0  43    4.70   589.4    3.5      55.036
2014    8       31     0  49    4.70   589.4    3.5      55.015
2014    8       31     0  55    4.70   589.4    3.5      54.994
2014    8       31     1   1    4.69   589.3    3.5      54.972
2014    8       31     1   7    4.69   589.3    3.5      54.951
2014    8       31     1  12    4.69   589.3    3.5      54.929
2014    8       31     1  18    4.68   589.2    3.5      54.907
2014    8       31     1  24    4.68   589.2    3.5      54.886
2014    8       31     1  30    4.68   589.1    3.5      54.863
2014    8       31     1  36    4.67   589.1    3.5      54.841
2014    8       31     1  42    4.67   589.1    3.5      54.819
2014    8       31     1  48    4.67   589.0    3.5      54.796
2014    8       31     1  54    4.67   589.0    3.5      54.773
2014    8       31     2   0    4.66   588.9    3.5      54.750
2014    8       31     2   5    4.66   588.9    3.5      54.727
2014    8       31     2  11    4.66   588.8    3.5      54.704
2014    8       31     2  17    4.65   588.8    3.5      54.680
2014    8       31     2  23    4.65   588.7    3.5      54.657
2014    8       31     2  29    4.65   588.7    3.5      54.633
2014    8       31     2  35    4.64   588.6    3.5      54.609
2014    8       31     2  41    4.64   588.6    3.5      54.585
2014    8       31     2  47    4.64   588.5    3.5      54.561
2014    8       31     2  53    4.64   588.5    3.5      54.537
2014    8       31     2  59    4.63   588.4    3.5      54.513
2014    8       31     3   4    4.63   588.4    3.5      54.489
2014    8       31     3  10    4.63   588.3    3.5      54.464
2014    8       31     3  16    4.62   588.2    3.5      54.440
2014    8       31     3  22    4.62   588.2    3.5      54.416
2014    8       31     3  28    4.62   588.1    3.5      54.391
2014    8       31     3  34    4.62   588.1    3.5      54.367
2014    8       31     3  40    4.61   588.0    3.5      54.343
2014    8       31     3  46    4.61   588.0    3.5      54.318
2014    8       31     3  52    4.61   587.9    3.5      54.294
2014    8       31     3  58    4.60   587.8    3.5      54.269
2014    8       31     4   3    4.60   587.8    3.5      54.244
2014    8       31     4   9    4.60   587.7    3.5      54.219
2014    8       31     4  15    4.60   587.6    3.5      54.194
2014    8       31     4  21    4.59   587.6    3.5      54.168
2014    8       31     4  27    4.59   587.5    3.5      54.142
2014    8       31     4  33    4.59   587.5    3.5      54.116
2014    8       31     4  39    4.59   587.4    3.5      54.090
2014    8       31     4  45    4.58   587.3    3.5      54.063
2014    8       31     4  51    4.58   587.3    3.5      54.036
2014    8       31     4  57    4.58   587.2    3.5      54.008
2014    8       31     5   2    4.58   587.1    3.4      53.980
2014    8       31     5   8    4.57   587.1    3.4      53.953
2014    8       31     5  14    4.57   587.0    3.4      53.924
2014    8       31     5  20    4.57   586.9    3.4      53.896
2014    8       31     5  26    4.56   586.9    3.4      53.867
2014    8       31     5  32    4.56   586.8    3.4      53.838
2014    8       31     5  38    4.56   586.7    3.4      53.809
2014    8       31     5  44    4.56   586.7    3.4      53.780
2014    8       31     5  50    4.55   586.6    3.4      53.751
2014    8       31     5  56    4.55   586.5    3.4      53.721
2014    8       31     6   1    4.55   586.4    3.4      53.692
2014    8       31     6   7    4.55   586.4    3.4      53.663
2014    8       31     6  13    4.54   586.3    3.4      53.633
2014    8       31     6  19    4.54   586.2    3.4      53.604
2014    8       31     6  25    4.54   586.2    3.4      53.575
2014    8       31     6  31    4.53   586.1    3.4      53.546
2014    8       31     6  37    4.53   586.0    3.4      53.516
2014    8       31     6  43    4.53   585.9    3.4      53.487
2014    8       31     6  49    4.53   585.9    3.4      53.458
2014    8       31     6  55    4.52   585.8    3.4      53.428
2014    8       31     7   0    4.52   585.7    3.4      53.399
2014    8       31     7   6    4.52   585.6    3.4      53.370
2014    8       31     7  12    4.51   585.5    3.4      53.340
2014    8       31     7  18    4.51   585.5    3.4      53.311
2014    8       31     7  24    4.51   585.4    3.4      53.282
2014    8       31     7  30    4.51   585.3    3.4      53.252
2014    8       31     7  36    4.50   585.2    3.4      53.222
2014    8       31     7  42    4.50   585.1    3.4      53.193
2014    8       31     7  48    4.50   585.0    3.4      53.162
2014    8       31     7  53    4.49   585.0    3.4      53.132
2014    8       31     7  59    4.49   584.9    3.4      53.101
2014    8       31     8   5    4.49   584.8    3.4      53.070
2014    8       31     8  11    4.49   584.7    3.4      53.039
2014    8       31     8  17    4.48   584.6    3.4      53.007
2014    8       31     8  23    4.48   584.5    3.4      52.974
2014    8       31     8  29    4.48   584.4    3.4      52.942
2014    8       31     8  35    4.47   584.3    3.4      52.909
2014    8       31     8  41    4.47   584.2    3.4      52.875
2014    8       31     8  47    4.47   584.1    3.4      52.842
2014    8       31     8  52    4.47   584.0    3.4      52.807
2014    8       31     8  58    4.46   583.9    3.4      52.773
2014    8       31     9   4    4.46   583.8    3.4      52.738
2014    8       31     9  10    4.46   583.7    3.4      52.703
2014    8       31     9  16    4.45   583.6    3.4      52.669
2014    8       31     9  22    4.45   583.5    3.4      52.633
2014    8       31     9  28    4.45   583.4    3.4      52.599
2014    8       31     9  34    4.45   583.3    3.4      52.564
2014    8       31     9  40    4.44   583.2    3.4      52.529
2014    8       31     9  46    4.44   583.1    3.4      52.495
2014    8       31     9  51    4.44   583.0    3.4      52.462
2014    8       31     9  57    4.43   582.9    3.4      52.428
2014    8       31    10   3    4.43   582.8    3.4      52.395
2014    8       31    10   9    4.43   582.7    3.4      52.363
2014    8       31    10  15    4.43   582.5    3.4      52.332
2014    8       31    10  21    4.42   582.4    3.4      52.301
2014    8       31    10  27    4.42   582.3    3.4      52.271
2014    8       31    10  33    4.42   582.2    3.4      52.242
2014    8       31    10  39    4.42   582.1    3.4      52.214
2014    8       31    10  45    4.41   582.0    3.4      52.186
2014    8       31    10  50    4.41   581.9    3.4      52.159
2014    8       31    10  56    4.41   581.8    3.4      52.133
2014    8       31    11   2    4.41   581.7    3.4      52.107
2014    8       31    11   8    4.41   581.6    3.4      52.082
2014    8       31    11  14    4.40   581.5    3.4      52.057
2014    8       31    11  20    4.40   581.4    3.4      52.033
2014    8       31    11  26    4.40   581.3    3.4      52.009
2014    8       31    11  32    4.40   581.2    3.4      51.985
2014    8       31    11  38    4.39   581.1    3.4      51.961
2014    8       31    11  43    4.39   581.0    3.4      51.938
2014    8       31    11  49    4.39   580.8    3.4      51.914
2014    8       31    11  55    4.39   580.7    3.4      51.891
2014    8       31    12   1    4.38   580.6    3.4      51.868
2014    8       31    12   7    4.38   580.5    3.4      51.844
2014    8       31    12  13    4.38   580.4    3.4      51.819
2014    8       31    12  19    4.38   580.3    3.4      51.795
2014    8       31    12  25    4.38   580.2    3.4      51.770
2014    8       31    12  31    4.37   580.1    3.4      51.744
2014    8       31    12  37    4.37   580.0    3.4      51.718
2014    8       31    12  42    4.37   579.9    3.4      51.691
2014    8       31    12  48    4.37   579.8    3.4      51.664
2014    8       31    12  54    4.36   579.7    3.4      51.637
2014    8       31    13   0    4.36   579.6    3.4      51.609
2014    8       31    13   6    4.36   579.5    3.4      51.580
2014    8       31    13  12    4.36   579.4    3.4      51.551
2014    8       31    13  18    4.35   579.2    3.4      51.522
2014    8       31    13  24    4.35   579.1    3.4      51.492
2014    8       31    13  30    4.35   579.0    3.3      51.462
2014    8       31    13  36    4.35   578.9    3.3      51.432
2014    8       31    13  41    4.34   578.8    3.3      51.401
2014    8       31    13  47    4.34   578.7    3.3      51.370
2014    8       31    13  53    4.34   578.5    3.3      51.338
2014    8       31    13  59    4.34   578.4    3.3      51.306
2014    8       31    14   5    4.33   578.3    3.3      51.273
2014    8       31    14  11    4.33   578.2    3.3      51.240
2014    8       31    14  17    4.33   578.1    3.3      51.206
2014    8       31    14  23    4.33   577.9    3.3      51.173
2014    8       31    14  29    4.32   577.8    3.3      51.139
2014    8       31    14  35    4.32   577.7    3.3      51.104
2014    8       31    14  40    4.32   577.6    3.3      51.069
2014    8       31    14  46    4.32   577.4    3.3      51.034
2014    8       31    14  52    4.31   577.3    3.3      50.998
2014    8       31    14  58    4.31   577.2    3.3      50.962
2014    8       31    15   4    4.31   577.0    3.3      50.926
2014    8       31    15  10    4.31   576.9    3.3      50.889
2014    8       31    15  16    4.30   576.8    3.3      50.851
2014    8       31    15  22    4.30   576.6    3.3      50.813
2014    8       31    15  28    4.30   576.5    3.3      50.774
2014    8       31    15  34    4.30   576.4    3.3      50.734
2014    8       31    15  39    4.29   576.2    3.3      50.694
2014    8       31    15  45    4.29   576.1    3.3      50.654
2014    8       31    15  51    4.29   575.9    3.3      50.613
2014    8       31    15  57    4.29   575.8    3.3      50.572
2014    8       31    16   3    4.28   575.7    3.3      50.530
2014    8       31    16   9    4.28   575.5    3.3      50.488
2014    8       31    16  15    4.28   575.4    3.3      50.445
2014    8       31    16  21    4.28   575.2    3.3      50.402
2014    8       31    16  27    4.27   575.1    3.3      50.358
2014    8       31    16  32    4.27   574.9    3.3      50.315
2014    8       31    16  38    4.27   574.8    3.3      50.271
2014    8       31    16  44    4.27   574.6    3.3      50.227
2014    8       31    16  50    4.26   574.5    3.3      50.182
2014    8       31    16  56    4.26   574.3    3.3      50.139
2014    8       31    17   2    4.26   574.2    3.3      50.095
2014    8       31    17   8    4.26   574.0    3.3      50.051
2014    8       31    17  14    4.26   573.9    3.3      50.008
2014    8       31    17  20    4.25   573.7    3.3      49.965
2014    8       31    17  26    4.25   573.6    3.3      49.923
2014    8       31    17  31    4.25   573.4    3.3      49.882
2014    8       31    17  37    4.25   573.3    3.3      49.841
2014    8       31    17  43    4.24   573.1    3.3      49.801
2014    8       31    17  49    4.24   573.0    3.3      49.762
2014    8       31    17  55    4.24   572.8    3.3      49.724
2014    8       31    18   1    4.24   572.7    3.3      49.686
2014    8       31    18   7    4.24   572.5    3.3      49.650
2014    8       31    18  13    4.23   572.4    3.3      49.614
2014    8       31    18  19    4.23   572.2    3.3      49.580
2014    8       31    18  25    4.23   572.1    3.3      49.546
2014    8       31    18  30    4.23   571.9    3.3      49.513
2014    8       31    18  36    4.23   571.8    3.3      49.481
2014    8       31    18  42    4.23   571.6    3.3      49.450
2014    8       31    18  48    4.22   571.5    3.3      49.419
2014    8       31    18  54    4.22   571.4    3.3      49.388
2014    8       31    19   0    4.22   571.2    3.3      49.357
2014    8       31    19   6    4.22   571.1    3.3      49.327
2014    8       31    19  12    4.22   571.0    3.3      49.296
2014    8       31    19  18    4.21   570.8    3.3      49.266
2014    8       31    19  24    4.21   570.7    3.3      49.236
2014    8       31    19  29    4.21   570.5    3.3      49.206
2014    8       31    19  35    4.21   570.4    3.3      49.176
2014    8       31    19  41    4.20   570.2    3.3      49.146
2014    8       31    19  47    4.20   570.1    3.3      49.115
2014    8       31    19  53    4.20   570.0    3.3      49.084
2014    8       31    19  59    4.20   569.8    3.3      49.052
2014    8       31    20   5    4.20   569.7    3.3      49.021
2014    8       31    20  11    4.19   569.5    3.3      48.989
2014    8       31    20  17    4.19   569.4    3.3      48.957
2014    8       31    20  23    4.19   569.2    3.3      48.925
2014    8       31    20  28    4.19   569.0    3.3      48.893
2014    8       31    20  34    4.18   568.9    3.3      48.861
2014    8       31    20  40    4.18   568.7    3.3      48.829
2014    8       31    20  46    4.18   568.6    3.3      48.798
2014    8       31    20  52    4.18   568.4    3.3      48.767
2014    8       31    20  58    4.18   568.3    3.3      48.736
2014    8       31    21   4    4.17   568.1    3.3      48.705
2014    8       31    21  10    4.17   567.9    3.3      48.676
2014    8       31    21  16    4.17   567.8    3.3      48.647
2014    8       31    21  22    4.17   567.6    3.3      48.618
2014    8       31    21  27    4.17   567.4    3.3      48.591
2014    8       31    21  33    4.16   567.3    3.3      48.564
2014    8       31    21  39    4.16   567.1    3.3      48.538
2014    8       31    21  45    4.16   566.9    3.3      48.513
2014    8       31    21  51    4.16   566.8    3.3      48.488
2014    8       31    21  57    4.16   566.6    3.3      48.462
2014    8       31    22   3    4.15   566.5    3.3      48.438
2014    8       31    22   9    4.15   566.3    3.3      48.415
2014    8       31    22  15    4.15   566.1    3.3      48.393
2014    8       31    22  21    4.15   566.0    3.3      48.371
2014    8       31    22  26    4.15   565.8    3.3      48.349
2014    8       31    22  32    4.15   565.6    3.3      48.328
2014    8       31    22  38    4.14   565.5    3.3      48.306
2014    8       31    22  44    4.14   565.3    3.3      48.283
2014    8       31    22  50    4.14   565.2    3.3      48.259
2014    8       31    22  56    4.14   565.0    3.3      48.234
2014    8       31    23   2    4.14   564.9    3.3      48.208
2014    8       31    23   8    4.14   564.7    3.3      48.181
2014    8       31    23  14    4.13   564.6    3.3      48.152
2014    8       31    23  19    4.13   564.4    3.3      48.123
2014    8       31    23  25    4.13   564.3    3.3      48.092
2014    8       31    23  31    4.13   564.1    3.3      48.061
2014    8       31    23  37    4.13   564.0    3.3      48.028
2014    8       31    23  43    4.12   563.8    3.3      47.994
2014    8       31    23  49    4.12   563.7    3.3      47.960
2014    8       31    23  55    4.12   563.5    3.3      47.924
2014    9        1     0   1    4.12   563.4    3.3      47.888
2014    9        1     0   7    4.12   563.2    3.3      47.850
2014    9        1     0  13    4.12   563.1    3.3      47.812
2014    9        1     0  18    4.11   562.9    3.3      47.773
2014    9        1     0  24    4.11   562.8    3.3      47.733
2014    9        1     0  30    4.11   562.6    3.3      47.692
2014    9        1     0  36    4.11   562.5    3.3      47.651
2014    9        1     0  42    4.11   562.3    3.3      47.609
2014    9        1     0  48    4.10   562.1    3.3      47.566
2014    9        1     0  54    4.10   562.0    3.3      47.523
2014    9        1     1   0    4.10   561.8    3.3      47.480
2014    9        1     1   6    4.10   561.7    3.3      47.436
2014    9        1     1  11    4.10   561.5    3.3      47.392
2014    9        1     1  17    4.09   561.3    3.3      47.348
2014    9        1     1  23    4.09   561.2    3.3      47.304
2014    9        1     1  29    4.09   561.0    3.3      47.259
2014    9        1     1  35    4.09   560.8    3.3      47.214
2014    9        1     1  41    4.09   560.7    3.3      47.169
2014    9        1     1  47    4.08   560.5    3.3      47.123
2014    9        1     1  53    4.08   560.3    3.3      47.078
2014    9        1     1  59    4.08   560.1    3.3      47.032
2014    9        1     2   5    4.08   560.0    3.3      46.987
2014    9        1     2  10    4.08   559.8    3.3      46.941
2014    9        1     2  16    4.07   559.6    3.3      46.895
2014    9        1     2  22    4.07   559.5    3.3      46.849
2014    9        1     2  28    4.07   559.3    3.3      46.802
2014    9        1     2  34    4.07   559.1    3.3      46.756
2014    9        1     2  40    4.07   558.9    3.3      46.709
2014    9        1     2  46    4.06   558.8    3.3      46.662
2014    9        1     2  52    4.06   558.6    3.3      46.615
2014    9        1     2  58    4.06   558.4    3.3      46.568
2014    9        1     3   4    4.06   558.2    3.3      46.521
2014    9        1     3   9    4.06   558.0    3.3      46.475
2014    9        1     3  15    4.05   557.8    3.3      46.428
2014    9        1     3  21    4.05   557.7    3.3      46.382
2014    9        1     3  27    4.05   557.5    3.3      46.336
2014    9        1     3  33    4.05   557.3    3.3      46.290
2014    9        1     3  39    4.05   557.1    3.3      46.245
2014    9        1     3  45    4.04   556.9    3.3      46.200
2014    9        1     3  51    4.04   556.7    3.3      46.156
2014    9        1     3  57    4.04   556.5    3.3      46.113
2014    9        1     4   3    4.04   556.3    3.3      46.071
2014    9        1     4   8    4.04   556.1    3.3      46.030
2014    9        1     4  14    4.03   555.9    3.3      45.989
2014    9        1     4  20    4.03   555.8    3.3      45.950
2014    9        1     4  26    4.03   555.6    3.3      45.913
2014    9        1     4  32    4.03   555.4    3.3      45.877
2014    9        1     4  38    4.03   555.2    3.3      45.843
2014    9        1     4  44    4.03   555.0    3.3      45.811
2014    9        1     4  50    4.02   554.8    3.3      45.780
2014    9        1     4  56    4.02   554.6    3.3      45.751
2014    9        1     5   2    4.02   554.4    3.3      45.723
2014    9        1     5   7    4.02   554.2    3.3      45.698
2014    9        1     5  13    4.02   554.1    3.3      45.674
2014    9        1     5  19    4.02   553.9    3.3      45.652
2014    9        1     5  25    4.02   553.7    3.3      45.631
2014    9        1     5  31    4.01   553.5    3.3      45.611
2014    9        1     5  37    4.01   553.4    3.3      45.590
2014    9        1     5  43    4.01   553.2    3.3      45.570
2014    9        1     5  49    4.01   553.0    3.3      45.548
2014    9        1     5  55    4.01   552.8    3.3      45.527
2014    9        1     6   1    4.01   552.7    3.3      45.505
2014    9        1     6   6    4.01   552.5    3.3      45.483
2014    9        1     6  12    4.00   552.3    3.3      45.459
2014    9        1     6  18    4.00   552.1    3.3      45.436
2014    9        1     6  24    4.00   552.0    3.3      45.412
2014    9        1     6  30    4.00   551.8    3.3      45.387
2014    9        1     6  36    4.00   551.6    3.3      45.362
2014    9        1     6  42    4.00   551.5    3.3      45.336
2014    9        1     6  48    3.99   551.3    3.3      45.310
2014    9        1     6  54    3.99   551.1    3.3      45.283
2014    9        1     6  59    3.99   550.9    3.3      45.256
2014    9        1     7   5    3.99   550.8    3.3      45.229
2014    9        1     7  11    3.99   550.6    3.3      45.201
2014    9        1     7  17    3.99   550.4    3.3      45.173
2014    9        1     7  23    3.98   550.2    3.3      45.144
2014    9        1     7  29    3.98   550.0    3.3      45.115
2014    9        1     7  35    3.98   549.9    3.3      45.085
2014    9        1     7  41    3.98   549.7    3.3      45.055
2014    9        1     7  47    3.98   549.5    3.3      45.025
2014    9        1     7  53    3.98   549.3    3.3      44.994
2014    9        1     7  58    3.97   549.1    3.3      44.963
2014    9        1     8   4    3.97   548.9    3.3      44.932
2014    9        1     8  10    3.97   548.7    3.3      44.900
2014    9        1     8  16    3.97   548.5    3.3      44.868
2014    9        1     8  22    3.97   548.3    3.3      44.837
2014    9        1     8  28    3.97   548.1    3.3      44.806
2014    9        1     8  34    3.96   548.0    3.3      44.775
2014    9        1     8  40    3.96   547.8    3.3      44.745
2014    9        1     8  46    3.96   547.6    3.3      44.715
2014    9        1     8  52    3.96   547.4    3.3      44.685
2014    9        1     8  57    3.96   547.2    3.3      44.655
2014    9        1     9   3    3.96   547.0    3.3      44.625
2014    9        1     9   9    3.95   546.8    3.3      44.594
2014    9        1     9  15    3.95   546.6    3.3      44.562
2014    9        1     9  21    3.95   546.4    3.3      44.530
2014    9        1     9  27    3.95   546.3    3.3      44.497
2014    9        1     9  33    3.95   546.1    3.3      44.464
2014    9        1     9  39    3.95   545.9    3.3      44.429
2014    9        1     9  45    3.94   545.7    3.3      44.394
2014    9        1     9  51    3.94   545.5    3.3      44.359
2014    9        1     9  56    3.94   545.3    3.3      44.322
2014    9        1    10   2    3.94   545.2    3.3      44.285
2014    9        1    10   8    3.94   545.0    3.3      44.247
2014    9        1    10  14    3.93   544.8    3.3      44.209
2014    9        1    10  20    3.93   544.6    3.3      44.169
2014    9        1    10  26    3.93   544.4    3.3      44.129
2014    9        1    10  32    3.93   544.2    3.3      44.089
2014    9        1    10  38    3.93   544.1    3.3      44.048
2014    9        1    10  44    3.93   543.9    3.3      44.006
2014    9        1    10  49    3.92   543.7    3.3      43.964
2014    9        1    10  55    3.92   543.5    3.3      43.921
2014    9        1    11   1    3.92   543.3    3.3      43.879
2014    9        1    11   7    3.92   543.1    3.3      43.835
2014    9        1    11  13    3.92   542.9    3.3      43.792
2014    9        1    11  19    3.92   542.7    3.3      43.748
2014    9        1    11  25    3.91   542.5    3.3      43.704
2014    9        1    11  31    3.91   542.3    3.3      43.660
2014    9        1    11  37    3.91   542.1    3.3      43.616
2014    9        1    11  43    3.91   541.9    3.3      43.571
2014    9        1    11  48    3.91   541.7    3.3      43.527
2014    9        1    11  54    3.90   541.5    3.3      43.483
2014    9        1    12   0    3.90   541.3    3.3      43.439
2014    9        1    12   6    3.90   541.1    3.3      43.395
2014    9        1    12  12    3.90   540.9    3.3      43.352
2014    9        1    12  18    3.90   540.7    3.3      43.308
2014    9        1    12  24    3.90   540.5    3.3      43.265
2014    9        1    12  30    3.89   540.3    3.3      43.222
2014    9        1    12  36    3.89   540.1    3.3      43.179
2014    9        1    12  42    3.89   539.9    3.3      43.137
2014    9        1    12  47    3.89   539.7    3.3      43.095
2014    9        1    12  53    3.89   539.5    3.3      43.053
2014    9        1    12  59    3.89   539.3    3.3      43.012
2014    9        1    13   5    3.88   539.1    3.3      42.971
2014    9        1    13  11    3.88   538.9    3.3      42.930
2014    9        1    13  17    3.88   538.7    3.3      42.889
2014    9        1    13  23    3.88   538.4    3.3      42.849
2014    9        1    13  29    3.88   538.2    3.3      42.810
2014    9        1    13  35    3.88   538.0    3.3      42.770
2014    9        1    13  41    3.87   537.8    3.3      42.732
2014    9        1    13  46    3.87   537.6    3.3      42.693
2014    9        1    13  52    3.87   537.3    3.3      42.655
2014    9        1    13  58    3.87   537.1    3.3      42.617
2014    9        1    14   4    3.87   536.9    3.3      42.580
2014    9        1    14  10    3.87   536.7    3.3      42.543
2014    9        1    14  16    3.86   536.5    3.3      42.507
2014    9        1    14  22    3.86   536.2    3.3      42.471
2014    9        1    14  28    3.86   536.0    3.3      42.436
2014    9        1    14  34    3.86   535.8    3.3      42.402
2014    9        1    14  39    3.86   535.5    3.3      42.368
2014    9        1    14  45    3.86   535.3    3.3      42.335
2014    9        1    14  51    3.86   535.1    3.3      42.303
2014    9        1    14  57    3.85   534.8    3.3      42.271
2014    9        1    15   3    3.85   534.6    3.3      42.241
2014    9        1    15   9    3.85   534.4    3.3      42.211
2014    9        1    15  15    3.85   534.1    3.3      42.183
2014    9        1    15  21    3.85   533.9    3.3      42.157
2014    9        1    15  27    3.85   533.7    3.3      42.132
2014    9        1    15  33    3.85   533.5    3.3      42.108
2014    9        1    15  38    3.85   533.2    3.3      42.086
2014    9        1    15  44    3.84   533.0    3.3      42.066
2014    9        1    15  50    3.84   532.8    3.3      42.046
2014    9        1    15  56    3.84   532.6    3.3      42.027
2014    9        1    16   2    3.84   532.4    3.3      42.008
2014    9        1    16   8    3.84   532.2    3.3      41.990
2014    9        1    16  14    3.84   531.9    3.3      41.971
2014    9        1    16  20    3.84   531.7    3.3      41.953
2014    9        1    16  26    3.84   531.5    3.3      41.935
2014    9        1    16  32    3.84   531.3    3.3      41.917
2014    9        1    16  37    3.84   531.1    3.3      41.898
2014    9        1    16  43    3.83   530.9    3.3      41.879
2014    9        1    16  49    3.83   530.7    3.3      41.860
2014    9        1    16  55    3.83   530.5    3.4      41.840
2014    9        1    17   1    3.83   530.3    3.4      41.820
2014    9        1    17   7    3.83   530.1    3.4      41.799
2014    9        1    17  13    3.83   529.9    3.4      41.778
2014    9        1    17  19    3.83   529.7    3.4      41.756
2014    9        1    17  25    3.83   529.5    3.4      41.734
2014    9        1    17  31    3.82   529.3    3.4      41.711
2014    9        1    17  36    3.82   529.1    3.4      41.687
2014    9        1    17  42    3.82   528.9    3.4      41.663
2014    9        1    17  48    3.82   528.7    3.4      41.637
2014    9        1    17  54    3.82   528.5    3.4      41.612
2014    9        1    18   0    3.82   528.3    3.4      41.586
2014    9        1    18   6    3.82   528.1    3.4      41.559
2014    9        1    18  12    3.81   527.9    3.4      41.532
2014    9        1    18  18    3.81   527.6    3.4      41.504
2014    9        1    18  24    3.81   527.4    3.4      41.477
2014    9        1    18  30    3.81   527.2    3.4      41.449
2014    9        1    18  35    3.81   527.0    3.4      41.420
2014    9        1    18  41    3.81   526.8    3.4      41.392
2014    9        1    18  47    3.81   526.5    3.4      41.363
2014    9        1    18  53    3.81   526.3    3.4      41.334
2014    9        1    18  59    3.80   526.1    3.4      41.305
2014    9        1    19   5    3.80   525.9    3.4      41.276
2014    9        1    19  11    3.80   525.7    3.4      41.246
2014    9        1    19  17    3.80   525.5    3.4      41.217
2014    9        1    19  23    3.80   525.2    3.4      41.188
2014    9        1    19  29    3.80   525.0    3.4      41.159
2014    9        1    19  34    3.80   524.8    3.4      41.130
2014    9        1    19  40    3.80   524.6    3.4      41.101
2014    9        1    19  46    3.79   524.4    3.4      41.073
2014    9        1    19  52    3.79   524.1    3.4      41.044
2014    9        1    19  58    3.79   523.9    3.4      41.016
2014    9        1    20   4    3.79   523.7    3.4      40.987
2014    9        1    20  10    3.79   523.5    3.4      40.958
2014    9        1    20  16    3.79   523.3    3.4      40.928
2014    9        1    20  22    3.79   523.0    3.4      40.898
2014    9        1    20  27    3.79   522.8    3.4      40.867
2014    9        1    20  33    3.78   522.6    3.4      40.836
2014    9        1    20  39    3.78   522.4    3.4      40.804
2014    9        1    20  45    3.78   522.1    3.4      40.772
2014    9        1    20  51    3.78   521.9    3.4      40.739
2014    9        1    20  57    3.78   521.7    3.4      40.706
2014    9        1    21   3    3.78   521.5    3.4      40.672
2014    9        1    21   9    3.78   521.2    3.4      40.637
2014    9        1    21  15    3.78   521.0    3.4      40.602
2014    9        1    21  21    3.78   520.8    3.4      40.567
2014    9        1    21  26    3.77   520.5    3.4      40.532
2014    9        1    21  32    3.77   520.3    3.4      40.496
2014    9        1    21  38    3.77   520.1    3.4      40.460
2014    9        1    21  44    3.77   519.8    3.4      40.424
2014    9        1    21  50    3.77   519.6    3.4      40.388
2014    9        1    21  56    3.77   519.3    3.4      40.353
2014    9        1    22   2    3.77   519.1    3.4      40.317
2014    9        1    22   8    3.77   518.9    3.4      40.282
2014    9        1    22  14    3.77   518.6    3.4      40.248
2014    9        1    22  20    3.77   518.4    3.4      40.214
2014    9        1    22  25    3.76   518.2    3.4      40.180
2014    9        1    22  31    3.76   517.9    3.4      40.147
2014    9        1    22  37    3.76   517.7    3.4      40.115
2014    9        1    22  43    3.76   517.5    3.4      40.083
2014    9        1    22  49    3.76   517.3    3.4      40.052
2014    9        1    22  55    3.76   517.0    3.4      40.022
2014    9        1    23   1    3.76   516.8    3.4      39.992
2014    9        1    23   7    3.76   516.6    3.4      39.963
2014    9        1    23  13    3.76   516.4    3.4      39.935
2014    9        1    23  18    3.76   516.1    3.4      39.907
2014    9        1    23  24    3.76   515.9    3.4      39.880
2014    9        1    23  30    3.76   515.7    3.4      39.853
2014    9        1    23  36    3.75   515.5    3.4      39.826
2014    9        1    23  42    3.75   515.3    3.4      39.800
2014    9        1    23  48    3.75   515.0    3.4      39.775
2014    9        1    23  54    3.75   514.8    3.4      39.749
2014    9        2     0   0    3.75   514.6    3.4      39.723
2014    9        2     0   6    3.75   514.4    3.4      39.698
2014    9        2     0  12    3.75   514.2    3.4      39.672
2014    9        2     0  17    3.75   513.9    3.4      39.647
2014    9        2     0  23    3.75   513.7    3.4      39.622
2014    9        2     0  29    3.75   513.5    3.4      39.596
2014    9        2     0  35    3.75   513.2    3.5      39.571
2014    9        2     0  41    3.75   513.0    3.5      39.545
2014    9        2     0  47    3.75   512.8    3.5      39.520
2014    9        2     0  53    3.74   512.5    3.5      39.494
2014    9        2     0  59    3.74   512.3    3.5      39.469
2014    9        2     1   5    3.74   512.1    3.5      39.443
2014    9        2     1  11    3.74   511.8    3.5      39.419
2014    9        2     1  16    3.74   511.6    3.5      39.394
2014    9        2     1  22    3.74   511.4    3.5      39.370
2014    9        2     1  28    3.74   511.1    3.5      39.346
2014    9        2     1  34    3.74   510.9    3.5      39.323
2014    9        2     1  40    3.74   510.6    3.5      39.300
2014    9        2     1  46    3.74   510.4    3.5      39.277
2014    9        2     1  52    3.74   510.2    3.5      39.255
2014    9        2     1  58    3.74   509.9    3.5      39.234
2014    9        2     2   4    3.74   509.7    3.5      39.213
2014    9        2     2  10    3.74   509.4    3.5      39.193
2014    9        2     2  15    3.74   509.2    3.5      39.174
2014    9        2     2  21    3.74   509.0    3.5      39.155
2014    9        2     2  27    3.74   508.7    3.5      39.136
2014    9        2     2  33    3.73   508.5    3.5      39.119
2014    9        2     2  39    3.73   508.3    3.5      39.102
2014    9        2     2  45    3.73   508.0    3.5      39.086
2014    9        2     2  51    3.73   507.8    3.5      39.070
2014    9        2     2  57    3.73   507.6    3.5      39.056
2014    9        2     3   3    3.73   507.4    3.5      39.041
2014    9        2     3   9    3.73   507.1    3.5      39.028
2014    9        2     3  14    3.73   506.9    3.5      39.014
2014    9        2     3  20    3.73   506.7    3.5      39.001
2014    9        2     3  26    3.73   506.5    3.5      38.988
2014    9        2     3  32    3.73   506.2    3.5      38.975
2014    9        2     3  38    3.73   506.0    3.5      38.961
2014    9        2     3  44    3.73   505.8    3.6      38.948
2014    9        2     3  50    3.73   505.6    3.6      38.934
2014    9        2     3  56    3.73   505.4    3.6      38.920
2014    9        2     4   2    3.73   505.1    3.6      38.906
2014    9        2     4   7    3.73   504.9    3.6      38.892
2014    9        2     4  13    3.73   504.7    3.6      38.877
2014    9        2     4  19    3.73   504.5    3.6      38.861
2014    9        2     4  25    3.73   504.3    3.6      38.846
2014    9        2     4  31    3.73   504.1    3.6      38.829
2014    9        2     4  37    3.73   503.9    3.6      38.812
2014    9        2     4  43    3.73   503.6    3.6      38.795
2014    9        2     4  49    3.73   503.4    3.6      38.777
2014    9        2     4  55    3.73   503.2    3.6      38.759
2014    9        2     5   1    3.73   503.0    3.6      38.740
2014    9        2     5   6    3.73   502.8    3.6      38.721
2014    9        2     5  12    3.73   502.6    3.6      38.701
2014    9        2     5  18    3.73   502.4    3.6      38.681
2014    9        2     5  24    3.73   502.2    3.6      38.661
2014    9        2     5  30    3.73   502.0    3.6      38.640
2014    9        2     5  36    3.73   501.8    3.6      38.619
2014    9        2     5  42    3.73   501.5    3.6      38.598
2014    9        2     5  48    3.73   501.3    3.6      38.576
2014    9        2     5  54    3.73   501.1    3.6      38.553
2014    9        2     6   0    3.73   500.9    3.6      38.531
2014    9        2     6   5    3.73   500.7    3.6      38.508
2014    9        2     6  11    3.73   500.5    3.6      38.484
2014    9        2     6  17    3.73   500.3    3.6      38.461
2014    9        2     6  23    3.73   500.1    3.6      38.437
2014    9        2     6  29    3.73   499.9    3.6      38.413
2014    9        2     6  35    3.73   499.7    3.6      38.388
2014    9        2     6  41    3.73   499.4    3.6      38.364
2014    9        2     6  47    3.72   499.2    3.6      38.339
2014    9        2     6  53    3.72   499.0    3.6      38.313
2014    9        2     6  58    3.72   498.8    3.6      38.288
2014    9        2     7   4    3.72   498.6    3.6      38.263
2014    9        2     7  10    3.72   498.4    3.6      38.237
2014    9        2     7  16    3.72   498.2    3.6      38.211
2014    9        2     7  22    3.72   498.0    3.7      38.185
2014    9        2     7  28    3.72   497.8    3.7      38.159
2014    9        2     7  34    3.72   497.5    3.7      38.133
2014    9        2     7  40    3.72   497.3    3.7      38.107
2014    9        2     7  46    3.72   497.1    3.7      38.081
2014    9        2     7  52    3.72   496.9    3.7      38.055
2014    9        2     7  57    3.72   496.7    3.7      38.029
2014    9        2     8   3    3.72   496.5    3.7      38.004
2014    9        2     8   9    3.72   496.3    3.7      37.979
2014    9        2     8  15    3.72   496.0    3.7      37.954
2014    9        2     8  21    3.72   495.8    3.7      37.929
2014    9        2     8  27    3.72   495.6    3.7      37.905
2014    9        2     8  33    3.72   495.4    3.7      37.881
2014    9        2     8  39    3.72   495.2    3.7      37.857
2014    9        2     8  45    3.72   495.0    3.7      37.834
2014    9        2     8  51    3.72   494.8    3.7      37.811
2014    9        2     8  56    3.72   494.5    3.7      37.789
2014    9        2     9   2    3.72   494.3    3.7      37.767
2014    9        2     9   8    3.72   494.1    3.7      37.746
2014    9        2     9  14    3.72   493.9    3.7      37.725
2014    9        2     9  20    3.72   493.7    3.7      37.705
2014    9        2     9  26    3.72   493.5    3.7      37.685
2014    9        2     9  32    3.72   493.3    3.7      37.666
2014    9        2     9  38    3.72   493.0    3.7      37.648
2014    9        2     9  44    3.72   492.8    3.7      37.630
2014    9        2     9  50    3.72   492.6    3.7      37.612
2014    9        2     9  55    3.72   492.4    3.7      37.595
2014    9        2    10   1    3.72   492.2    3.7      37.579
2014    9        2    10   7    3.72   492.0    3.7      37.563
2014    9        2    10  13    3.72   491.8    3.7      37.547
2014    9        2    10  19    3.72   491.6    3.7      37.532
2014    9        2    10  25    3.72   491.4    3.7      37.517
2014    9        2    10  31    3.73   491.2    3.7      37.503
2014    9        2    10  37    3.73   491.0    3.8      37.489
2014    9        2    10  43    3.73   490.8    3.8      37.475
2014    9        2    10  49    3.73   490.6    3.8      37.461
2014    9        2    10  54    3.73   490.4    3.8      37.448
2014    9        2    11   0    3.73   490.2    3.8      37.435
2014    9        2    11   6    3.73   490.0    3.8      37.422
2014    9        2    11  12    3.73   489.8    3.8      37.408
2014    9        2    11  18    3.73   489.6    3.8      37.395
2014    9        2    11  24    3.73   489.4    3.8      37.383
2014    9        2    11  30    3.73   489.2    3.8      37.370
2014    9        2    11  36    3.73   489.0    3.8      37.357
2014    9        2    11  42    3.73   488.8    3.8      37.343
2014    9        2    11  47    3.73   488.6    3.8      37.330
2014    9        2    11  53    3.73   488.4    3.8      37.316
2014    9        2    11  59    3.73   488.2    3.8      37.303
2014    9        2    12   5    3.73   488.0    3.8      37.289
2014    9        2    12  11    3.73   487.8    3.8      37.275
2014    9        2    12  17    3.73   487.6    3.8      37.261
2014    9        2    12  23    3.73   487.4    3.8      37.247
2014    9        2    12  29    3.73   487.3    3.8      37.232
2014    9        2    12  35    3.73   487.1    3.8      37.218
2014    9        2    12  41    3.73   486.9    3.8      37.203
2014    9        2    12  46    3.73   486.7    3.8      37.188
2014    9        2    12  52    3.73   486.5    3.8      37.173
2014    9        2    12  58    3.73   486.3    3.8      37.158
2014    9        2    13   4    3.73   486.1    3.9      37.142
2014    9        2    13  10    3.73   485.9    3.9      37.127
2014    9        2    13  16    3.73   485.7    3.9      37.111
2014    9        2    13  22    3.73   485.5    3.9      37.095
2014    9        2    13  28    3.73   485.4    3.9      37.079
2014    9        2    13  34    3.73   485.2    3.9      37.063
2014    9        2    13  39    3.73   485.0    3.9      37.047
2014    9        2    13  45    3.73   484.8    3.9      37.030
2014    9        2    13  51    3.73   484.6    3.9      37.014
2014    9        2    13  57    3.73   484.4    3.9      36.997
2014    9        2    14   3    3.73   484.2    3.9      36.980
2014    9        2    14   9    3.74   484.1    3.9      36.963
2014    9        2    14  15    3.74   483.9    3.9      36.945
2014    9        2    14  21    3.74   483.7    3.9      36.928
2014    9        2    14  27    3.74   483.5    3.9      36.910
2014    9        2    14  33    3.74   483.3    3.9      36.893
2014    9        2    14  38    3.74   483.1    3.9      36.875
2014    9        2    14  44    3.74   482.9    3.9      36.857
2014    9        2    14  50    3.74   482.8    3.9      36.839
2014    9        2    14  56    3.74   482.6    3.9      36.820
2014    9        2    15   2    3.74   482.4    3.9      36.802
2014    9        2    15   8    3.74   482.2    3.9      36.784
2014    9        2    15  14    3.74   482.0    3.9      36.765
2014    9        2    15  20    3.74   481.8    3.9      36.747
2014    9        2    15  26    3.74   481.7    3.9      36.728
2014    9        2    15  32    3.74   481.5    3.9      36.709
2014    9        2    15  37    3.74   481.3    3.9      36.691
2014    9        2    15  43    3.74   481.1    3.9      36.672
2014    9        2    15  49    3.74   480.9    3.9      36.653
2014    9        2    15  55    3.74   480.7    3.9      36.635
2014    9        2    16   1    3.74   480.6    3.9      36.616
2014    9        2    16   7    3.74   480.4    3.9      36.598
2014    9        2    16  13    3.74   480.2    3.9      36.579
2014    9        2    16  19    3.74   480.0    4.0      36.561
2014    9        2    16  25    3.74   479.8    4.0      36.542
2014    9        2    16  31    3.74   479.7    4.0      36.524
2014    9        2    16  36    3.74   479.5    4.0      36.506
2014    9        2    16  42    3.74   479.3    4.0      36.488
2014    9        2    16  48    3.74   479.1    4.0      36.470
2014    9        2    16  54    3.74   478.9    4.0      36.453
2014    9        2    17   0    3.74   478.8    4.0      36.435
2014    9        2    17   6    3.74   478.6    4.0      36.418
2014    9        2    17  12    3.74   478.4    4.0      36.400
2014    9        2    17  18    3.74   478.2    4.0      36.383
2014    9        2    17  24    3.74   478.0    4.0      36.366
2014    9        2    17  30    3.74   477.9    4.0      36.349
2014    9        2    17  35    3.74   477.7    4.0      36.332
2014    9        2    17  41    3.74   477.5    4.0      36.316
2014    9        2    17  47    3.74   477.3    4.0      36.299
2014    9        2    17  53    3.74   477.1    4.0      36.283
2014    9        2    17  59    3.74   477.0    4.0      36.266
2014    9        2    18   5    3.74   476.8    4.0      36.250
2014    9        2    18  11    3.74   476.6    4.0      36.234
2014    9        2    18  17    3.74   476.4    4.0      36.218
2014    9        2    18  23    3.74   476.2    4.0      36.202
2014    9        2    18  28    3.74   476.1    4.0      36.186
2014    9        2    18  34    3.75   475.9    4.0      36.170
2014    9        2    18  40    3.75   475.7    4.0      36.154
2014    9        2    18  46    3.75   475.5    4.0      36.138
2014    9        2    18  52    3.75   475.4    4.0      36.123
2014    9        2    18  58    3.75   475.2    4.0      36.107
2014    9        2    19   4    3.75   475.0    4.0      36.091
2014    9        2    19  10    3.75   474.8    4.0      36.076
2014    9        2    19  16    3.75   474.7    4.1      36.060
2014    9        2    19  22    3.75   474.5    4.1      36.044
2014    9        2    19  27    3.75   474.3    4.1      36.029
2014    9        2    19  33    3.75   474.1    4.1      36.013
2014    9        2    19  39    3.75   474.0    4.1      35.998
2014    9        2    19  45    3.75   473.8    4.1      35.982
2014    9        2    19  51    3.75   473.6    4.1      35.966
2014    9        2    19  57    3.75   473.5    4.1      35.951
2014    9        2    20   3    3.75   473.3    4.1      35.935
2014    9        2    20   9    3.75   473.1    4.1      35.919
2014    9        2    20  15    3.75   472.9    4.1      35.904
2014    9        2    20  21    3.75   472.8    4.1      35.888
2014    9        2    20  26    3.75   472.6    4.1      35.872
2014    9        2    20  32    3.75   472.4    4.1      35.856
2014    9        2    20  38    3.75   472.2    4.1      35.840
2014    9        2    20  44    3.75   472.1    4.1      35.825
2014    9        2    20  50    3.75   471.9    4.1      35.809
2014    9        2    20  56    3.75   471.7    4.1      35.793
2014    9        2    21   2    3.75   471.6    4.1      35.777
2014    9        2    21   8    3.75   471.4    4.1      35.761
2014    9        2    21  14    3.75   471.2    4.1      35.745
2014    9        2    21  19    3.75   471.0    4.1      35.729
2014    9        2    21  25    3.75   470.9    4.1      35.713
2014    9        2    21  31    3.75   470.7    4.1      35.697
2014    9        2    21  37    3.75   470.5    4.1      35.680
2014    9        2    21  43    3.75   470.4    4.1      35.664
2014    9        2    21  49    3.75   470.2    4.1      35.648
2014    9        2    21  55    3.75   470.0    4.1      35.631
2014    9        2    22   1    3.75   469.8    4.1      35.614
2014    9        2    22   7    3.75   469.7    4.1      35.598
2014    9        2    22  13    3.75   469.5    4.2      35.581
2014    9        2    22  18    3.75   469.3    4.2      35.564
2014    9        2    22  24    3.75   469.2    4.2      35.547
2014    9        2    22  30    3.75   469.0    4.2      35.530
2014    9        2    22  36    3.75   468.8    4.2      35.513
2014    9        2    22  42    3.75   468.7    4.2      35.496
2014    9        2    22  48    3.75   468.5    4.2      35.478
2014    9        2    22  54    3.75   468.3    4.2      35.461
2014    9        2    23   0    3.75   468.2    4.2      35.443
2014    9        2    23   6    3.75   468.0    4.2      35.425
2014    9        2    23  12    3.75   467.8    4.2      35.408
2014    9        2    23  17    3.75   467.7    4.2      35.390
2014    9        2    23  23    3.75   467.5    4.2      35.372
2014    9        2    23  29    3.76   467.3    4.2      35.353
2014    9        2    23  35    3.76   467.2    4.2      35.335
2014    9        2    23  41    3.76   467.0    4.2      35.317
2014    9        2    23  47    3.76   466.8    4.2      35.298
2014    9        2    23  53    3.76   466.7    4.2      35.279
2014    9        2    23  59    3.76   466.5    4.2      35.261
2014    9        3     0   5    3.76   466.3    4.2      35.242
