year    month   day   hour  minute  B_enl V_enl   n_enl       T_enl
[year] [month] [day] [hour][minute] [nT]  [km/s]  [cm-3]      [kK]
2015    9       20     0   2    2.8154   456.5    4.183      31.346
2015    9       20     0   9    2.8176   456.2    4.192      31.323
2015    9       20     0  15    2.8200   455.8    4.201      31.301
2015    9       20     0  22    2.8224   455.5    4.210      31.280
2015    9       20     0  29    2.8248   455.1    4.219      31.258
2015    9       20     0  35    2.8273   454.7    4.228      31.237
2015    9       20     0  42    2.8299   454.4    4.237      31.216
2015    9       20     0  48    2.8325   454.0    4.247      31.196
2015    9       20     0  55    2.8352   453.7    4.257      31.176
2015    9       20     1   1    2.8380   453.3    4.267      31.157
2015    9       20     1   8    2.8409   453.0    4.277      31.138
2015    9       20     1  15    2.8438   452.6    4.287      31.119
2015    9       20     1  21    2.8468   452.3    4.298      31.101
2015    9       20     1  28    2.8499   451.9    4.309      31.083
2015    9       20     1  34    2.8531   451.6    4.320      31.066
2015    9       20     1  41    2.8563   451.2    4.332      31.050
2015    9       20     1  47    2.8597   450.9    4.344      31.034
2015    9       20     1  54    2.8632   450.5    4.356      31.019
2015    9       20     2   1    2.8668   450.2    4.368      31.005
2015    9       20     2   7    2.8705   449.8    4.381      30.991
2015    9       20     2  14    2.8743   449.4    4.395      30.979
2015    9       20     2  20    2.8782   449.1    4.409      30.967
2015    9       20     2  27    2.8823   448.7    4.423      30.956
2015    9       20     2  33    2.8865   448.4    4.438      30.947
2015    9       20     2  40    2.8909   448.0    4.453      30.939
2015    9       20     2  47    2.8954   447.7    4.469      30.932
2015    9       20     2  53    2.9001   447.3    4.486      30.926
2015    9       20     3   0    2.9049   447.0    4.503      30.922
2015    9       20     3   6    2.9099   446.6    4.520      30.920
2015    9       20     3  13    2.9150   446.3    4.539      30.921
2015    9       20     3  20    2.9204   445.9    4.558      30.922
2015    9       20     3  26    2.9258   445.6    4.577      30.926
2015    9       20     3  33    2.9315   445.2    4.597      30.931
2015    9       20     3  39    2.9372   444.9    4.618      30.939
2015    9       20     3  46    2.9432   444.6    4.639      30.951
2015    9       20     3  52    2.9493   444.3    4.661      30.965
2015    9       20     3  59    2.9555   443.9    4.683      30.983
2015    9       20     4   6    2.9617   443.6    4.705      31.002
2015    9       20     4  12    2.9682   443.3    4.728      31.024
2015    9       20     4  19    2.9745   443.0    4.750      31.048
2015    9       20     4  25    2.9811   442.8    4.773      31.075
2015    9       20     4  32    2.9875   442.5    4.795      31.103
2015    9       20     4  38    2.9941   442.2    4.817      31.133
2015    9       20     4  45    3.0005   441.9    4.839      31.165
2015    9       20     4  52    3.0070   441.7    4.861      31.198
2015    9       20     4  58    3.0134   441.4    4.882      31.233
2015    9       20     5   5    3.0199   441.2    4.902      31.268
2015    9       20     5  11    3.0263   440.9    4.922      31.301
2015    9       20     5  18    3.0328   440.7    4.942      31.333
2015    9       20     5  24    3.0392   440.5    4.961      31.364
2015    9       20     5  31    3.0456   440.2    4.981      31.393
2015    9       20     5  38    3.0520   440.0    4.999      31.422
2015    9       20     5  44    3.0584   439.7    5.018      31.450
2015    9       20     5  51    3.0648   439.5    5.036      31.477
2015    9       20     5  57    3.0713   439.3    5.054      31.503
2015    9       20     6   4    3.0777   439.1    5.072      31.529
2015    9       20     6  11    3.0841   438.8    5.090      31.554
2015    9       20     6  17    3.0905   438.6    5.108      31.578
2015    9       20     6  24    3.0970   438.4    5.125      31.601
2015    9       20     6  30    3.1035   438.2    5.142      31.624
2015    9       20     6  37    3.1100   438.0    5.160      31.647
2015    9       20     6  43    3.1165   437.8    5.177      31.669
2015    9       20     6  50    3.1231   437.6    5.194      31.690
2015    9       20     6  57    3.1297   437.3    5.211      31.711
2015    9       20     7   3    3.1364   437.1    5.228      31.732
2015    9       20     7  10    3.1431   436.9    5.245      31.752
2015    9       20     7  16    3.1499   436.7    5.262      31.772
2015    9       20     7  23    3.1567   436.5    5.280      31.792
2015    9       20     7  29    3.1636   436.3    5.297      31.812
2015    9       20     7  36    3.1705   436.1    5.314      31.831
2015    9       20     7  43    3.1775   436.0    5.332      31.851
2015    9       20     7  49    3.1846   435.8    5.349      31.871
2015    9       20     7  56    3.1917   435.6    5.367      31.892
2015    9       20     8   2    3.1989   435.4    5.385      31.912
2015    9       20     8   9    3.2063   435.2    5.403      31.933
2015    9       20     8  15    3.2137   435.0    5.421      31.955
2015    9       20     8  22    3.2213   434.9    5.440      31.978
2015    9       20     8  29    3.2289   434.7    5.459      32.001
2015    9       20     8  35    3.2367   434.5    5.479      32.026
2015    9       20     8  42    3.2445   434.4    5.499      32.051
2015    9       20     8  48    3.2525   434.2    5.519      32.078
2015    9       20     8  55    3.2606   434.0    5.540      32.106
2015    9       20     9   1    3.2690   433.9    5.562      32.136
2015    9       20     9   8    3.2774   433.7    5.584      32.167
2015    9       20     9  15    3.2860   433.6    5.607      32.200
2015    9       20     9  21    3.2947   433.4    5.630      32.235
2015    9       20     9  28    3.3037   433.3    5.655      32.272
2015    9       20     9  34    3.3128   433.2    5.680      32.311
2015    9       20     9  41    3.3222   433.0    5.706      32.352
2015    9       20     9  47    3.3317   432.9    5.733      32.396
2015    9       20     9  54    3.3415   432.8    5.761      32.443
2015    9       20    10   1    3.3514   432.7    5.790      32.491
2015    9       20    10   7    3.3616   432.6    5.820      32.543
2015    9       20    10  14    3.3721   432.5    5.851      32.598
2015    9       20    10  20    3.3828   432.4    5.884      32.656
2015    9       20    10  27    3.3937   432.3    5.918      32.718
2015    9       20    10  33    3.4050   432.2    5.953      32.785
2015    9       20    10  40    3.4164   432.1    5.990      32.857
2015    9       20    10  47    3.4282   432.1    6.028      32.934
2015    9       20    10  53    3.4401   432.0    6.066      33.014
2015    9       20    11   0    3.4523   431.9    6.106      33.101
2015    9       20    11   6    3.4646   431.9    6.147      33.193
2015    9       20    11  13    3.4771   431.9    6.188      33.292
2015    9       20    11  20    3.4896   431.9    6.228      33.398
2015    9       20    11  26    3.5022   431.9    6.269      33.509
2015    9       20    11  33    3.5146   432.0    6.309      33.626
2015    9       20    11  39    3.5269   432.0    6.348      33.747
2015    9       20    11  46    3.5390   432.1    6.386      33.869
2015    9       20    11  52    3.5511   432.1    6.422      33.989
2015    9       20    11  59    3.5628   432.2    6.458      34.107
2015    9       20    12   6    3.5745   432.2    6.491      34.221
2015    9       20    12  12    3.5859   432.3    6.523      34.333
2015    9       20    12  19    3.5973   432.4    6.554      34.440
2015    9       20    12  25    3.6084   432.4    6.584      34.543
2015    9       20    12  32    3.6195   432.5    6.612      34.642
2015    9       20    12  38    3.6303   432.5    6.639      34.736
2015    9       20    12  45    3.6412   432.5    6.666      34.827
2015    9       20    12  52    3.6519   432.6    6.691      34.915
2015    9       20    12  58    3.6627   432.6    6.716      34.999
2015    9       20    13   5    3.6733   432.7    6.739      35.081
2015    9       20    13  11    3.6839   432.7    6.762      35.160
2015    9       20    13  18    3.6944   432.7    6.785      35.236
2015    9       20    13  24    3.7050   432.8    6.807      35.310
2015    9       20    13  31    3.7155   432.8    6.828      35.382
2015    9       20    13  38    3.7261   432.8    6.849      35.452
2015    9       20    13  44    3.7366   432.8    6.869      35.520
2015    9       20    13  51    3.7472   432.9    6.890      35.586
2015    9       20    13  57    3.7577   432.9    6.909      35.651
2015    9       20    14   4    3.7683   432.9    6.929      35.715
2015    9       20    14  11    3.7789   432.9    6.948      35.778
2015    9       20    14  17    3.7895   432.9    6.967      35.839
2015    9       20    14  24    3.8001   433.0    6.986      35.900
2015    9       20    14  30    3.8109   433.0    7.004      35.960
2015    9       20    14  37    3.8215   433.0    7.023      36.019
2015    9       20    14  43    3.8323   433.0    7.041      36.077
2015    9       20    14  50    3.8431   433.1    7.059      36.135
2015    9       20    14  57    3.8539   433.1    7.077      36.193
2015    9       20    15   3    3.8648   433.1    7.096      36.250
2015    9       20    15  10    3.8757   433.2    7.114      36.307
2015    9       20    15  16    3.8867   433.2    7.132      36.364
2015    9       20    15  23    3.8977   433.3    7.150      36.421
2015    9       20    15  29    3.9089   433.3    7.168      36.478
2015    9       20    15  36    3.9200   433.3    7.187      36.535
2015    9       20    15  43    3.9313   433.4    7.205      36.593
2015    9       20    15  49    3.9426   433.4    7.224      36.651
2015    9       20    15  56    3.9541   433.5    7.243      36.711
2015    9       20    16   2    3.9656   433.6    7.262      36.770
2015    9       20    16   9    3.9772   433.6    7.282      36.831
2015    9       20    16  15    3.9889   433.7    7.302      36.894
2015    9       20    16  22    4.0007   433.8    7.322      36.958
2015    9       20    16  29    4.0126   433.9    7.343      37.023
2015    9       20    16  35    4.0247   433.9    7.364      37.090
2015    9       20    16  42    4.0369   434.0    7.386      37.159
2015    9       20    16  48    4.0491   434.1    7.408      37.231
2015    9       20    16  55    4.0615   434.2    7.431      37.304
2015    9       20    17   1    4.0740   434.3    7.454      37.381
2015    9       20    17   8    4.0867   434.5    7.479      37.460
2015    9       20    17  15    4.0995   434.6    7.504      37.541
2015    9       20    17  21    4.1124   434.7    7.530      37.626
2015    9       20    17  28    4.1254   434.9    7.557      37.713
2015    9       20    17  34    4.1386   435.0    7.584      37.804
2015    9       20    17  41    4.1519   435.1    7.613      37.898
2015    9       20    17  47    4.1654   435.3    7.643      37.997
2015    9       20    17  54    4.1789   435.5    7.674      38.100
2015    9       20    18   1    4.1927   435.6    7.705      38.207
2015    9       20    18   7    4.2065   435.8    7.738      38.318
2015    9       20    18  14    4.2205   436.0    7.771      38.433
2015    9       20    18  20    4.2346   436.2    7.806      38.552
2015    9       20    18  27    4.2487   436.4    7.840      38.678
2015    9       20    18  33    4.2628   436.7    7.875      38.808
2015    9       20    18  40    4.2768   436.9    7.911      38.944
2015    9       20    18  47    4.2908   437.2    7.946      39.086
2015    9       20    18  53    4.3046   437.4    7.980      39.232
2015    9       20    19   0    4.3184   437.7    8.014      39.382
2015    9       20    19   6    4.3320   437.9    8.048      39.532
2015    9       20    19  13    4.3456   438.2    8.081      39.680
2015    9       20    19  20    4.3590   438.5    8.113      39.827
2015    9       20    19  26    4.3722   438.7    8.146      39.974
2015    9       20    19  33    4.3854   439.0    8.177      40.120
2015    9       20    19  39    4.3985   439.3    8.208      40.267
2015    9       20    19  46    4.4116   439.6    8.238      40.415
2015    9       20    19  52    4.4245   439.9    8.268      40.563
2015    9       20    19  59    4.4375   440.1    8.297      40.712
2015    9       20    20   6    4.4505   440.4    8.326      40.861
2015    9       20    20  12    4.4635   440.7    8.354      41.010
2015    9       20    20  19    4.4764   441.0    8.381      41.158
2015    9       20    20  25    4.4894   441.3    8.407      41.309
2015    9       20    20  32    4.5023   441.6    8.432      41.461
2015    9       20    20  38    4.5154   441.9    8.456      41.616
2015    9       20    20  45    4.5284   442.1    8.479      41.772
2015    9       20    20  52    4.5415   442.4    8.500      41.929
2015    9       20    20  58    4.5545   442.7    8.520      42.085
2015    9       20    21   5    4.5676   443.0    8.539      42.238
2015    9       20    21  11    4.5806   443.3    8.557      42.388
2015    9       20    21  18    4.5937   443.6    8.573      42.535
2015    9       20    21  24    4.6065   443.9    8.588      42.678
2015    9       20    21  31    4.6194   444.2    8.602      42.819
2015    9       20    21  37    4.6309   444.5    8.614      42.944
2015    9       20    21  43    4.6426   444.7    8.625      43.068
2015    9       20    21  49    4.6540   445.0    8.634      43.188
2015    9       20    21  55    4.6654   445.3    8.643      43.304
2015    9       20    22   1    4.6765   445.5    8.651      43.416
2015    9       20    22   6    4.6875   445.8    8.658      43.525
2015    9       20    22  12    4.6983   446.0    8.664      43.631
2015    9       20    22  18    4.7090   446.3    8.670      43.733
2015    9       20    22  23    4.7195   446.5    8.675      43.832
2015    9       20    22  29    4.7301   446.8    8.679      43.928
2015    9       20    22  35    4.7404   447.0    8.683      44.021
2015    9       20    22  40    4.7508   447.3    8.686      44.111
2015    9       20    22  46    4.7609   447.5    8.689      44.199
2015    9       20    22  51    4.7710   447.8    8.691      44.284
2015    9       20    22  57    4.7810   448.0    8.693      44.367
2015    9       20    23   2    4.7909   448.3    8.694      44.447
2015    9       20    23   8    4.8007   448.5    8.695      44.526
2015    9       20    23  13    4.8105   448.7    8.696      44.603
2015    9       20    23  19    4.8202   449.0    8.696      44.678
2015    9       20    23  24    4.8298   449.2    8.696      44.751
2015    9       20    23  30    4.8394   449.5    8.696      44.823
2015    9       20    23  35    4.8489   449.7    8.696      44.894
2015    9       20    23  41    4.8584   449.9    8.695      44.964
2015    9       20    23  46    4.8679   450.2    8.694      45.033
2015    9       20    23  52    4.8773   450.4    8.693      45.101
2015    9       20    23  57    4.8866   450.7    8.692      45.168
2015    9       21     0   3    4.8959   450.9    8.691      45.235
2015    9       21     0   8    4.9052   451.2    8.690      45.302
2015    9       21     0  14    4.9144   451.4    8.689      45.368
2015    9       21     0  19    4.9236   451.7    8.688      45.434
2015    9       21     0  25    4.9328   451.9    8.686      45.500
2015    9       21     0  30    4.9420   452.2    8.685      45.566
2015    9       21     0  36    4.9513   452.4    8.684      45.632
2015    9       21     0  41    4.9604   452.6    8.683      45.698
2015    9       21     0  47    4.9697   452.9    8.682      45.764
2015    9       21     0  53    4.9789   453.1    8.681      45.831
2015    9       21     0  58    4.9881   453.4    8.681      45.898
2015    9       21     1   4    4.9973   453.6    8.680      45.965
2015    9       21     1   9    5.0065   453.9    8.680      46.033
2015    9       21     1  15    5.0157   454.1    8.680      46.102
2015    9       21     1  20    5.0250   454.4    8.680      46.171
2015    9       21     1  26    5.0342   454.6    8.680      46.241
2015    9       21     1  31    5.0434   454.9    8.681      46.312
2015    9       21     1  37    5.0526   455.1    8.682      46.383
2015    9       21     1  42    5.0618   455.4    8.683      46.455
2015    9       21     1  48    5.0710   455.6    8.685      46.528
2015    9       21     1  54    5.0803   455.9    8.688      46.602
2015    9       21     1  59    5.0895   456.2    8.691      46.676
2015    9       21     2   5    5.0987   456.4    8.695      46.752
2015    9       21     2  10    5.1079   456.7    8.699      46.829
2015    9       21     2  16    5.1172   456.9    8.704      46.907
2015    9       21     2  21    5.1265   457.2    8.709      46.987
2015    9       21     2  27    5.1358   457.4    8.716      47.068
2015    9       21     2  32    5.1451   457.7    8.723      47.150
2015    9       21     2  38    5.1545   457.9    8.731      47.235
2015    9       21     2  44    5.1640   458.2    8.740      47.323
2015    9       21     2  49    5.1735   458.5    8.750      47.415
2015    9       21     2  55    5.1831   458.8    8.761      47.510
2015    9       21     3   1    5.1928   459.0    8.773      47.608
2015    9       21     3   6    5.2025   459.3    8.785      47.709
2015    9       21     3  12    5.2124   459.6    8.798      47.814
2015    9       21     3  18    5.2222   459.9    8.812      47.923
2015    9       21     3  24    5.2322   460.1    8.827      48.038
2015    9       21     3  29    5.2423   460.4    8.843      48.158
2015    9       21     3  35    5.2526   460.7    8.860      48.282
2015    9       21     3  41    5.2629   461.0    8.878      48.414
2015    9       21     3  47    5.2734   461.3    8.896      48.554
2015    9       21     3  53    5.2841   461.6    8.915      48.703
2015    9       21     3  59    5.2951   461.9    8.936      48.860
2015    9       21     4   4    5.3062   462.2    8.958      49.022
2015    9       21     4  10    5.3176   462.5    8.981      49.188
2015    9       21     4  16    5.3292   462.8    9.006      49.362
2015    9       21     4  22    5.3411   463.1    9.032      49.548
2015    9       21     4  28    5.3534   463.5    9.059      49.744
2015    9       21     4  34    5.3660   463.9    9.087      49.952
2015    9       21     4  40    5.3789   464.2    9.116      50.165
2015    9       21     4  46    5.3921   464.6    9.147      50.383
2015    9       21     4  52    5.4055   465.0    9.178      50.613
2015    9       21     4  57    5.4192   465.5    9.208      50.855
2015    9       21     5   3    5.4330   466.0    9.238      51.101
2015    9       21     5   9    5.4469   466.4    9.266      51.351
2015    9       21     5  15    5.4607   467.0    9.293      51.601
2015    9       21     5  21    5.4744   467.5    9.317      51.855
2015    9       21     5  27    5.4879   468.1    9.338      52.114
2015    9       21     5  33    5.5009   468.7    9.356      52.360
2015    9       21     5  39    5.5135   469.3    9.370      52.596
2015    9       21     5  45    5.5254   469.8    9.381      52.819
2015    9       21     5  51    5.5368   470.4    9.389      53.032
2015    9       21     5  57    5.5476   471.0    9.395      53.235
2015    9       21     6   3    5.5579   471.5    9.397      53.429
2015    9       21     6   9    5.5678   472.1    9.396      53.614
2015    9       21     6  15    5.5772   472.7    9.393      53.791
2015    9       21     6  21    5.5862   473.2    9.388      53.961
2015    9       21     6  27    5.5949   473.8    9.381      54.125
2015    9       21     6  33    5.6033   474.3    9.373      54.285
2015    9       21     6  39    5.6115   474.9    9.362      54.440
2015    9       21     6  45    5.6195   475.4    9.351      54.592
2015    9       21     6  51    5.6273   476.0    9.339      54.742
2015    9       21     6  57    5.6351   476.5    9.325      54.889
2015    9       21     7   3    5.6427   477.1    9.311      55.035
2015    9       21     7  10    5.6502   477.6    9.296      55.181
2015    9       21     7  16    5.6578   478.1    9.281      55.326
2015    9       21     7  22    5.6652   478.6    9.265      55.471
2015    9       21     7  28    5.6727   479.2    9.249      55.616
2015    9       21     7  34    5.6801   479.7    9.233      55.762
2015    9       21     7  40    5.6875   480.2    9.216      55.908
2015    9       21     7  46    5.6950   480.7    9.199      56.056
2015    9       21     7  52    5.7025   481.2    9.182      56.204
2015    9       21     7  59    5.7099   481.7    9.165      56.353
2015    9       21     8   5    5.7174   482.2    9.148      56.503
2015    9       21     8  11    5.7249   482.7    9.130      56.653
2015    9       21     8  17    5.7324   483.2    9.113      56.804
2015    9       21     8  23    5.7399   483.7    9.094      56.956
2015    9       21     8  30    5.7473   484.2    9.076      57.107
2015    9       21     8  36    5.7548   484.7    9.058      57.258
2015    9       21     8  42    5.7623   485.3    9.039      57.408
2015    9       21     8  48    5.7697   485.8    9.021      57.557
2015    9       21     8  54    5.7772   486.3    9.002      57.703
2015    9       21     9   1    5.7846   486.9    8.983      57.846
2015    9       21     9   7    5.7920   487.4    8.964      57.986
2015    9       21     9  13    5.7993   487.9    8.945      58.123
2015    9       21     9  20    5.8067   488.4    8.926      58.255
2015    9       21     9  26    5.8140   489.0    8.906      58.383
2015    9       21     9  32    5.8212   489.5    8.887      58.508
2015    9       21     9  38    5.8284   490.1    8.868      58.631
2015    9       21     9  45    5.8356   490.7    8.848      58.749
2015    9       21     9  51    5.8426   491.2    8.828      58.863
2015    9       21     9  57    5.8495   491.8    8.808      58.975
2015    9       21    10   4    5.8563   492.5    8.787      59.086
2015    9       21    10  10    5.8628   493.1    8.766      59.192
2015    9       21    10  16    5.8692   493.7    8.744      59.292
2015    9       21    10  23    5.8754   494.4    8.722      59.389
2015    9       21    10  29    5.8813   495.0    8.700      59.484
2015    9       21    10  35    5.8870   495.7    8.677      59.577
2015    9       21    10  42    5.8925   496.4    8.654      59.671
2015    9       21    10  48    5.8974   497.0    8.630      59.756
2015    9       21    10  55    5.9020   497.6    8.607      59.830
2015    9       21    11   1    5.9063   498.1    8.585      59.895
2015    9       21    11   7    5.9107   498.7    8.565      59.953
2015    9       21    11  14    5.9151   499.1    8.549      60.003
2015    9       21    11  20    5.9199   499.4    8.536      60.043
2015    9       21    11  27    5.9253   499.7    8.528      60.092
2015    9       21    11  33    5.9316   500.1    8.525      60.157
2015    9       21    11  40    5.9386   500.4    8.526      60.239
2015    9       21    11  46    5.9464   500.8    8.531      60.340
2015    9       21    11  53    5.9548   501.1    8.540      60.461
2015    9       21    11  59    5.9639   501.4    8.552      60.589
2015    9       21    12   6    5.9734   501.8    8.567      60.735
2015    9       21    12  12    5.9837   502.2    8.584      60.908
2015    9       21    12  19    5.9940   502.6    8.602      61.102
2015    9       21    12  25    6.0045   503.1    8.619      61.312
2015    9       21    12  32    6.0149   503.6    8.635      61.534
2015    9       21    12  38    6.0254   504.2    8.649      61.779
2015    9       21    12  45    6.0357   504.9    8.661      62.042
2015    9       21    12  52    6.0458   505.6    8.670      62.311
2015    9       21    12  58    6.0553   506.3    8.677      62.583
2015    9       21    13   5    6.0644   507.1    8.682      62.852
2015    9       21    13  11    6.0728   507.9    8.683      63.120
2015    9       21    13  18    6.0806   508.6    8.681      63.383
2015    9       21    13  25    6.0877   509.3    8.677      63.633
2015    9       21    13  31    6.0942   510.1    8.670      63.867
2015    9       21    13  38    6.1003   510.8    8.661      64.092
2015    9       21    13  44    6.1061   511.5    8.650      64.311
2015    9       21    13  51    6.1116   512.2    8.638      64.528
2015    9       21    13  58    6.1170   512.9    8.624      64.744
2015    9       21    14   4    6.1223   513.6    8.610      64.960
2015    9       21    14  11    6.1276   514.4    8.595      65.179
2015    9       21    14  17    6.1329   515.1    8.579      65.401
2015    9       21    14  24    6.1382   515.9    8.562      65.625
2015    9       21    14  31    6.1436   516.7    8.545      65.851
2015    9       21    14  37    6.1491   517.4    8.527      66.077
2015    9       21    14  44    6.1547   518.2    8.509      66.303
2015    9       21    14  50    6.1602   518.9    8.490      66.524
2015    9       21    14  57    6.1658   519.6    8.471      66.741
2015    9       21    15   4    6.1712   520.4    8.451      66.955
2015    9       21    15  10    6.1765   521.1    8.431      67.167
2015    9       21    15  17    6.1817   521.9    8.411      67.377
2015    9       21    15  23    6.1867   522.6    8.389      67.586
2015    9       21    15  30    6.1915   523.4    8.367      67.794
2015    9       21    15  37    6.1962   524.2    8.344      68.003
2015    9       21    15  43    6.2007   525.0    8.320      68.210
2015    9       21    15  50    6.2049   525.8    8.295      68.414
2015    9       21    15  56    6.2088   526.7    8.268      68.616
2015    9       21    16   3    6.2124   527.6    8.240      68.817
2015    9       21    16  10    6.2156   528.5    8.210      69.016
2015    9       21    16  16    6.2184   529.4    8.177      69.208
2015    9       21    16  23    6.2207   530.3    8.143      69.388
2015    9       21    16  29    6.2223   531.2    8.105      69.556
2015    9       21    16  36    6.2234   532.1    8.066      69.707
2015    9       21    16  43    6.2236   533.0    8.023      69.848
2015    9       21    16  49    6.2231   533.9    7.978      69.973
2015    9       21    16  56    6.2217   534.8    7.930      70.073
2015    9       21    17   2    6.2196   535.7    7.881      70.151
2015    9       21    17   9    6.2166   536.6    7.831      70.213
2015    9       21    17  16    6.2133   537.5    7.780      70.261
2015    9       21    17  22    6.2094   538.4    7.729      70.294
2015    9       21    17  29    6.2052   539.4    7.678      70.327
2015    9       21    17  35    6.2007   540.3    7.627      70.358
2015    9       21    17  42    6.1962   541.3    7.576      70.391
2015    9       21    17  49    6.1912   542.3    7.525      70.424
2015    9       21    17  55    6.1862   543.3    7.473      70.462
2015    9       21    18   2    6.1807   544.3    7.421      70.502
2015    9       21    18   8    6.1749   545.4    7.369      70.531
2015    9       21    18  15    6.1687   546.3    7.317      70.554
2015    9       21    18  21    6.1625   547.3    7.266      70.569
2015    9       21    18  28    6.1563   548.2    7.216      70.576
2015    9       21    18  35    6.1503   549.0    7.169      70.565
2015    9       21    18  41    6.1445   549.7    7.124      70.547
2015    9       21    18  48    6.1394   550.5    7.082      70.540
2015    9       21    18  54    6.1347   551.2    7.043      70.537
2015    9       21    19   1    6.1304   551.9    7.006      70.542
2015    9       21    19   8    6.1264   552.5    6.970      70.555
2015    9       21    19  14    6.1229   553.2    6.937      70.576
2015    9       21    19  21    6.1195   553.9    6.905      70.601
2015    9       21    19  27    6.1163   554.5    6.875      70.631
2015    9       21    19  34    6.1131   555.1    6.845      70.672
2015    9       21    19  41    6.1099   555.7    6.816      70.725
2015    9       21    19  47    6.1067   556.4    6.787      70.789
2015    9       21    19  54    6.1035   557.0    6.760      70.857
2015    9       21    20   0    6.1003   557.7    6.733      70.945
2015    9       21    20   7    6.0973   558.4    6.706      71.051
2015    9       21    20  14    6.0940   559.1    6.680      71.169
2015    9       21    20  20    6.0910   559.8    6.655      71.289
2015    9       21    20  27    6.0876   560.5    6.631      71.410
2015    9       21    20  33    6.0843   561.2    6.606      71.531
2015    9       21    20  40    6.0807   561.8    6.582      71.639
2015    9       21    20  47    6.0771   562.4    6.558      71.732
2015    9       21    20  53    6.0732   563.0    6.534      71.819
2015    9       21    21   0    6.0696   563.5    6.511      71.905
2015    9       21    21   6    6.0657   564.1    6.488      71.992
2015    9       21    21  13    6.0621   564.7    6.465      72.081
2015    9       21    21  20    6.0584   565.3    6.442      72.174
2015    9       21    21  26    6.0549   565.9    6.420      72.275
2015    9       21    21  33    6.0514   566.5    6.399      72.381
2015    9       21    21  39    6.0480   567.2    6.378      72.488
2015    9       21    21  46    6.0447   567.8    6.357      72.596
2015    9       21    21  53    6.0416   568.5    6.336      72.704
2015    9       21    21  59    6.0385   569.1    6.316      72.807
2015    9       21    22   6    6.0354   569.7    6.296      72.902
2015    9       21    22  12    6.0322   570.3    6.276      72.991
2015    9       21    22  19    6.0290   570.9    6.257      73.075
2015    9       21    22  26    6.0255   571.5    6.237      73.156
2015    9       21    22  32    6.0220   572.1    6.218      73.235
2015    9       21    22  39    6.0183   572.8    6.198      73.311
2015    9       21    22  45    6.0145   573.5    6.178      73.384
2015    9       21    22  52    6.0104   574.2    6.158      73.458
2015    9       21    22  59    6.0062   574.9    6.137      73.531
2015    9       21    23   5    6.0016   575.7    6.115      73.602
2015    9       21    23  12    5.9968   576.5    6.093      73.673
2015    9       21    23  18    5.9915   577.3    6.069      73.746
2015    9       21    23  25    5.9859   578.2    6.043      73.821
2015    9       21    23  31    5.9798   579.1    6.014      73.891
2015    9       21    23  38    5.9731   580.0    5.984      73.951
2015    9       21    23  45    5.9655   580.9    5.951      73.998
2015    9       21    23  51    5.9574   581.9    5.917      74.029
2015    9       21    23  58    5.9483   582.8    5.879      74.049
2015    9       22     0   4    5.9386   583.8    5.839      74.054
2015    9       22     0  11    5.9278   584.7    5.797      74.025
2015    9       22     0  18    5.9164   585.6    5.754      73.971
2015    9       22     0  24    5.9043   586.5    5.710      73.898
2015    9       22     0  31    5.8921   587.3    5.667      73.811
2015    9       22     0  37    5.8795   588.1    5.625      73.701
2015    9       22     0  44    5.8670   588.8    5.585      73.589
2015    9       22     0  51    5.8546   589.6    5.546      73.481
2015    9       22     0  57    5.8425   590.3    5.509      73.379
2015    9       22     1   4    5.8306   591.0    5.473      73.281
2015    9       22     1  10    5.8190   591.7    5.439      73.190
2015    9       22     1  17    5.8076   592.3    5.406      73.102
2015    9       22     1  24    5.7965   593.0    5.376      73.026
2015    9       22     1  30    5.7857   593.7    5.346      72.966
2015    9       22     1  37    5.7753   594.4    5.318      72.922
2015    9       22     1  43    5.7650   595.1    5.291      72.888
2015    9       22     1  50    5.7549   595.8    5.265      72.862
2015    9       22     1  57    5.7450   596.5    5.240      72.844
2015    9       22     2   3    5.7351   597.2    5.215      72.826
2015    9       22     2  10    5.7253   597.9    5.191      72.809
2015    9       22     2  16    5.7155   598.5    5.167      72.793
2015    9       22     2  23    5.7057   599.2    5.143      72.778
2015    9       22     2  30    5.6959   599.8    5.120      72.766
2015    9       22     2  36    5.6861   600.4    5.096      72.754
2015    9       22     2  43    5.6763   601.1    5.073      72.741
2015    9       22     2  49    5.6664   601.7    5.049      72.728
2015    9       22     2  56    5.6565   602.4    5.025      72.714
2015    9       22     3   3    5.6463   603.0    5.001      72.697
2015    9       22     3   9    5.6363   603.7    4.977      72.676
2015    9       22     3  16    5.6260   604.3    4.952      72.648
2015    9       22     3  22    5.6159   604.9    4.928      72.610
2015    9       22     3  29    5.6057   605.4    4.904      72.560
2015    9       22     3  35    5.5958   605.9    4.881      72.500
2015    9       22     3  42    5.5858   606.3    4.858      72.432
2015    9       22     3  49    5.5761   606.8    4.835      72.359
2015    9       22     3  55    5.5665   607.3    4.814      72.284
2015    9       22     4   2    5.5570   607.7    4.792      72.211
2015    9       22     4   8    5.5475   608.2    4.772      72.140
2015    9       22     4  15    5.5382   608.6    4.752      72.074
2015    9       22     4  22    5.5288   609.1    4.732      72.011
2015    9       22     4  28    5.5196   609.6    4.712      71.950
2015    9       22     4  35    5.5103   610.1    4.694      71.890
2015    9       22     4  41    5.5011   610.6    4.675      71.829
2015    9       22     4  48    5.4919   611.0    4.657      71.764
2015    9       22     4  55    5.4828   611.4    4.640      71.698
2015    9       22     5   1    5.4736   611.8    4.622      71.632
2015    9       22     5   8    5.4644   612.2    4.606      71.568
2015    9       22     5  14    5.4552   612.6    4.589      71.504
2015    9       22     5  21    5.4461   613.0    4.574      71.444
2015    9       22     5  28    5.4370   613.3    4.558      71.385
2015    9       22     5  34    5.4280   613.7    4.544      71.329
2015    9       22     5  41    5.4190   614.0    4.530      71.275
2015    9       22     5  47    5.4102   614.3    4.517      71.224
2015    9       22     5  54    5.4013   614.6    4.504      71.178
2015    9       22     6   1    5.3925   614.9    4.491      71.135
2015    9       22     6   7    5.3835   615.2    4.479      71.096
2015    9       22     6  14    5.3747   615.6    4.467      71.060
2015    9       22     6  20    5.3657   615.9    4.455      71.028
2015    9       22     6  27    5.3567   616.3    4.443      71.000
2015    9       22     6  33    5.3475   616.7    4.432      70.973
2015    9       22     6  40    5.3384   617.0    4.420      70.947
2015    9       22     6  47    5.3290   617.4    4.408      70.920
2015    9       22     6  53    5.3195   617.8    4.396      70.889
2015    9       22     7   0    5.3098   618.2    4.384      70.854
2015    9       22     7   6    5.3000   618.5    4.371      70.817
2015    9       22     7  13    5.2899   618.9    4.359      70.772
2015    9       22     7  20    5.2797   619.3    4.346      70.724
2015    9       22     7  26    5.2694   619.6    4.332      70.670
2015    9       22     7  33    5.2590   619.9    4.319      70.610
2015    9       22     7  39    5.2487   620.2    4.307      70.548
2015    9       22     7  46    5.2384   620.5    4.294      70.487
2015    9       22     7  53    5.2284   620.8    4.281      70.426
2015    9       22     7  59    5.2186   621.1    4.270      70.363
2015    9       22     8   6    5.2091   621.3    4.258      70.302
2015    9       22     8  12    5.1998   621.6    4.247      70.244
2015    9       22     8  19    5.1908   621.8    4.236      70.188
2015    9       22     8  26    5.1821   622.0    4.226      70.137
2015    9       22     8  32    5.1737   622.2    4.217      70.093
2015    9       22     8  39    5.1654   622.5    4.207      70.055
2015    9       22     8  45    5.1573   622.7    4.199      70.025
2015    9       22     8  52    5.1493   623.0    4.190      70.005
2015    9       22     8  59    5.1415   623.4    4.181      69.992
2015    9       22     9   5    5.1337   623.7    4.173      69.983
2015    9       22     9  12    5.1259   624.1    4.165      69.978
2015    9       22     9  18    5.1181   624.4    4.156      69.971
2015    9       22     9  25    5.1102   624.7    4.147      69.957
2015    9       22     9  31    5.1023   625.0    4.138      69.941
2015    9       22     9  38    5.0943   625.3    4.129      69.921
2015    9       22     9  45    5.0863   625.6    4.119      69.900
2015    9       22     9  51    5.0783   625.9    4.110      69.876
2015    9       22     9  58    5.0702   626.2    4.100      69.849
2015    9       22    10   4    5.0622   626.6    4.090      69.820
2015    9       22    10  11    5.0542   626.9    4.080      69.790
2015    9       22    10  18    5.0462   627.2    4.070      69.758
2015    9       22    10  24    5.0384   627.5    4.059      69.725
2015    9       22    10  31    5.0306   627.9    4.049      69.691
2015    9       22    10  37    5.0230   628.2    4.039      69.654
2015    9       22    10  44    5.0156   628.4    4.029      69.613
2015    9       22    10  51    5.0083   628.6    4.020      69.572
2015    9       22    10  57    5.0012   628.9    4.011      69.531
2015    9       22    11   4    4.9942   629.1    4.002      69.494
2015    9       22    11  10    4.9873   629.3    3.993      69.461
2015    9       22    11  17    4.9805   629.6    3.985      69.431
2015    9       22    11  24    4.9738   629.8    3.977      69.406
2015    9       22    11  30    4.9671   630.1    3.969      69.388
2015    9       22    11  37    4.9605   630.4    3.961      69.374
2015    9       22    11  43    4.9538   630.7    3.953      69.362
2015    9       22    11  50    4.9472   631.0    3.945      69.351
2015    9       22    11  56    4.9406   631.3    3.937      69.338
2015    9       22    12   3    4.9340   631.6    3.929      69.319
2015    9       22    12  10    4.9273   631.9    3.921      69.295
2015    9       22    12  16    4.9207   632.1    3.913      69.269
2015    9       22    12  23    4.9139   632.4    3.905      69.241
2015    9       22    12  29    4.9072   632.7    3.897      69.211
2015    9       22    12  36    4.9005   632.9    3.888      69.181
2015    9       22    12  43    4.8938   633.2    3.880      69.151
2015    9       22    12  49    4.8872   633.4    3.872      69.119
2015    9       22    12  56    4.8807   633.7    3.864      69.085
2015    9       22    13   2    4.8742   633.9    3.856      69.052
2015    9       22    13   9    4.8678   634.1    3.848      69.020
2015    9       22    13  16    4.8614   634.3    3.841      68.989
2015    9       22    13  22    4.8551   634.6    3.833      68.960
2015    9       22    13  29    4.8487   634.8    3.826      68.932
2015    9       22    13  35    4.8424   635.0    3.819      68.906
2015    9       22    13  42    4.8361   635.3    3.811      68.881
2015    9       22    13  48    4.8298   635.5    3.804      68.858
2015    9       22    13  55    4.8235   635.8    3.797      68.835
2015    9       22    14   2    4.8172   636.0    3.790      68.812
2015    9       22    14   8    4.8110   636.3    3.783      68.787
2015    9       22    14  15    4.8046   636.5    3.776      68.761
2015    9       22    14  21    4.7983   636.7    3.769      68.733
2015    9       22    14  28    4.7920   636.9    3.762      68.704
2015    9       22    14  35    4.7857   637.2    3.755      68.674
2015    9       22    14  41    4.7794   637.4    3.748      68.644
2015    9       22    14  48    4.7732   637.6    3.741      68.613
2015    9       22    14  54    4.7670   637.8    3.735      68.582
2015    9       22    15   1    4.7609   638.0    3.728      68.550
2015    9       22    15   8    4.7548   638.2    3.721      68.518
2015    9       22    15  14    4.7488   638.4    3.715      68.486
2015    9       22    15  21    4.7429   638.5    3.708      68.454
2015    9       22    15  27    4.7371   638.7    3.702      68.424
2015    9       22    15  34    4.7313   638.9    3.696      68.394
2015    9       22    15  40    4.7256   639.1    3.690      68.365
2015    9       22    15  47    4.7199   639.3    3.684      68.336
2015    9       22    15  54    4.7143   639.4    3.678      68.309
2015    9       22    16   0    4.7087   639.6    3.672      68.283
2015    9       22    16   7    4.7031   639.8    3.666      68.258
2015    9       22    16  13    4.6977   640.0    3.661      68.233
2015    9       22    16  20    4.6922   640.1    3.655      68.210
2015    9       22    16  27    4.6867   640.3    3.650      68.187
2015    9       22    16  33    4.6813   640.5    3.644      68.165
2015    9       22    16  40    4.6760   640.6    3.639      68.142
2015    9       22    16  46    4.6706   640.8    3.633      68.121
2015    9       22    16  53    4.6653   641.0    3.628      68.100
2015    9       22    17   0    4.6600   641.1    3.622      68.078
2015    9       22    17   6    4.6548   641.3    3.617      68.057
2015    9       22    17  13    4.6495   641.5    3.612      68.036
2015    9       22    17  19    4.6444   641.6    3.606      68.015
2015    9       22    17  26    4.6392   641.8    3.601      67.995
2015    9       22    17  33    4.6341   642.0    3.596      67.975
2015    9       22    17  39    4.6290   642.1    3.591      67.955
2015    9       22    17  46    4.6240   642.3    3.586      67.935
2015    9       22    17  52    4.6190   642.4    3.581      67.916
2015    9       22    17  59    4.6140   642.6    3.576      67.897
2015    9       22    18   5    4.6091   642.8    3.571      67.879
2015    9       22    18  12    4.6042   642.9    3.566      67.861
2015    9       22    18  19    4.5993   643.1    3.561      67.843
2015    9       22    18  25    4.5945   643.2    3.556      67.826
2015    9       22    18  32    4.5897   643.4    3.552      67.809
2015    9       22    18  38    4.5849   643.5    3.547      67.793
2015    9       22    18  45    4.5801   643.7    3.543      67.777
2015    9       22    18  52    4.5754   643.8    3.538      67.762
2015    9       22    18  58    4.5707   643.9    3.534      67.747
2015    9       22    19   5    4.5660   644.1    3.530      67.732
2015    9       22    19  11    4.5613   644.2    3.525      67.718
2015    9       22    19  18    4.5566   644.4    3.521      67.703
2015    9       22    19  25    4.5520   644.5    3.517      67.689
2015    9       22    19  31    4.5473   644.6    3.513      67.675
2015    9       22    19  38    4.5427   644.8    3.509      67.661
2015    9       22    19  44    4.5381   644.9    3.505      67.646
2015    9       22    19  51    4.5336   645.0    3.501      67.632
2015    9       22    19  57    4.5290   645.2    3.497      67.617
2015    9       22    20   4    4.5245   645.3    3.493      67.602
2015    9       22    20  11    4.5200   645.4    3.489      67.587
2015    9       22    20  17    4.5155   645.5    3.485      67.572
2015    9       22    20  24    4.5111   645.7    3.481      67.556
2015    9       22    20  30    4.5066   645.8    3.477      67.540
2015    9       22    20  37    4.5022   645.9    3.473      67.524
2015    9       22    20  44    4.4978   646.0    3.469      67.508
2015    9       22    20  50    4.4934   646.2    3.465      67.492
2015    9       22    20  57    4.4889   646.3    3.462      67.477
2015    9       22    21   3    4.4845   646.4    3.458      67.462
2015    9       22    21  10    4.4800   646.5    3.455      67.448
2015    9       22    21  16    4.4755   646.6    3.451      67.434
2015    9       22    21  23    4.4710   646.7    3.448      67.422
2015    9       22    21  30    4.4664   646.9    3.444      67.412
2015    9       22    21  36    4.4617   647.0    3.441      67.403
2015    9       22    21  43    4.4570   647.1    3.438      67.396
2015    9       22    21  49    4.4523   647.2    3.435      67.393
2015    9       22    21  56    4.4474   647.3    3.433      67.392
2015    9       22    22   3    4.4425   647.4    3.430      67.395
2015    9       22    22   9    4.4376   647.5    3.428      67.403
2015    9       22    22  16    4.4326   647.7    3.427      67.416
2015    9       22    22  22    4.4275   647.8    3.425      67.435
2015    9       22    22  29    4.4223   647.9    3.424      67.460
2015    9       22    22  36    4.4170   648.0    3.424      67.493
2015    9       22    22  42    4.4116   648.2    3.424      67.535
2015    9       22    22  49    4.4063   648.3    3.424      67.586
2015    9       22    22  55    4.4007   648.4    3.425      67.649
2015    9       22    23   2    4.3952   648.6    3.427      67.724
2015    9       22    23   8    4.3896   648.7    3.430      67.812
2015    9       22    23  15    4.3842   648.9    3.434      67.915
2015    9       22    23  22    4.3788   649.1    3.438      68.035
2015    9       22    23  28    4.3736   649.3    3.444      68.174
2015    9       22    23  35    4.3685   649.5    3.451      68.329
2015    9       22    23  41    4.3637   649.7    3.460      68.510
2015    9       22    23  48    4.3591   650.0    3.469      68.715
2015    9       22    23  55    4.3547   650.2    3.480      68.943
2015    9       23     0   1    4.3505   650.5    3.492      69.186
2015    9       23     0   8    4.3465   650.8    3.506      69.459
2015    9       23     0  14    4.3427   651.1    3.519      69.749
2015    9       23     0  21    4.3392   651.5    3.533      70.053
2015    9       23     0  27    4.3357   651.8    3.545      70.367
2015    9       23     0  34    4.3324   652.2    3.557      70.663
2015    9       23     0  41    4.3293   652.5    3.567      70.939
2015    9       23     0  47    4.3262   652.8    3.576      71.197
2015    9       23     0  54    4.3233   653.2    3.584      71.436
2015    9       23     1   0    4.3205   653.5    3.591      71.656
2015    9       23     1   7    4.3178   653.8    3.595      71.853
2015    9       23     1  14    4.3154   654.1    3.598      72.022
2015    9       23     1  20    4.3129   654.4    3.600      72.164
2015    9       23     1  27    4.3106   654.6    3.600      72.281
2015    9       23     1  33    4.3084   654.8    3.599      72.373
2015    9       23     1  40    4.3063   655.0    3.597      72.440
2015    9       23     1  47    4.3043   655.2    3.594      72.485
2015    9       23     1  53    4.3025   655.4    3.590      72.510
2015    9       23     2   0    4.3008   655.5    3.586      72.516
2015    9       23     2   6    4.2995   655.6    3.580      72.503
2015    9       23     2  13    4.2983   655.7    3.574      72.477
2015    9       23     2  19    4.2975   655.8    3.568      72.434
2015    9       23     2  26    4.2970   655.8    3.561      72.380
2015    9       23     2  33    4.2969   655.9    3.553      72.316
2015    9       23     2  39    4.2971   655.9    3.545      72.240
2015    9       23     2  46    4.2977   656.0    3.536      72.153
2015    9       23     2  52    4.2988   656.1    3.526      72.055
2015    9       23     2  59    4.3002   656.1    3.515      71.938
2015    9       23     3   6    4.3020   656.1    3.504      71.800
2015    9       23     3  12    4.3041   656.1    3.491      71.641
2015    9       23     3  19    4.3068   656.1    3.478      71.466
2015    9       23     3  25    4.3096   656.0    3.464      71.267
2015    9       23     3  32    4.3130   655.9    3.450      71.047
2015    9       23     3  38    4.3167   655.8    3.436      70.813
2015    9       23     3  45    4.3208   655.6    3.422      70.564
2015    9       23     3  52    4.3252   655.4    3.409      70.314
2015    9       23     3  58    4.3299   655.2    3.396      70.074
2015    9       23     4   5    4.3348   655.1    3.384      69.843
2015    9       23     4  11    4.3400   654.9    3.372      69.621
2015    9       23     4  18    4.3450   654.8    3.361      69.409
2015    9       23     4  25    4.3502   654.6    3.350      69.205
2015    9       23     4  31    4.3549   654.5    3.340      69.006
2015    9       23     4  38    4.3593   654.3    3.329      68.813
2015    9       23     4  44    4.3632   654.2    3.319      68.624
2015    9       23     4  51    4.3668   654.1    3.309      68.439
2015    9       23     4  57    4.3698   653.9    3.299      68.257
2015    9       23     5   4    4.3725   653.8    3.289      68.078
2015    9       23     5  11    4.3747   653.7    3.279      67.901
2015    9       23     5  17    4.3766   653.6    3.269      67.728
2015    9       23     5  24    4.3780   653.5    3.259      67.558
2015    9       23     5  30    4.3791   653.3    3.249      67.390
2015    9       23     5  37    4.3798   653.2    3.240      67.225
2015    9       23     5  44    4.3803   653.1    3.230      67.063
2015    9       23     5  50    4.3804   653.0    3.221      66.904
2015    9       23     5  57    4.3803   652.9    3.211      66.748
2015    9       23     6   3    4.3799   652.8    3.202      66.594
2015    9       23     6  10    4.3792   652.7    3.193      66.445
2015    9       23     6  16    4.3783   652.6    3.184      66.298
2015    9       23     6  23    4.3772   652.5    3.175      66.154
2015    9       23     6  30    4.3759   652.5    3.166      66.013
2015    9       23     6  36    4.3743   652.4    3.157      65.876
2015    9       23     6  43    4.3726   652.3    3.149      65.742
2015    9       23     6  49    4.3707   652.2    3.140      65.611
2015    9       23     6  56    4.3686   652.2    3.132      65.483
2015    9       23     7   3    4.3663   652.1    3.124      65.358
2015    9       23     7   9    4.3639   652.0    3.116      65.235
2015    9       23     7  16    4.3613   651.9    3.108      65.116
2015    9       23     7  22    4.3586   651.9    3.100      64.999
2015    9       23     7  29    4.3557   651.8    3.093      64.885
2015    9       23     7  35    4.3526   651.7    3.086      64.774
2015    9       23     7  42    4.3495   651.6    3.079      64.665
2015    9       23     7  49    4.3462   651.5    3.073      64.559
2015    9       23     7  55    4.3428   651.4    3.067      64.457
2015    9       23     8   2    4.3392   651.3    3.061      64.358
2015    9       23     8   8    4.3355   651.2    3.056      64.266
2015    9       23     8  15    4.3317   651.1    3.051      64.179
2015    9       23     8  22    4.3278   651.0    3.047      64.099
2015    9       23     8  28    4.3238   650.9    3.044      64.027
2015    9       23     8  35    4.3196   650.8    3.041      63.963
2015    9       23     8  41    4.3153   650.7    3.038      63.908
2015    9       23     8  48    4.3109   650.6    3.037      63.863
2015    9       23     8  54    4.3064   650.6    3.036      63.826
2015    9       23     9   1    4.3017   650.5    3.035      63.800
2015    9       23     9   8    4.2969   650.4    3.035      63.784
2015    9       23     9  14    4.2920   650.4    3.035      63.779
2015    9       23     9  21    4.2870   650.3    3.036      63.781
2015    9       23     9  27    4.2819   650.3    3.038      63.791
2015    9       23     9  34    4.2766   650.2    3.040      63.811
2015    9       23     9  40    4.2713   650.2    3.042      63.837
2015    9       23     9  47    4.2659   650.2    3.044      63.868
2015    9       23     9  54    4.2603   650.2    3.046      63.905
2015    9       23    10   0    4.2547   650.2    3.048      63.942
2015    9       23    10   7    4.2490   650.1    3.050      63.979
2015    9       23    10  13    4.2433   650.1    3.053      64.014
2015    9       23    10  20    4.2375   650.1    3.055      64.047
2015    9       23    10  27    4.2316   650.1    3.057      64.080
2015    9       23    10  33    4.2256   650.1    3.059      64.112
2015    9       23    10  40    4.2196   650.1    3.061      64.142
2015    9       23    10  46    4.2134   650.1    3.063      64.171
2015    9       23    10  53    4.2072   650.1    3.064      64.198
2015    9       23    10  59    4.2009   650.0    3.066      64.221
2015    9       23    11   6    4.1945   650.0    3.067      64.241
2015    9       23    11  13    4.1881   650.0    3.069      64.258
2015    9       23    11  19    4.1815   650.0    3.070      64.272
2015    9       23    11  26    4.1749   650.0    3.071      64.283
2015    9       23    11  32    4.1682   649.9    3.072      64.291
2015    9       23    11  39    4.1615   649.9    3.073      64.297
2015    9       23    11  46    4.1546   649.9    3.074      64.298
2015    9       23    11  52    4.1477   649.9    3.075      64.297
2015    9       23    11  59    4.1407   649.9    3.075      64.291
2015    9       23    12   5    4.1337   649.9    3.075      64.282
2015    9       23    12  12    4.1266   649.8    3.075      64.269
2015    9       23    12  18    4.1194   649.8    3.075      64.251
2015    9       23    12  25    4.1121   649.8    3.075      64.231
2015    9       23    12  32    4.1048   649.8    3.074      64.207
2015    9       23    12  38    4.0973   649.8    3.073      64.179
2015    9       23    12  45    4.0898   649.8    3.072      64.148
2015    9       23    12  51    4.0822   649.8    3.071      64.113
2015    9       23    12  58    4.0745   649.8    3.070      64.075
2015    9       23    13   4    4.0668   649.8    3.068      64.032
2015    9       23    13  11    4.0589   649.9    3.066      63.986
2015    9       23    13  18    4.0510   649.9    3.064      63.936
2015    9       23    13  24    4.0429   649.9    3.061      63.883
2015    9       23    13  31    4.0348   649.9    3.059      63.826
2015    9       23    13  37    4.0267   649.9    3.056      63.767
2015    9       23    13  44    4.0185   649.9    3.053      63.704
2015    9       23    13  51    4.0102   650.0    3.050      63.639
2015    9       23    13  57    4.0019   650.0    3.047      63.571
2015    9       23    14   4    3.9936   650.0    3.044      63.501
2015    9       23    14  10    3.9853   650.1    3.040      63.428
2015    9       23    14  17    3.9769   650.1    3.036      63.354
2015    9       23    14  23    3.9686   650.1    3.033      63.278
2015    9       23    14  30    3.9602   650.2    3.029      63.200
2015    9       23    14  37    3.9519   650.2    3.025      63.120
2015    9       23    14  43    3.9436   650.2    3.021      63.039
2015    9       23    14  50    3.9353   650.3    3.016      62.957
2015    9       23    14  56    3.9271   650.3    3.012      62.874
2015    9       23    15   3    3.9190   650.4    3.008      62.789
2015    9       23    15  10    3.9109   650.4    3.004      62.704
2015    9       23    15  16    3.9029   650.5    2.999      62.618
2015    9       23    15  23    3.8949   650.5    2.995      62.532
2015    9       23    15  29    3.8870   650.6    2.990      62.444
2015    9       23    15  36    3.8792   650.6    2.986      62.356
2015    9       23    15  42    3.8715   650.7    2.981      62.267
2015    9       23    15  49    3.8638   650.8    2.976      62.177
2015    9       23    15  56    3.8562   650.8    2.971      62.086
2015    9       23    16   2    3.8486   650.9    2.967      61.994
2015    9       23    16   9    3.8411   651.0    2.962      61.901
2015    9       23    16  15    3.8337   651.0    2.957      61.808
2015    9       23    16  22    3.8264   651.1    2.951      61.713
2015    9       23    16  28    3.8190   651.2    2.946      61.618
2015    9       23    16  35    3.8119   651.2    2.941      61.522
2015    9       23    16  42    3.8048   651.3    2.936      61.426
2015    9       23    16  48    3.7979   651.4    2.930      61.330
2015    9       23    16  55    3.7910   651.5    2.925      61.233
2015    9       23    17   1    3.7844   651.5    2.919      61.135
2015    9       23    17   8    3.7778   651.6    2.914      61.038
2015    9       23    17  15    3.7714   651.7    2.908      60.940
2015    9       23    17  21    3.7651   651.8    2.903      60.843
2015    9       23    17  28    3.7590   651.8    2.897      60.745
2015    9       23    17  34    3.7530   651.9    2.892      60.647
2015    9       23    17  41    3.7473   652.0    2.886      60.550
2015    9       23    17  47    3.7417   652.0    2.881      60.453
2015    9       23    17  54    3.7363   652.1    2.875      60.355
2015    9       23    18   1    3.7311   652.2    2.870      60.259
2015    9       23    18   7    3.7261   652.2    2.864      60.163
2015    9       23    18  14    3.7212   652.3    2.859      60.068
2015    9       23    18  20    3.7166   652.4    2.854      59.974
2015    9       23    18  27    3.7121   652.4    2.849      59.881
2015    9       23    18  33    3.7079   652.5    2.844      59.789
2015    9       23    18  40    3.7037   652.5    2.839      59.699
2015    9       23    18  47    3.6998   652.6    2.834      59.611
2015    9       23    18  53    3.6961   652.6    2.829      59.525
2015    9       23    19   0    3.6925   652.6    2.825      59.440
2015    9       23    19   6    3.6891   652.7    2.821      59.359
2015    9       23    19  13    3.6859   652.7    2.816      59.280
2015    9       23    19  19    3.6828   652.7    2.813      59.204
2015    9       23    19  26    3.6799   652.7    2.809      59.132
2015    9       23    19  33    3.6771   652.7    2.806      59.063
2015    9       23    19  39    3.6745   652.8    2.803      58.998
2015    9       23    19  46    3.6720   652.8    2.800      58.937
2015    9       23    19  52    3.6697   652.8    2.797      58.880
2015    9       23    19  59    3.6675   652.8    2.795      58.827
2015    9       23    20   6    3.6654   652.7    2.793      58.779
2015    9       23    20  12    3.6634   652.7    2.792      58.735
2015    9       23    20  19    3.6616   652.7    2.790      58.695
2015    9       23    20  25    3.6598   652.7    2.789      58.660
2015    9       23    20  32    3.6582   652.6    2.789      58.629
2015    9       23    20  38    3.6566   652.6    2.788      58.602
2015    9       23    20  45    3.6552   652.6    2.788      58.579
2015    9       23    20  52    3.6538   652.5    2.788      58.560
2015    9       23    20  58    3.6526   652.5    2.789      58.545
2015    9       23    21   5    3.6514   652.4    2.789      58.533
2015    9       23    21  11    3.6503   652.4    2.790      58.525
2015    9       23    21  18    3.6494   652.3    2.791      58.520
2015    9       23    21  24    3.6486   652.3    2.792      58.518
2015    9       23    21  31    3.6479   652.2    2.794      58.519
2015    9       23    21  38    3.6473   652.1    2.795      58.522
2015    9       23    21  44    3.6468   652.1    2.797      58.527
2015    9       23    21  51    3.6465   652.0    2.799      58.534
2015    9       23    21  57    3.6463   651.9    2.801      58.543
2015    9       23    22   4    3.6463   651.9    2.803      58.553
2015    9       23    22  11    3.6464   651.8    2.805      58.564
2015    9       23    22  17    3.6467   651.7    2.807      58.577
2015    9       23    22  24    3.6471   651.6    2.809      58.590
2015    9       23    22  30    3.6476   651.5    2.811      58.604
2015    9       23    22  37    3.6483   651.5    2.813      58.619
2015    9       23    22  43    3.6491   651.4    2.815      58.634
2015    9       23    22  50    3.6500   651.3    2.817      58.649
2015    9       23    22  57    3.6510   651.2    2.819      58.665
2015    9       23    23   3    3.6521   651.1    2.821      58.681
2015    9       23    23  10    3.6532   651.0    2.823      58.696
2015    9       23    23  16    3.6545   650.9    2.824      58.712
2015    9       23    23  23    3.6558   650.9    2.826      58.728
2015    9       23    23  29    3.6571   650.8    2.828      58.744
2015    9       23    23  36    3.6585   650.7    2.830      58.759
2015    9       23    23  43    3.6599   650.6    2.832      58.775
2015    9       23    23  49    3.6613   650.5    2.834      58.790
2015    9       23    23  56    3.6627   650.4    2.835      58.805
2015    9       24     0   2    3.6642   650.3    2.837      58.820
2015    9       24     0   9    3.6656   650.3    2.839      58.834
2015    9       24     0  15    3.6670   650.2    2.840      58.849
2015    9       24     0  22    3.6684   650.1    2.842      58.863
2015    9       24     0  29    3.6699   650.0    2.844      58.876
2015    9       24     0  35    3.6713   649.9    2.845      58.889
2015    9       24     0  42    3.6727   649.8    2.847      58.902
2015    9       24     0  48    3.6741   649.7    2.849      58.915
2015    9       24     0  55    3.6755   649.6    2.850      58.927
2015    9       24     1   1    3.6770   649.6    2.852      58.938
2015    9       24     1   8    3.6784   649.5    2.853      58.949
2015    9       24     1  15    3.6798   649.4    2.855      58.960
2015    9       24     1  21    3.6812   649.3    2.856      58.970
2015    9       24     1  28    3.6826   649.2    2.858      58.980
2015    9       24     1  34    3.6840   649.1    2.860      58.989
2015    9       24     1  41    3.6854   649.0    2.861      58.998
2015    9       24     1  48    3.6867   648.9    2.863      59.007
2015    9       24     1  54    3.6881   648.8    2.864      59.015
2015    9       24     2   1    3.6895   648.7    2.866      59.023
2015    9       24     2   7    3.6909   648.6    2.868      59.031
2015    9       24     2  14    3.6922   648.5    2.869      59.038
2015    9       24     2  20    3.6935   648.4    2.871      59.046
2015    9       24     2  27    3.6948   648.4    2.872      59.053
2015    9       24     2  34    3.6961   648.3    2.874      59.061
2015    9       24     2  40    3.6973   648.2    2.876      59.068
2015    9       24     2  47    3.6985   648.1    2.877      59.075
2015    9       24     2  53    3.6997   648.0    2.879      59.083
2015    9       24     3   0    3.7008   647.9    2.880      59.090
2015    9       24     3   6    3.7019   647.8    2.882      59.096
2015    9       24     3  13    3.7030   647.7    2.883      59.102
2015    9       24     3  20    3.7040   647.6    2.885      59.107
2015    9       24     3  26    3.7051   647.6    2.886      59.112
2015    9       24     3  33    3.7060   647.5    2.887      59.117
2015    9       24     3  39    3.7070   647.4    2.889      59.121
2015    9       24     3  46    3.7079   647.3    2.890      59.124
2015    9       24     3  52    3.7088   647.2    2.891      59.127
2015    9       24     3  59    3.7096   647.1    2.892      59.129
2015    9       24     4   6    3.7104   647.0    2.893      59.130
2015    9       24     4  12    3.7112   647.0    2.895      59.131
2015    9       24     4  19    3.7120   646.9    2.896      59.131
2015    9       24     4  25    3.7127   646.8    2.897      59.130
2015    9       24     4  32    3.7134   646.7    2.898      59.128
2015    9       24     4  39    3.7140   646.6    2.899      59.126
2015    9       24     4  45    3.7146   646.5    2.900      59.123
2015    9       24     4  52    3.7152   646.5    2.901      59.120
2015    9       24     4  58    3.7157   646.4    2.901      59.116
2015    9       24     5   5    3.7162   646.3    2.902      59.112
2015    9       24     5  11    3.7167   646.2    2.903      59.107
2015    9       24     5  18    3.7171   646.1    2.904      59.101
2015    9       24     5  25    3.7176   646.0    2.905      59.096
2015    9       24     5  31    3.7179   646.0    2.905      59.089
2015    9       24     5  38    3.7183   645.9    2.906      59.083
2015    9       24     5  44    3.7186   645.8    2.907      59.076
2015    9       24     5  51    3.7190   645.7    2.908      59.069
2015    9       24     5  57    3.7192   645.6    2.908      59.062
2015    9       24     6   4    3.7195   645.6    2.909      59.054
2015    9       24     6  11    3.7197   645.5    2.910      59.047
2015    9       24     6  17    3.7200   645.4    2.910      59.039
2015    9       24     6  24    3.7201   645.3    2.911      59.032
2015    9       24     6  30    3.7203   645.2    2.912      59.024
2015    9       24     6  37    3.7205   645.1    2.913      59.016
2015    9       24     6  43    3.7206   645.1    2.913      59.008
2015    9       24     6  50    3.7207   645.0    2.914      59.001
2015    9       24     6  57    3.7208   644.9    2.915      58.993
2015    9       24     7   3    3.7209   644.8    2.916      58.985
2015    9       24     7  10    3.7209   644.7    2.917      58.978
2015    9       24     7  16    3.7210   644.6    2.918      58.970
2015    9       24     7  23    3.7210   644.6    2.918      58.963
2015    9       24     7  29    3.7210   644.5    2.919      58.956
2015    9       24     7  36    3.7210   644.4    2.920      58.949
2015    9       24     7  43    3.7210   644.3    2.921      58.943
2015    9       24     7  49    3.7209   644.2    2.922      58.937
2015    9       24     7  56    3.7208   644.2    2.923      58.931
2015    9       24     8   2    3.7207   644.1    2.924      58.926
2015    9       24     8   9    3.7206   644.0    2.925      58.921
2015    9       24     8  15    3.7204   643.9    2.926      58.916
2015    9       24     8  22    3.7203   643.9    2.926      58.912
2015    9       24     8  29    3.7201   643.8    2.927      58.908
2015    9       24     8  35    3.7199   643.7    2.927      58.902
2015    9       24     8  42    3.7196   643.6    2.928      58.896
2015    9       24     8  48    3.7194   643.6    2.928      58.889
2015    9       24     8  55    3.7191   643.5    2.929      58.882
2015    9       24     9   1    3.7188   643.4    2.929      58.874
2015    9       24     9   8    3.7185   643.3    2.929      58.865
2015    9       24     9  15    3.7182   643.3    2.930      58.855
2015    9       24     9  21    3.7179   643.2    2.930      58.844
2015    9       24     9  28    3.7175   643.1    2.930      58.833
2015    9       24     9  34    3.7171   643.0    2.930      58.820
2015    9       24     9  41    3.7167   643.0    2.930      58.808
2015    9       24     9  47    3.7163   642.9    2.930      58.794
2015    9       24     9  54    3.7159   642.8    2.930      58.780
2015    9       24    10   1    3.7155   642.8    2.930      58.765
2015    9       24    10   7    3.7150   642.7    2.930      58.750
2015    9       24    10  14    3.7145   642.6    2.930      58.734
2015    9       24    10  20    3.7140   642.5    2.930      58.718
2015    9       24    10  27    3.7135   642.5    2.930      58.701
2015    9       24    10  34    3.7130   642.4    2.929      58.684
2015    9       24    10  40    3.7125   642.3    2.929      58.666
2015    9       24    10  47    3.7120   642.3    2.929      58.648
2015    9       24    10  53    3.7114   642.2    2.929      58.630
2015    9       24    11   0    3.7108   642.1    2.929      58.611
2015    9       24    11   6    3.7103   642.1    2.929      58.592
2015    9       24    11  13    3.7097   642.0    2.929      58.573
2015    9       24    11  20    3.7091   641.9    2.928      58.554
2015    9       24    11  26    3.7085   641.8    2.928      58.535
2015    9       24    11  33    3.7079   641.8    2.928      58.516
2015    9       24    11  39    3.7072   641.7    2.928      58.498
2015    9       24    11  46    3.7066   641.6    2.928      58.479
2015    9       24    11  52    3.7060   641.5    2.928      58.461
2015    9       24    11  59    3.7053   641.5    2.928      58.444
2015    9       24    12   6    3.7046   641.4    2.928      58.427
2015    9       24    12  12    3.7040   641.3    2.928      58.411
2015    9       24    12  19    3.7033   641.2    2.928      58.396
2015    9       24    12  25    3.7027   641.2    2.929      58.381
2015    9       24    12  32    3.7020   641.1    2.929      58.367
2015    9       24    12  38    3.7013   641.0    2.929      58.354
2015    9       24    12  45    3.7006   640.9    2.930      58.341
2015    9       24    12  52    3.6999   640.9    2.930      58.329
2015    9       24    12  58    3.6992   640.8    2.930      58.317
2015    9       24    13   5    3.6985   640.7    2.931      58.307
2015    9       24    13  11    3.6978   640.6    2.931      58.296
2015    9       24    13  18    3.6971   640.6    2.932      58.286
2015    9       24    13  25    3.6963   640.5    2.932      58.276
2015    9       24    13  31    3.6956   640.4    2.932      58.267
2015    9       24    13  38    3.6949   640.3    2.933      58.257
2015    9       24    13  44    3.6941   640.3    2.933      58.247
2015    9       24    13  51    3.6934   640.2    2.933      58.237
2015    9       24    13  57    3.6926   640.1    2.933      58.226
2015    9       24    14   4    3.6918   640.0    2.933      58.214
2015    9       24    14  11    3.6910   640.0    2.933      58.201
2015    9       24    14  17    3.6902   639.9    2.933      58.187
2015    9       24    14  24    3.6894   639.8    2.933      58.173
2015    9       24    14  30    3.6886   639.7    2.933      58.157
2015    9       24    14  37    3.6878   639.7    2.933      58.141
2015    9       24    14  43    3.6870   639.6    2.933      58.123
2015    9       24    14  50    3.6862   639.5    2.933      58.106
2015    9       24    14  57    3.6853   639.4    2.933      58.088
2015    9       24    15   3    3.6845   639.4    2.933      58.070
2015    9       24    15  10    3.6837   639.3    2.933      58.051
2015    9       24    15  16    3.6829   639.2    2.933      58.032
2015    9       24    15  23    3.6820   639.1    2.933      58.013
2015    9       24    15  29    3.6812   639.0    2.933      57.994
2015    9       24    15  36    3.6804   639.0    2.932      57.975
2015    9       24    15  42    3.6795   638.9    2.932      57.956
2015    9       24    15  49    3.6787   638.8    2.932      57.937
2015    9       24    15  56    3.6779   638.7    2.932      57.918
2015    9       24    16   2    3.6771   638.7    2.933      57.900
2015    9       24    16   9    3.6762   638.6    2.933      57.881
2015    9       24    16  15    3.6754   638.5    2.933      57.863
2015    9       24    16  22    3.6746   638.4    2.933      57.846
2015    9       24    16  29    3.6737   638.3    2.933      57.829
2015    9       24    16  35    3.6729   638.3    2.933      57.812
2015    9       24    16  42    3.6721   638.2    2.933      57.796
2015    9       24    16  48    3.6712   638.1    2.933      57.781
2015    9       24    16  55    3.6704   638.0    2.934      57.766
2015    9       24    17   1    3.6696   637.9    2.934      57.752
2015    9       24    17   8    3.6688   637.8    2.934      57.739
2015    9       24    17  15    3.6679   637.7    2.935      57.726
2015    9       24    17  21    3.6671   637.7    2.935      57.714
2015    9       24    17  28    3.6663   637.6    2.935      57.703
2015    9       24    17  34    3.6655   637.5    2.936      57.691
2015    9       24    17  41    3.6647   637.4    2.936      57.680
2015    9       24    17  47    3.6639   637.3    2.936      57.669
2015    9       24    17  54    3.6631   637.3    2.937      57.659
2015    9       24    18   1    3.6622   637.2    2.937      57.649
2015    9       24    18   7    3.6614   637.1    2.937      57.639
2015    9       24    18  14    3.6605   637.0    2.937      57.627
2015    9       24    18  20    3.6597   636.9    2.937      57.615
2015    9       24    18  27    3.6588   636.8    2.937      57.600
2015    9       24    18  33    3.6579   636.8    2.937      57.585
2015    9       24    18  40    3.6570   636.7    2.937      57.568
2015    9       24    18  47    3.6560   636.6    2.936      57.550
2015    9       24    18  53    3.6551   636.5    2.936      57.530
2015    9       24    19   0    3.6542   636.4    2.936      57.510
2015    9       24    19   6    3.6532   636.4    2.936      57.488
2015    9       24    19  13    3.6523   636.3    2.935      57.466
2015    9       24    19  19    3.6513   636.2    2.935      57.443
2015    9       24    19  26    3.6504   636.1    2.934      57.419
2015    9       24    19  33    3.6494   636.0    2.934      57.395
2015    9       24    19  39    3.6484   635.9    2.934      57.370
2015    9       24    19  46    3.6475   635.8    2.933      57.345
2015    9       24    19  52    3.6465   635.8    2.933      57.320
2015    9       24    19  59    3.6455   635.7    2.933      57.295
2015    9       24    20   5    3.6446   635.6    2.932      57.269
2015    9       24    20  12    3.6436   635.5    2.932      57.243
2015    9       24    20  19    3.6426   635.4    2.932      57.218
2015    9       24    20  25    3.6417   635.3    2.931      57.193
2015    9       24    20  32    3.6407   635.2    2.931      57.169
2015    9       24    20  38    3.6398   635.1    2.931      57.144
2015    9       24    20  45    3.6388   635.0    2.931      57.121
2015    9       24    20  51    3.6379   634.9    2.931      57.099
2015    9       24    20  58    3.6370   634.8    2.931      57.077
2015    9       24    21   5    3.6361   634.7    2.931      57.056
2015    9       24    21  11    3.6352   634.6    2.932      57.037
2015    9       24    21  18    3.6344   634.5    2.932      57.019
2015    9       24    21  24    3.6335   634.4    2.932      57.002
2015    9       24    21  31    3.6327   634.4    2.933      56.986
2015    9       24    21  37    3.6319   634.3    2.934      56.972
2015    9       24    21  44    3.6311   634.2    2.934      56.959
2015    9       24    21  51    3.6303   634.1    2.935      56.946
2015    9       24    21  57    3.6295   634.0    2.935      56.935
2015    9       24    22   4    3.6287   633.9    2.936      56.925
2015    9       24    22  10    3.6279   633.8    2.937      56.915
2015    9       24    22  17    3.6272   633.7    2.938      56.906
2015    9       24    22  23    3.6264   633.6    2.938      56.897
2015    9       24    22  30    3.6256   633.5    2.939      56.889
2015    9       24    22  37    3.6248   633.4    2.940      56.880
2015    9       24    22  43    3.6240   633.4    2.940      56.871
2015    9       24    22  50    3.6232   633.3    2.941      56.861
2015    9       24    22  56    3.6223   633.2    2.942      56.852
2015    9       24    23   3    3.6215   633.1    2.942      56.841
2015    9       24    23   9    3.6207   633.0    2.943      56.830
2015    9       24    23  16    3.6199   632.9    2.943      56.819
2015    9       24    23  23    3.6190   632.8    2.944      56.807
2015    9       24    23  29    3.6182   632.7    2.944      56.795
2015    9       24    23  36    3.6174   632.6    2.945      56.783
2015    9       24    23  42    3.6165   632.5    2.945      56.771
2015    9       24    23  49    3.6157   632.5    2.946      56.758
2015    9       24    23  55    3.6149   632.4    2.946      56.745
2015    9       25     0   2    3.6140   632.3    2.947      56.731
2015    9       25     0   9    3.6132   632.2    2.947      56.718
2015    9       25     0  15    3.6123   632.1    2.947      56.704
2015    9       25     0  22    3.6115   632.0    2.948      56.691
2015    9       25     0  28    3.6106   631.9    2.948      56.677
2015    9       25     0  35    3.6097   631.8    2.949      56.663
2015    9       25     0  41    3.6088   631.8    2.949      56.649
2015    9       25     0  48    3.6080   631.7    2.950      56.635
2015    9       25     0  55    3.6071   631.6    2.950      56.621
2015    9       25     1   1    3.6062   631.5    2.950      56.606
2015    9       25     1   8    3.6052   631.4    2.951      56.592
2015    9       25     1  14    3.6043   631.3    2.951      56.578
2015    9       25     1  21    3.6034   631.2    2.951      56.563
2015    9       25     1  27    3.6025   631.2    2.952      56.548
2015    9       25     1  34    3.6015   631.1    2.952      56.533
2015    9       25     1  41    3.6006   631.0    2.952      56.518
2015    9       25     1  47    3.5996   630.9    2.952      56.503
2015    9       25     1  54    3.5987   630.8    2.953      56.488
2015    9       25     2   0    3.5977   630.7    2.953      56.472
2015    9       25     2   7    3.5968   630.6    2.953      56.456
2015    9       25     2  13    3.5958   630.5    2.953      56.440
2015    9       25     2  20    3.5949   630.5    2.953      56.423
2015    9       25     2  27    3.5940   630.4    2.953      56.407
2015    9       25     2  33    3.5930   630.3    2.954      56.390
2015    9       25     2  40    3.5921   630.2    2.954      56.372
2015    9       25     2  46    3.5912   630.1    2.954      56.355
2015    9       25     2  53    3.5902   630.0    2.954      56.337
2015    9       25     3   0    3.5893   629.9    2.954      56.318
2015    9       25     3   6    3.5883   629.8    2.954      56.299
2015    9       25     3  13    3.5874   629.7    2.953      56.280
2015    9       25     3  19    3.5864   629.6    2.953      56.260
2015    9       25     3  26    3.5854   629.6    2.953      56.239
2015    9       25     3  32    3.5845   629.5    2.953      56.218
2015    9       25     3  39    3.5835   629.4    2.953      56.197
2015    9       25     3  46    3.5825   629.3    2.952      56.174
2015    9       25     3  52    3.5816   629.2    2.952      56.150
2015    9       25     3  59    3.5806   629.1    2.952      56.126
2015    9       25     4   5    3.5796   629.0    2.952      56.102
2015    9       25     4  12    3.5787   628.9    2.951      56.077
2015    9       25     4  18    3.5777   628.8    2.951      56.052
2015    9       25     4  25    3.5767   628.7    2.951      56.027
2015    9       25     4  32    3.5758   628.6    2.951      56.002
2015    9       25     4  38    3.5748   628.5    2.950      55.976
2015    9       25     4  45    3.5738   628.4    2.950      55.951
2015    9       25     4  51    3.5729   628.3    2.950      55.926
2015    9       25     4  58    3.5719   628.2    2.950      55.902
2015    9       25     5   4    3.5710   628.1    2.950      55.877
2015    9       25     5  11    3.5700   628.0    2.950      55.853
2015    9       25     5  18    3.5691   627.9    2.950      55.830
2015    9       25     5  24    3.5681   627.8    2.950      55.807
2015    9       25     5  31    3.5672   627.7    2.950      55.785
2015    9       25     5  37    3.5663   627.6    2.951      55.764
2015    9       25     5  44    3.5653   627.5    2.951      55.743
2015    9       25     5  50    3.5644   627.4    2.951      55.723
2015    9       25     5  57    3.5635   627.3    2.951      55.704
2015    9       25     6   3    3.5626   627.2    2.952      55.685
2015    9       25     6  10    3.5617   627.1    2.952      55.668
2015    9       25     6  17    3.5608   627.0    2.953      55.651
2015    9       25     6  23    3.5599   626.8    2.953      55.635
2015    9       25     6  30    3.5590   626.7    2.954      55.619
2015    9       25     6  36    3.5581   626.6    2.954      55.604
2015    9       25     6  43    3.5572   626.5    2.955      55.589
2015    9       25     6  49    3.5564   626.4    2.955      55.575
2015    9       25     6  56    3.5555   626.3    2.956      55.561
2015    9       25     7   3    3.5546   626.2    2.957      55.547
2015    9       25     7   9    3.5538   626.1    2.957      55.533
2015    9       25     7  16    3.5529   626.0    2.958      55.519
2015    9       25     7  22    3.5520   625.9    2.958      55.505
2015    9       25     7  29    3.5512   625.8    2.959      55.490
2015    9       25     7  35    3.5503   625.7    2.959      55.475
2015    9       25     7  42    3.5494   625.6    2.960      55.459
2015    9       25     7  49    3.5485   625.5    2.960      55.443
2015    9       25     7  55    3.5477   625.4    2.960      55.426
2015    9       25     8   2    3.5468   625.3    2.961      55.409
2015    9       25     8   8    3.5459   625.2    2.961      55.392
2015    9       25     8  15    3.5450   625.1    2.962      55.373
2015    9       25     8  21    3.5441   625.0    2.962      55.355
2015    9       25     8  28    3.5433   624.9    2.962      55.337
2015    9       25     8  35    3.5424   624.8    2.963      55.318
2015    9       25     8  41    3.5415   624.6    2.963      55.299
2015    9       25     8  48    3.5407   624.5    2.964      55.280
2015    9       25     8  54    3.5398   624.4    2.964      55.262
2015    9       25     9   1    3.5390   624.3    2.965      55.243
2015    9       25     9   7    3.5381   624.2    2.965      55.226
2015    9       25     9  14    3.5373   624.1    2.966      55.209
2015    9       25     9  21    3.5365   624.0    2.966      55.192
2015    9       25     9  27    3.5356   623.9    2.967      55.176
2015    9       25     9  34    3.5348   623.8    2.968      55.161
2015    9       25     9  40    3.5339   623.7    2.968      55.148
2015    9       25     9  47    3.5331   623.6    2.969      55.134
2015    9       25     9  53    3.5322   623.5    2.970      55.122
2015    9       25    10   0    3.5314   623.4    2.970      55.110
2015    9       25    10   7    3.5305   623.3    2.971      55.099
2015    9       25    10  13    3.5296   623.2    2.972      55.089
2015    9       25    10  20    3.5287   623.1    2.972      55.078
2015    9       25    10  26    3.5278   623.0    2.973      55.067
2015    9       25    10  33    3.5269   622.9    2.974      55.056
2015    9       25    10  40    3.5259   622.8    2.974      55.044
2015    9       25    10  46    3.5250   622.7    2.975      55.031
2015    9       25    10  53    3.5240   622.6    2.975      55.017
2015    9       25    10  59    3.5231   622.5    2.976      55.004
2015    9       25    11   6    3.5221   622.4    2.976      54.989
2015    9       25    11  12    3.5211   622.3    2.977      54.974
2015    9       25    11  19    3.5201   622.2    2.977      54.958
2015    9       25    11  26    3.5191   622.1    2.977      54.942
2015    9       25    11  32    3.5181   622.0    2.978      54.925
2015    9       25    11  39    3.5171   621.9    2.978      54.908
2015    9       25    11  45    3.5161   621.8    2.978      54.890
2015    9       25    11  52    3.5151   621.7    2.978      54.871
2015    9       25    11  58    3.5141   621.6    2.978      54.852
2015    9       25    12   5    3.5132   621.5    2.978      54.831
2015    9       25    12  12    3.5122   621.4    2.978      54.810
2015    9       25    12  18    3.5112   621.3    2.978      54.788
2015    9       25    12  25    3.5102   621.2    2.978      54.765
2015    9       25    12  31    3.5092   621.1    2.978      54.741
2015    9       25    12  38    3.5083   621.0    2.978      54.716
2015    9       25    12  44    3.5073   620.9    2.978      54.691
2015    9       25    12  51    3.5063   620.8    2.978      54.666
2015    9       25    12  57    3.5053   620.7    2.978      54.640
2015    9       25    13   4    3.5044   620.6    2.978      54.614
2015    9       25    13  11    3.5034   620.5    2.978      54.588
2015    9       25    13  17    3.5025   620.3    2.978      54.562
2015    9       25    13  24    3.5016   620.2    2.978      54.536
2015    9       25    13  30    3.5006   620.1    2.978      54.511
2015    9       25    13  37    3.4997   620.0    2.979      54.486
2015    9       25    13  43    3.4988   619.9    2.979      54.461
2015    9       25    13  50    3.4979   619.8    2.979      54.437
2015    9       25    13  57    3.4970   619.7    2.979      54.412
2015    9       25    14   3    3.4961   619.6    2.979      54.389
2015    9       25    14  10    3.4952   619.5    2.980      54.366
2015    9       25    14  16    3.4944   619.4    2.980      54.343
2015    9       25    14  23    3.4935   619.3    2.981      54.321
2015    9       25    14  29    3.4926   619.1    2.981      54.299
2015    9       25    14  36    3.4917   619.0    2.981      54.278
2015    9       25    14  43    3.4909   618.9    2.982      54.258
2015    9       25    14  49    3.4900   618.8    2.982      54.238
2015    9       25    14  56    3.4891   618.7    2.983      54.219
2015    9       25    15   2    3.4882   618.6    2.983      54.201
2015    9       25    15   9    3.4874   618.5    2.984      54.184
2015    9       25    15  15    3.4865   618.3    2.985      54.167
2015    9       25    15  22    3.4857   618.2    2.985      54.151
2015    9       25    15  29    3.4848   618.1    2.986      54.136
2015    9       25    15  35    3.4840   618.0    2.986      54.121
2015    9       25    15  42    3.4831   617.9    2.987      54.107
2015    9       25    15  48    3.4823   617.8    2.988      54.093
2015    9       25    15  55    3.4814   617.7    2.988      54.080
2015    9       25    16   1    3.4805   617.6    2.989      54.066
2015    9       25    16   8    3.4796   617.5    2.989      54.052
2015    9       25    16  15    3.4787   617.3    2.990      54.038
2015    9       25    16  21    3.4778   617.2    2.990      54.023
2015    9       25    16  28    3.4769   617.1    2.991      54.009
2015    9       25    16  34    3.4760   617.0    2.991      53.993
2015    9       25    16  41    3.4750   616.9    2.992      53.977
2015    9       25    16  47    3.4741   616.8    2.992      53.960
2015    9       25    16  54    3.4732   616.7    2.993      53.942
2015    9       25    17   1    3.4722   616.6    2.993      53.923
2015    9       25    17   7    3.4713   616.5    2.993      53.903
2015    9       25    17  14    3.4703   616.3    2.993      53.882
2015    9       25    17  20    3.4693   616.2    2.994      53.861
2015    9       25    17  27    3.4684   616.1    2.994      53.839
2015    9       25    17  33    3.4674   616.0    2.994      53.817
2015    9       25    17  40    3.4665   615.9    2.994      53.794
2015    9       25    17  47    3.4655   615.8    2.995      53.771
2015    9       25    17  53    3.4646   615.7    2.995      53.747
2015    9       25    18   0    3.4636   615.5    2.995      53.724
2015    9       25    18   6    3.4626   615.4    2.996      53.700
2015    9       25    18  13    3.4617   615.3    2.996      53.676
2015    9       25    18  20    3.4607   615.2    2.996      53.652
2015    9       25    18  26    3.4598   615.1    2.997      53.629
2015    9       25    18  33    3.4589   614.9    2.997      53.605
2015    9       25    18  39    3.4579   614.8    2.998      53.582
2015    9       25    18  46    3.4570   614.7    2.998      53.559
2015    9       25    18  52    3.4561   614.6    2.999      53.538
2015    9       25    18  59    3.4552   614.5    3.000      53.516
2015    9       25    19   5    3.4543   614.4    3.000      53.495
2015    9       25    19  12    3.4534   614.2    3.001      53.476
2015    9       25    19  19    3.4526   614.1    3.002      53.457
2015    9       25    19  25    3.4517   614.0    3.002      53.438
2015    9       25    19  32    3.4508   613.9    3.003      53.422
2015    9       25    19  38    3.4500   613.8    3.004      53.406
2015    9       25    19  45    3.4491   613.6    3.005      53.390
2015    9       25    19  51    3.4483   613.5    3.005      53.375
2015    9       25    19  58    3.4474   613.4    3.006      53.360
2015    9       25    20   5    3.4466   613.3    3.007      53.345
2015    9       25    20  11    3.4457   613.2    3.008      53.330
2015    9       25    20  18    3.4449   613.1    3.009      53.315
2015    9       25    20  24    3.4440   612.9    3.010      53.299
2015    9       25    20  31    3.4431   612.8    3.010      53.284
2015    9       25    20  37    3.4422   612.7    3.011      53.268
2015    9       25    20  44    3.4413   612.6    3.012      53.252
2015    9       25    20  51    3.4404   612.5    3.013      53.236
2015    9       25    20  57    3.4394   612.4    3.013      53.219
2015    9       25    21   4    3.4385   612.2    3.014      53.203
2015    9       25    21  10    3.4375   612.1    3.014      53.185
2015    9       25    21  17    3.4365   612.0    3.015      53.167
2015    9       25    21  23    3.4356   611.9    3.015      53.149
2015    9       25    21  30    3.4346   611.8    3.016      53.129
2015    9       25    21  37    3.4337   611.7    3.016      53.108
2015    9       25    21  43    3.4327   611.5    3.016      53.087
2015    9       25    21  50    3.4317   611.4    3.016      53.065
2015    9       25    21  56    3.4307   611.3    3.017      53.043
2015    9       25    22   3    3.4297   611.2    3.017      53.020
2015    9       25    22   9    3.4288   611.0    3.017      52.997
2015    9       25    22  16    3.4278   610.9    3.018      52.973
2015    9       25    22  23    3.4269   610.8    3.018      52.950
2015    9       25    22  29    3.4259   610.7    3.018      52.926
2015    9       25    22  36    3.4250   610.6    3.018      52.903
2015    9       25    22  42    3.4240   610.4    3.019      52.880
2015    9       25    22  49    3.4231   610.3    3.019      52.858
2015    9       25    22  55    3.4222   610.2    3.020      52.835
2015    9       25    23   2    3.4213   610.1    3.020      52.813
2015    9       25    23   9    3.4203   610.0    3.021      52.791
2015    9       25    23  15    3.4194   609.8    3.021      52.770
2015    9       25    23  22    3.4185   609.7    3.022      52.749
2015    9       25    23  28    3.4176   609.6    3.022      52.728
2015    9       25    23  35    3.4167   609.5    3.023      52.707
2015    9       25    23  41    3.4157   609.4    3.023      52.687
2015    9       25    23  48    3.4148   609.2    3.024      52.666
2015    9       25    23  55    3.4138   609.1    3.024      52.646
2015    9       26     0   1    3.4129   609.0    3.025      52.626
2015    9       26     0   8    3.4120   608.9    3.025      52.606
2015    9       26     0  14    3.4110   608.8    3.026      52.586
2015    9       26     0  21    3.4101   608.6    3.026      52.566
2015    9       26     0  27    3.4091   608.5    3.027      52.546
2015    9       26     0  34    3.4082   608.4    3.027      52.526
2015    9       26     0  41    3.4073   608.3    3.028      52.507
2015    9       26     0  47    3.4064   608.1    3.029      52.487
2015    9       26     0  54    3.4055   608.0    3.029      52.467
2015    9       26     1   0    3.4046   607.9    3.030      52.447
2015    9       26     1   7    3.4037   607.8    3.030      52.427
2015    9       26     1  13    3.4028   607.7    3.031      52.407
2015    9       26     1  20    3.4019   607.6    3.031      52.388
2015    9       26     1  27    3.4010   607.4    3.032      52.368
2015    9       26     1  33    3.4001   607.3    3.032      52.348
2015    9       26     1  40    3.3991   607.2    3.033      52.328
2015    9       26     1  46    3.3982   607.1    3.033      52.308
2015    9       26     1  53    3.3973   607.0    3.034      52.287
2015    9       26     1  59    3.3963   606.8    3.034      52.267
2015    9       26     2   6    3.3954   606.7    3.034      52.246
2015    9       26     2  13    3.3944   606.6    3.035      52.224
2015    9       26     2  19    3.3935   606.5    3.035      52.203
2015    9       26     2  26    3.3925   606.3    3.035      52.180
2015    9       26     2  32    3.3916   606.2    3.036      52.157
2015    9       26     2  39    3.3907   606.1    3.036      52.135
2015    9       26     2  45    3.3897   606.0    3.036      52.111
2015    9       26     2  52    3.3888   605.8    3.037      52.088
2015    9       26     2  59    3.3878   605.7    3.037      52.065
2015    9       26     3   5    3.3869   605.6    3.037      52.041
2015    9       26     3  12    3.3860   605.5    3.038      52.018
2015    9       26     3  18    3.3850   605.3    3.038      51.995
2015    9       26     3  25    3.3841   605.2    3.038      51.972
2015    9       26     3  31    3.3832   605.1    3.039      51.948
2015    9       26     3  38    3.3822   605.0    3.039      51.925
2015    9       26     3  45    3.3813   604.8    3.040      51.903
2015    9       26     3  51    3.3804   604.7    3.040      51.880
2015    9       26     3  58    3.3795   604.6    3.041      51.858
2015    9       26     4   4    3.3786   604.5    3.041      51.836
2015    9       26     4  11    3.3776   604.3    3.042      51.814
2015    9       26     4  17    3.3767   604.2    3.043      51.793
2015    9       26     4  24    3.3758   604.1    3.043      51.772
2015    9       26     4  31    3.3749   603.9    3.044      51.751
2015    9       26     4  37    3.3739   603.8    3.045      51.731
2015    9       26     4  44    3.3730   603.7    3.045      51.711
2015    9       26     4  50    3.3721   603.6    3.046      51.691
2015    9       26     4  57    3.3712   603.4    3.047      51.672
2015    9       26     5   3    3.3702   603.3    3.048      51.652
2015    9       26     5  10    3.3693   603.2    3.049      51.633
2015    9       26     5  17    3.3684   603.0    3.049      51.614
2015    9       26     5  23    3.3675   602.9    3.050      51.595
2015    9       26     5  30    3.3665   602.8    3.051      51.576
2015    9       26     5  36    3.3656   602.7    3.052      51.557
2015    9       26     5  43    3.3647   602.5    3.052      51.537
2015    9       26     5  49    3.3637   602.4    3.053      51.518
2015    9       26     5  56    3.3628   602.3    3.054      51.498
2015    9       26     6   2    3.3618   602.1    3.055      51.479
2015    9       26     6   9    3.3609   602.0    3.055      51.459
2015    9       26     6  16    3.3599   601.9    3.056      51.438
2015    9       26     6  22    3.3589   601.7    3.057      51.417
2015    9       26     6  29    3.3580   601.6    3.057      51.397
2015    9       26     6  35    3.3570   601.5    3.058      51.375
2015    9       26     6  42    3.3560   601.3    3.058      51.353
2015    9       26     6  49    3.3550   601.2    3.059      51.331
2015    9       26     6  55    3.3541   601.1    3.059      51.309
2015    9       26     7   2    3.3531   600.9    3.060      51.286
2015    9       26     7   8    3.3521   600.8    3.060      51.263
2015    9       26     7  15    3.3511   600.7    3.060      51.239
2015    9       26     7  21    3.3502   600.5    3.061      51.216
2015    9       26     7  28    3.3492   600.4    3.061      51.192
2015    9       26     7  35    3.3483   600.3    3.062      51.169
2015    9       26     7  41    3.3473   600.1    3.062      51.145
2015    9       26     7  48    3.3464   600.0    3.062      51.121
2015    9       26     7  54    3.3454   599.9    3.063      51.097
2015    9       26     8   1    3.3445   599.7    3.063      51.074
2015    9       26     8   7    3.3436   599.6    3.064      51.050
2015    9       26     8  14    3.3427   599.5    3.064      51.027
2015    9       26     8  21    3.3418   599.3    3.065      51.004
2015    9       26     8  27    3.3409   599.2    3.065      50.981
2015    9       26     8  34    3.3400   599.1    3.066      50.958
2015    9       26     8  40    3.3391   599.0    3.066      50.935
2015    9       26     8  47    3.3382   598.8    3.067      50.913
2015    9       26     8  53    3.3373   598.7    3.067      50.890
2015    9       26     9   0    3.3364   598.6    3.068      50.868
2015    9       26     9   7    3.3355   598.4    3.068      50.846
2015    9       26     9  13    3.3346   598.3    3.069      50.824
2015    9       26     9  20    3.3337   598.2    3.069      50.802
2015    9       26     9  26    3.3328   598.1    3.070      50.779
2015    9       26     9  33    3.3318   597.9    3.070      50.757
2015    9       26     9  39    3.3309   597.8    3.071      50.735
2015    9       26     9  46    3.3299   597.7    3.071      50.712
2015    9       26     9  53    3.3289   597.6    3.072      50.689
2015    9       26     9  59    3.3279   597.4    3.072      50.666
2015    9       26    10   6    3.3269   597.3    3.072      50.642
2015    9       26    10  12    3.3259   597.2    3.073      50.618
2015    9       26    10  19    3.3248   597.1    3.073      50.594
2015    9       26    10  25    3.3238   596.9    3.073      50.569
2015    9       26    10  32    3.3228   596.8    3.073      50.543
2015    9       26    10  39    3.3217   596.7    3.074      50.517
2015    9       26    10  45    3.3206   596.5    3.074      50.491
2015    9       26    10  52    3.3196   596.4    3.074      50.464
2015    9       26    10  58    3.3185   596.3    3.074      50.437
2015    9       26    11   5    3.3174   596.1    3.074      50.410
2015    9       26    11  11    3.3164   596.0    3.074      50.382
2015    9       26    11  18    3.3153   595.9    3.074      50.354
2015    9       26    11  25    3.3142   595.7    3.074      50.325
2015    9       26    11  31    3.3131   595.6    3.074      50.297
2015    9       26    11  38    3.3120   595.4    3.074      50.269
2015    9       26    11  44    3.3110   595.3    3.075      50.241
2015    9       26    11  51    3.3099   595.2    3.075      50.213
2015    9       26    11  57    3.3088   595.0    3.075      50.185
2015    9       26    12   4    3.3078   594.9    3.075      50.158
2015    9       26    12  10    3.3067   594.7    3.076      50.132
2015    9       26    12  17    3.3057   594.6    3.076      50.106
2015    9       26    12  24    3.3047   594.5    3.077      50.080
2015    9       26    12  30    3.3037   594.3    3.077      50.055
2015    9       26    12  37    3.3027   594.2    3.078      50.031
2015    9       26    12  43    3.3017   594.0    3.079      50.008
2015    9       26    12  50    3.3007   593.9    3.079      49.985
2015    9       26    12  56    3.2997   593.8    3.080      49.962
2015    9       26    13   3    3.2986   593.6    3.081      49.940
2015    9       26    13  10    3.2976   593.5    3.082      49.918
2015    9       26    13  16    3.2966   593.3    3.083      49.897
2015    9       26    13  23    3.2956   593.2    3.084      49.875
2015    9       26    13  29    3.2946   593.1    3.084      49.854
2015    9       26    13  36    3.2935   592.9    3.085      49.833
2015    9       26    13  42    3.2925   592.8    3.086      49.813
2015    9       26    13  49    3.2915   592.6    3.087      49.792
2015    9       26    13  56    3.2905   592.5    3.088      49.770
2015    9       26    14   2    3.2894   592.4    3.088      49.749
2015    9       26    14   9    3.2884   592.2    3.089      49.727
2015    9       26    14  15    3.2874   592.1    3.090      49.706
2015    9       26    14  22    3.2864   591.9    3.091      49.684
2015    9       26    14  28    3.2854   591.8    3.091      49.661
2015    9       26    14  35    3.2843   591.6    3.092      49.638
2015    9       26    14  42    3.2833   591.5    3.092      49.615
2015    9       26    14  48    3.2823   591.4    3.093      49.591
2015    9       26    14  55    3.2813   591.2    3.093      49.566
2015    9       26    15   1    3.2802   591.1    3.094      49.541
2015    9       26    15   8    3.2792   590.9    3.094      49.515
2015    9       26    15  15    3.2782   590.8    3.095      49.489
2015    9       26    15  21    3.2771   590.6    3.095      49.462
2015    9       26    15  28    3.2761   590.5    3.095      49.435
2015    9       26    15  34    3.2751   590.3    3.096      49.408
2015    9       26    15  41    3.2741   590.2    3.096      49.380
2015    9       26    15  47    3.2730   590.1    3.096      49.352
2015    9       26    15  54    3.2720   589.9    3.096      49.324
2015    9       26    16   1    3.2710   589.8    3.097      49.296
2015    9       26    16   7    3.2699   589.6    3.097      49.267
2015    9       26    16  14    3.2689   589.5    3.097      49.238
2015    9       26    16  20    3.2679   589.3    3.097      49.209
2015    9       26    16  27    3.2668   589.2    3.098      49.180
2015    9       26    16  33    3.2658   589.1    3.098      49.151
2015    9       26    16  40    3.2648   588.9    3.098      49.122
2015    9       26    16  47    3.2638   588.8    3.098      49.093
2015    9       26    16  53    3.2627   588.6    3.099      49.063
2015    9       26    17   0    3.2617   588.5    3.099      49.034
2015    9       26    17   6    3.2607   588.3    3.099      49.005
2015    9       26    17  13    3.2596   588.2    3.099      48.976
2015    9       26    17  19    3.2586   588.0    3.100      48.947
2015    9       26    17  26    3.2576   587.9    3.100      48.918
2015    9       26    17  33    3.2565   587.7    3.100      48.889
2015    9       26    17  39    3.2555   587.6    3.101      48.861
2015    9       26    17  46    3.2545   587.5    3.101      48.833
2015    9       26    17  52    3.2534   587.3    3.102      48.805
2015    9       26    17  59    3.2524   587.2    3.102      48.777
2015    9       26    18   5    3.2514   587.0    3.103      48.750
2015    9       26    18  12    3.2504   586.9    3.103      48.722
2015    9       26    18  18    3.2493   586.7    3.104      48.696
2015    9       26    18  25    3.2483   586.6    3.104      48.669
2015    9       26    18  32    3.2473   586.4    3.105      48.642
2015    9       26    18  38    3.2463   586.3    3.105      48.616
2015    9       26    18  45    3.2453   586.1    3.106      48.590
2015    9       26    18  51    3.2443   586.0    3.107      48.565
2015    9       26    18  58    3.2433   585.8    3.107      48.539
2015    9       26    19   4    3.2423   585.7    3.108      48.514
2015    9       26    19  11    3.2412   585.5    3.108      48.488
2015    9       26    19  18    3.2402   585.4    3.109      48.463
2015    9       26    19  24    3.2392   585.2    3.110      48.437
2015    9       26    19  31    3.2382   585.1    3.110      48.412
2015    9       26    19  37    3.2371   585.0    3.111      48.386
2015    9       26    19  44    3.2361   584.8    3.111      48.360
2015    9       26    19  50    3.2350   584.7    3.112      48.334
2015    9       26    19  57    3.2340   584.5    3.112      48.307
2015    9       26    20   4    3.2329   584.4    3.113      48.280
2015    9       26    20  10    3.2319   584.2    3.113      48.252
2015    9       26    20  17    3.2308   584.1    3.113      48.224
2015    9       26    20  23    3.2298   583.9    3.114      48.196
2015    9       26    20  30    3.2287   583.8    3.114      48.167
2015    9       26    20  36    3.2277   583.6    3.115      48.139
2015    9       26    20  43    3.2266   583.5    3.115      48.110
2015    9       26    20  50    3.2256   583.3    3.115      48.081
2015    9       26    20  56    3.2245   583.2    3.116      48.052
2015    9       26    21   3    3.2235   583.0    3.116      48.023
2015    9       26    21   9    3.2224   582.8    3.117      47.994
2015    9       26    21  16    3.2214   582.7    3.117      47.965
2015    9       26    21  22    3.2204   582.5    3.118      47.936
2015    9       26    21  29    3.2193   582.4    3.118      47.907
2015    9       26    21  36    3.2183   582.2    3.119      47.879
2015    9       26    21  42    3.2173   582.1    3.119      47.850
2015    9       26    21  49    3.2163   581.9    3.120      47.821
2015    9       26    21  55    3.2153   581.8    3.120      47.792
2015    9       26    22   2    3.2142   581.6    3.121      47.763
2015    9       26    22   8    3.2132   581.5    3.121      47.733
2015    9       26    22  15    3.2122   581.3    3.122      47.704
2015    9       26    22  22    3.2112   581.2    3.123      47.675
2015    9       26    22  28    3.2102   581.0    3.123      47.646
2015    9       26    22  35    3.2092   580.8    3.124      47.616
2015    9       26    22  41    3.2082   580.7    3.124      47.587
2015    9       26    22  48    3.2072   580.5    3.125      47.558
2015    9       26    22  54    3.2062   580.4    3.125      47.528
2015    9       26    23   1    3.2052   580.2    3.126      47.499
2015    9       26    23   8    3.2042   580.0    3.126      47.470
2015    9       26    23  14    3.2032   579.9    3.127      47.440
2015    9       26    23  21    3.2022   579.7    3.128      47.411
2015    9       26    23  27    3.2012   579.6    3.128      47.381
2015    9       26    23  34    3.2002   579.4    3.129      47.352
2015    9       26    23  41    3.1992   579.3    3.129      47.323
2015    9       26    23  47    3.1982   579.1    3.130      47.293
2015    9       26    23  54    3.1972   578.9    3.130      47.264
2015    9       27     0   0    3.1962   578.8    3.131      47.234
2015    9       27     0   7    3.1952   578.6    3.131      47.204
2015    9       27     0  13    3.1942   578.5    3.132      47.175
2015    9       27     0  20    3.1932   578.3    3.132      47.145
2015    9       27     0  26    3.1922   578.2    3.133      47.115
2015    9       27     0  33    3.1912   578.0    3.133      47.085
2015    9       27     0  40    3.1902   577.8    3.134      47.055
2015    9       27     0  46    3.1892   577.7    3.134      47.025
2015    9       27     0  53    3.1882   577.5    3.135      46.995
2015    9       27     0  59    3.1872   577.4    3.135      46.965
2015    9       27     1   6    3.1862   577.2    3.136      46.935
2015    9       27     1  12    3.1851   577.0    3.136      46.905
2015    9       27     1  19    3.1841   576.9    3.137      46.876
2015    9       27     1  26    3.1831   576.7    3.138      46.846
2015    9       27     1  32    3.1821   576.6    3.138      46.817
2015    9       27     1  39    3.1811   576.4    3.139      46.788
2015    9       27     1  45    3.1801   576.2    3.139      46.759
2015    9       27     1  52    3.1791   576.1    3.140      46.731
2015    9       27     1  58    3.1781   575.9    3.141      46.703
2015    9       27     2   5    3.1771   575.8    3.142      46.675
2015    9       27     2  12    3.1762   575.6    3.142      46.648
2015    9       27     2  18    3.1752   575.4    3.143      46.621
2015    9       27     2  25    3.1742   575.3    3.144      46.595
2015    9       27     2  31    3.1733   575.1    3.145      46.569
2015    9       27     2  38    3.1723   575.0    3.146      46.543
2015    9       27     2  44    3.1714   574.8    3.147      46.518
2015    9       27     2  51    3.1704   574.6    3.148      46.493
2015    9       27     2  58    3.1695   574.5    3.149      46.468
2015    9       27     3   4    3.1686   574.3    3.150      46.444
2015    9       27     3  11    3.1677   574.2    3.151      46.419
2015    9       27     3  17    3.1668   574.0    3.152      46.395
2015    9       27     3  24    3.1658   573.8    3.153      46.372
2015    9       27     3  30    3.1649   573.7    3.154      46.348
2015    9       27     3  37    3.1640   573.5    3.155      46.324
2015    9       27     3  44    3.1631   573.3    3.156      46.300
2015    9       27     3  50    3.1622   573.2    3.157      46.275
2015    9       27     3  57    3.1612   573.0    3.158      46.250
2015    9       27     4   3    3.1603   572.9    3.159      46.224
2015    9       27     4  10    3.1594   572.7    3.160      46.197
2015    9       27     4  16    3.1584   572.5    3.161      46.170
2015    9       27     4  23    3.1575   572.4    3.161      46.142
2015    9       27     4  30    3.1566   572.2    3.162      46.114
2015    9       27     4  36    3.1556   572.1    3.163      46.085
2015    9       27     4  43    3.1547   571.9    3.163      46.056
2015    9       27     4  49    3.1537   571.7    3.164      46.027
2015    9       27     4  56    3.1528   571.6    3.164      45.997
2015    9       27     5   2    3.1518   571.4    3.165      45.967
2015    9       27     5   9    3.1509   571.2    3.165      45.937
2015    9       27     5  16    3.1499   571.1    3.166      45.906
2015    9       27     5  22    3.1490   570.9    3.167      45.875
2015    9       27     5  29    3.1480   570.8    3.167      45.844
2015    9       27     5  35    3.1471   570.6    3.168      45.813
2015    9       27     5  42    3.1461   570.4    3.168      45.783
2015    9       27     5  48    3.1452   570.3    3.169      45.751
2015    9       27     5  55    3.1442   570.1    3.169      45.720
2015    9       27     6   2    3.1433   569.9    3.170      45.689
2015    9       27     6   8    3.1423   569.8    3.170      45.658
2015    9       27     6  15    3.1414   569.6    3.171      45.627
2015    9       27     6  21    3.1404   569.5    3.172      45.596
2015    9       27     6  28    3.1395   569.3    3.172      45.565
2015    9       27     6  34    3.1385   569.1    3.173      45.534
2015    9       27     6  41    3.1376   569.0    3.173      45.503
2015    9       27     6  48    3.1367   568.8    3.174      45.472
2015    9       27     6  54    3.1357   568.6    3.174      45.441
2015    9       27     7   1    3.1348   568.5    3.175      45.410
2015    9       27     7   7    3.1338   568.3    3.175      45.379
2015    9       27     7  14    3.1329   568.1    3.176      45.348
2015    9       27     7  21    3.1319   568.0    3.177      45.317
2015    9       27     7  27    3.1310   567.8    3.177      45.286
2015    9       27     7  34    3.1301   567.6    3.178      45.255
2015    9       27     7  40    3.1292   567.5    3.178      45.225
2015    9       27     7  47    3.1282   567.3    3.179      45.194
2015    9       27     7  53    3.1273   567.1    3.180      45.163
2015    9       27     8   0    3.1264   566.9    3.180      45.133
2015    9       27     8   6    3.1255   566.8    3.181      45.103
2015    9       27     8  13    3.1246   566.6    3.181      45.073
2015    9       27     8  20    3.1237   566.4    3.182      45.043
2015    9       27     8  26    3.1228   566.3    3.183      45.014
2015    9       27     8  33    3.1219   566.1    3.184      44.984
2015    9       27     8  39    3.1210   565.9    3.184      44.955
2015    9       27     8  46    3.1201   565.8    3.185      44.926
2015    9       27     8  52    3.1192   565.6    3.186      44.897
2015    9       27     8  59    3.1184   565.4    3.186      44.867
2015    9       27     9   6    3.1175   565.2    3.187      44.838
2015    9       27     9  12    3.1166   565.1    3.188      44.809
2015    9       27     9  19    3.1157   564.9    3.189      44.780
2015    9       27     9  25    3.1148   564.7    3.189      44.751
2015    9       27     9  32    3.1139   564.6    3.190      44.721
2015    9       27     9  38    3.1130   564.4    3.191      44.692
2015    9       27     9  45    3.1121   564.2    3.191      44.662
2015    9       27     9  52    3.1112   564.1    3.192      44.632
2015    9       27     9  58    3.1103   563.9    3.192      44.602
2015    9       27    10   5    3.1093   563.7    3.193      44.571
2015    9       27    10  11    3.1084   563.5    3.194      44.541
2015    9       27    10  18    3.1075   563.4    3.194      44.510
2015    9       27    10  24    3.1065   563.2    3.195      44.479
2015    9       27    10  31    3.1056   563.0    3.195      44.448
2015    9       27    10  38    3.1047   562.8    3.196      44.417
2015    9       27    10  44    3.1037   562.7    3.196      44.386
2015    9       27    10  51    3.1028   562.5    3.197      44.355
2015    9       27    10  57    3.1019   562.3    3.198      44.324
2015    9       27    11   4    3.1009   562.1    3.198      44.293
2015    9       27    11  10    3.1000   561.9    3.199      44.262
2015    9       27    11  17    3.0991   561.8    3.200      44.232
2015    9       27    11  24    3.0982   561.6    3.200      44.202
2015    9       27    11  30    3.0973   561.4    3.201      44.172
2015    9       27    11  37    3.0964   561.2    3.202      44.142
2015    9       27    11  43    3.0955   561.0    3.203      44.114
2015    9       27    11  50    3.0947   560.9    3.204      44.085
2015    9       27    11  56    3.0938   560.7    3.205      44.057
2015    9       27    12   3    3.0930   560.5    3.206      44.030
2015    9       27    12  10    3.0922   560.3    3.207      44.004
2015    9       27    12  16    3.0913   560.1    3.208      43.977
2015    9       27    12  23    3.0905   560.0    3.210      43.952
2015    9       27    12  29    3.0897   559.8    3.211      43.927
2015    9       27    12  36    3.0889   559.6    3.212      43.903
2015    9       27    12  42    3.0881   559.4    3.214      43.879
2015    9       27    12  49    3.0873   559.2    3.215      43.855
2015    9       27    12  56    3.0865   559.1    3.216      43.831
2015    9       27    13   2    3.0856   558.9    3.217      43.807
2015    9       27    13   9    3.0848   558.7    3.219      43.784
2015    9       27    13  15    3.0840   558.5    3.220      43.760
2015    9       27    13  22    3.0832   558.4    3.221      43.736
2015    9       27    13  28    3.0824   558.2    3.222      43.712
2015    9       27    13  35    3.0816   558.0    3.224      43.688
2015    9       27    13  42    3.0808   557.8    3.225      43.665
2015    9       27    13  48    3.0800   557.7    3.226      43.641
2015    9       27    13  55    3.0791   557.5    3.228      43.617
2015    9       27    14   1    3.0783   557.3    3.229      43.594
2015    9       27    14   8    3.0775   557.1    3.230      43.570
2015    9       27    14  14    3.0767   557.0    3.231      43.546
2015    9       27    14  21    3.0758   556.8    3.232      43.522
2015    9       27    14  28    3.0750   556.6    3.234      43.498
2015    9       27    14  34    3.0742   556.4    3.235      43.473
2015    9       27    14  41    3.0734   556.3    3.236      43.449
2015    9       27    14  47    3.0725   556.1    3.237      43.424
2015    9       27    14  54    3.0717   555.9    3.238      43.400
2015    9       27    15   0    3.0709   555.7    3.239      43.374
2015    9       27    15   7    3.0700   555.5    3.240      43.349
2015    9       27    15  14    3.0692   555.4    3.241      43.324
2015    9       27    15  20    3.0684   555.2    3.242      43.298
2015    9       27    15  27    3.0675   555.0    3.243      43.272
2015    9       27    15  33    3.0667   554.9    3.244      43.246
2015    9       27    15  40    3.0658   554.7    3.245      43.219
2015    9       27    15  46    3.0650   554.5    3.245      43.193
2015    9       27    15  53    3.0641   554.3    3.246      43.166
2015    9       27    16   0    3.0632   554.1    3.247      43.138
2015    9       27    16   6    3.0624   554.0    3.248      43.111
2015    9       27    16  13    3.0615   553.8    3.248      43.083
2015    9       27    16  19    3.0606   553.6    3.249      43.055
2015    9       27    16  26    3.0598   553.4    3.250      43.027
2015    9       27    16  32    3.0589   553.3    3.251      42.999
2015    9       27    16  39    3.0580   553.1    3.251      42.970
2015    9       27    16  46    3.0572   552.9    3.252      42.942
2015    9       27    16  52    3.0563   552.7    3.253      42.913
2015    9       27    16  59    3.0554   552.5    3.253      42.884
2015    9       27    17   5    3.0545   552.4    3.254      42.855
2015    9       27    17  12    3.0537   552.2    3.255      42.826
2015    9       27    17  18    3.0528   552.0    3.255      42.797
2015    9       27    17  25    3.0519   551.8    3.256      42.768
2015    9       27    17  32    3.0511   551.6    3.257      42.739
2015    9       27    17  38    3.0502   551.5    3.257      42.709
2015    9       27    17  45    3.0494   551.3    3.258      42.680
2015    9       27    17  51    3.0485   551.1    3.259      42.651
2015    9       27    17  58    3.0476   550.9    3.260      42.622
2015    9       27    18   4    3.0468   550.7    3.260      42.593
2015    9       27    18  11    3.0459   550.6    3.261      42.564
2015    9       27    18  18    3.0450   550.4    3.262      42.535
2015    9       27    18  24    3.0442   550.2    3.263      42.506
2015    9       27    18  31    3.0433   550.0    3.263      42.478
2015    9       27    18  37    3.0425   549.8    3.264      42.449
2015    9       27    18  44    3.0416   549.6    3.265      42.421
2015    9       27    18  50    3.0408   549.5    3.266      42.392
2015    9       27    18  57    3.0399   549.3    3.267      42.364
2015    9       27    19   4    3.0391   549.1    3.268      42.337
2015    9       27    19  10    3.0382   548.9    3.269      42.309
2015    9       27    19  17    3.0374   548.7    3.270      42.282
2015    9       27    19  23    3.0366   548.5    3.271      42.255
2015    9       27    19  30    3.0358   548.3    3.272      42.228
2015    9       27    19  36    3.0349   548.2    3.273      42.201
2015    9       27    19  43    3.0341   548.0    3.274      42.175
2015    9       27    19  50    3.0333   547.8    3.275      42.149
2015    9       27    19  56    3.0326   547.6    3.276      42.123
2015    9       27    20   3    3.0318   547.4    3.277      42.098
2015    9       27    20   9    3.0310   547.2    3.279      42.073
2015    9       27    20  16    3.0303   547.0    3.280      42.048
2015    9       27    20  22    3.0295   546.8    3.281      42.023
2015    9       27    20  29    3.0288   546.7    3.283      41.999
2015    9       27    20  36    3.0280   546.5    3.284      41.975
2015    9       27    20  42    3.0273   546.3    3.285      41.951
2015    9       27    20  49    3.0265   546.1    3.286      41.927
2015    9       27    20  55    3.0258   545.9    3.288      41.904
2015    9       27    21   2    3.0251   545.7    3.289      41.880
2015    9       27    21   8    3.0244   545.5    3.291      41.857
2015    9       27    21  15    3.0236   545.3    3.292      41.834
2015    9       27    21  22    3.0229   545.2    3.293      41.811
2015    9       27    21  28    3.0222   545.0    3.295      41.788
2015    9       27    21  35    3.0215   544.8    3.296      41.765
2015    9       27    21  41    3.0207   544.6    3.297      41.743
2015    9       27    21  48    3.0200   544.4    3.299      41.720
2015    9       27    21  54    3.0193   544.2    3.300      41.697
2015    9       27    22   1    3.0186   544.0    3.301      41.675
2015    9       27    22   8    3.0179   543.8    3.303      41.652
2015    9       27    22  14    3.0171   543.6    3.304      41.630
2015    9       27    22  21    3.0164   543.4    3.305      41.607
2015    9       27    22  27    3.0157   543.2    3.307      41.584
2015    9       27    22  34    3.0150   543.1    3.308      41.562
2015    9       27    22  40    3.0142   542.9    3.309      41.539
2015    9       27    22  47    3.0135   542.7    3.310      41.516
2015    9       27    22  54    3.0128   542.5    3.312      41.493
2015    9       27    23   0    3.0121   542.3    3.313      41.471
2015    9       27    23   7    3.0114   542.1    3.314      41.448
2015    9       27    23  13    3.0106   541.9    3.315      41.425
2015    9       27    23  20    3.0099   541.7    3.317      41.403
2015    9       27    23  26    3.0093   541.5    3.318      41.380
2015    9       27    23  33    3.0086   541.3    3.319      41.358
2015    9       27    23  40    3.0079   541.1    3.321      41.336
2015    9       27    23  46    3.0072   540.9    3.322      41.313
2015    9       27    23  53    3.0065   540.7    3.323      41.291
2015    9       27    23  59    3.0059   540.5    3.325      41.270
2015    9       28     0   6    3.0052   540.3    3.326      41.248
2015    9       28     0  12    3.0046   540.2    3.327      41.227
2015    9       28     0  19    3.0040   540.0    3.329      41.205
2015    9       28     0  26    3.0033   539.8    3.330      41.184
2015    9       28     0  32    3.0027   539.6    3.332      41.163
2015    9       28     0  39    3.0020   539.4    3.333      41.141
2015    9       28     0  45    3.0014   539.2    3.334      41.120
2015    9       28     0  52    3.0007   539.0    3.336      41.099
2015    9       28     0  58    3.0001   538.8    3.337      41.077
2015    9       28     1   5    2.9994   538.7    3.339      41.056
2015    9       28     1  12    2.9987   538.5    3.340      41.034
2015    9       28     1  18    2.9981   538.3    3.341      41.013
2015    9       28     1  25    2.9974   538.1    3.343      40.991
2015    9       28     1  31    2.9966   537.9    3.344      40.968
2015    9       28     1  38    2.9959   537.7    3.346      40.946
2015    9       28     1  44    2.9952   537.5    3.347      40.923
2015    9       28     1  51    2.9945   537.3    3.348      40.901
2015    9       28     1  58    2.9938   537.1    3.350      40.877
2015    9       28     2   4    2.9931   537.0    3.351      40.854
2015    9       28     2  11    2.9923   536.8    3.352      40.831
2015    9       28     2  17    2.9916   536.6    3.353      40.807
2015    9       28     2  24    2.9909   536.4    3.355      40.783
2015    9       28     2  30    2.9901   536.2    3.356      40.759
2015    9       28     2  37    2.9894   536.0    3.357      40.734
2015    9       28     2  44    2.9887   535.8    3.358      40.710
2015    9       28     2  50    2.9880   535.6    3.360      40.686
2015    9       28     2  57    2.9873   535.4    3.361      40.661
2015    9       28     3   3    2.9866   535.2    3.362      40.637
2015    9       28     3  10    2.9859   535.0    3.364      40.612
2015    9       28     3  16    2.9852   534.8    3.365      40.588
2015    9       28     3  23    2.9845   534.6    3.366      40.564
2015    9       28     3  30    2.9838   534.4    3.368      40.540
2015    9       28     3  36    2.9832   534.2    3.369      40.516
2015    9       28     3  43    2.9825   534.0    3.371      40.492
2015    9       28     3  49    2.9819   533.8    3.372      40.468
2015    9       28     3  56    2.9812   533.6    3.374      40.445
2015    9       28     4   2    2.9806   533.4    3.375      40.421
2015    9       28     4   9    2.9800   533.2    3.377      40.398
2015    9       28     4  16    2.9794   533.0    3.378      40.374
2015    9       28     4  22    2.9788   532.8    3.380      40.351
2015    9       28     4  29    2.9782   532.6    3.381      40.328
2015    9       28     4  35    2.9775   532.5    3.383      40.304
2015    9       28     4  42    2.9769   532.3    3.384      40.281
2015    9       28     4  48    2.9763   532.1    3.386      40.258
2015    9       28     4  55    2.9757   531.9    3.388      40.234
2015    9       28     5   2    2.9751   531.7    3.389      40.211
2015    9       28     5   8    2.9745   531.5    3.391      40.188
2015    9       28     5  15    2.9738   531.3    3.392      40.165
2015    9       28     5  21    2.9732   531.1    3.394      40.142
2015    9       28     5  28    2.9726   530.9    3.395      40.118
2015    9       28     5  34    2.9720   530.7    3.397      40.096
2015    9       28     5  41    2.9713   530.5    3.399      40.073
2015    9       28     5  48    2.9707   530.3    3.400      40.050
2015    9       28     5  54    2.9701   530.1    3.402      40.028
2015    9       28     6   1    2.9695   529.9    3.403      40.006
2015    9       28     6   7    2.9689   529.7    3.405      39.984
2015    9       28     6  14    2.9683   529.5    3.406      39.962
2015    9       28     6  20    2.9677   529.3    3.408      39.941
2015    9       28     6  27    2.9671   529.1    3.410      39.920
2015    9       28     6  34    2.9665   528.9    3.411      39.899
2015    9       28     6  40    2.9660   528.7    3.413      39.878
2015    9       28     6  47    2.9654   528.5    3.415      39.858
2015    9       28     6  53    2.9649   528.3    3.417      39.837
2015    9       28     7   0    2.9643   528.1    3.418      39.817
2015    9       28     7   6    2.9638   527.9    3.420      39.797
2015    9       28     7  13    2.9632   527.7    3.422      39.777
2015    9       28     7  20    2.9627   527.5    3.424      39.758
2015    9       28     7  26    2.9622   527.3    3.425      39.738
2015    9       28     7  33    2.9616   527.1    3.427      39.718
2015    9       28     7  39    2.9611   526.9    3.429      39.698
2015    9       28     7  46    2.9605   526.7    3.431      39.678
2015    9       28     7  52    2.9600   526.5    3.433      39.659
2015    9       28     7  59    2.9594   526.3    3.435      39.639
2015    9       28     8   6    2.9589   526.1    3.436      39.620
2015    9       28     8  12    2.9583   525.9    3.438      39.600
2015    9       28     8  19    2.9578   525.7    3.440      39.581
2015    9       28     8  25    2.9573   525.5    3.442      39.561
2015    9       28     8  32    2.9567   525.3    3.444      39.541
2015    9       28     8  38    2.9562   525.1    3.446      39.522
2015    9       28     8  45    2.9557   524.9    3.448      39.503
2015    9       28     8  52    2.9552   524.8    3.450      39.483
2015    9       28     8  58    2.9547   524.6    3.452      39.464
2015    9       28     9   5    2.9541   524.4    3.454      39.444
2015    9       28     9  11    2.9536   524.2    3.456      39.425
2015    9       28     9  18    2.9531   524.0    3.458      39.405
2015    9       28     9  24    2.9526   523.8    3.460      39.386
2015    9       28     9  31    2.9521   523.6    3.462      39.366
2015    9       28     9  38    2.9516   523.4    3.464      39.346
2015    9       28     9  44    2.9510   523.2    3.466      39.326
2015    9       28     9  51    2.9505   523.0    3.468      39.305
2015    9       28     9  57    2.9500   522.8    3.470      39.285
2015    9       28    10   4    2.9495   522.6    3.472      39.264
2015    9       28    10  10    2.9489   522.4    3.474      39.243
2015    9       28    10  17    2.9484   522.2    3.476      39.222
2015    9       28    10  24    2.9479   522.0    3.478      39.202
2015    9       28    10  30    2.9474   521.8    3.479      39.180
2015    9       28    10  37    2.9468   521.6    3.481      39.159
2015    9       28    10  43    2.9463   521.4    3.483      39.138
2015    9       28    10  50    2.9458   521.2    3.485      39.117
2015    9       28    10  56    2.9453   521.0    3.487      39.096
2015    9       28    11   3    2.9448   520.8    3.489      39.075
2015    9       28    11  10    2.9444   520.5    3.491      39.054
2015    9       28    11  16    2.9439   520.3    3.493      39.033
2015    9       28    11  23    2.9434   520.1    3.495      39.012
2015    9       28    11  29    2.9429   519.9    3.497      38.991
2015    9       28    11  36    2.9424   519.7    3.499      38.970
2015    9       28    11  42    2.9419   519.5    3.501      38.949
2015    9       28    11  49    2.9415   519.4    3.503      38.928
2015    9       28    11  56    2.9410   519.2    3.505      38.907
2015    9       28    12   2    2.9405   519.0    3.507      38.886
2015    9       28    12   9    2.9400   518.8    3.509      38.864
2015    9       28    12  15    2.9395   518.6    3.511      38.843
2015    9       28    12  22    2.9390   518.4    3.512      38.822
2015    9       28    12  28    2.9385   518.2    3.514      38.800
2015    9       28    12  35    2.9380   518.0    3.516      38.779
2015    9       28    12  42    2.9375   517.8    3.518      38.757
2015    9       28    12  48    2.9370   517.6    3.520      38.735
2015    9       28    12  55    2.9364   517.4    3.522      38.713
2015    9       28    13   1    2.9359   517.2    3.523      38.691
2015    9       28    13   8    2.9354   517.0    3.525      38.669
2015    9       28    13  14    2.9348   516.8    3.527      38.646
2015    9       28    13  21    2.9343   516.6    3.529      38.623
2015    9       28    13  28    2.9337   516.4    3.530      38.601
2015    9       28    13  34    2.9332   516.2    3.532      38.578
2015    9       28    13  41    2.9326   516.0    3.534      38.555
2015    9       28    13  47    2.9321   515.8    3.535      38.531
2015    9       28    13  54    2.9315   515.6    3.537      38.508
2015    9       28    14   0    2.9310   515.4    3.539      38.485
2015    9       28    14   7    2.9304   515.2    3.540      38.461
2015    9       28    14  14    2.9299   515.0    3.542      38.438
2015    9       28    14  20    2.9293   514.8    3.544      38.415
2015    9       28    14  27    2.9288   514.6    3.546      38.392
2015    9       28    14  33    2.9283   514.4    3.548      38.369
2015    9       28    14  40    2.9277   514.2    3.550      38.347
2015    9       28    14  46    2.9272   514.0    3.551      38.324
2015    9       28    14  53    2.9267   513.8    3.554      38.302
2015    9       28    15   0    2.9263   513.6    3.556      38.281
2015    9       28    15   6    2.9258   513.4    3.558      38.260
2015    9       28    15  13    2.9253   513.2    3.560      38.239
2015    9       28    15  19    2.9249   513.0    3.562      38.219
2015    9       28    15  26    2.9245   512.8    3.564      38.199
2015    9       28    15  32    2.9240   512.6    3.567      38.179
2015    9       28    15  39    2.9236   512.4    3.569      38.160
2015    9       28    15  46    2.9232   512.2    3.572      38.141
2015    9       28    15  52    2.9228   512.0    3.574      38.122
2015    9       28    15  59    2.9224   511.8    3.577      38.104
2015    9       28    16   5    2.9221   511.6    3.579      38.085
2015    9       28    16  12    2.9217   511.4    3.582      38.067
2015    9       28    16  18    2.9213   511.2    3.584      38.049
2015    9       28    16  25    2.9209   511.0    3.587      38.031
2015    9       28    16  32    2.9205   510.8    3.589      38.014
2015    9       28    16  38    2.9201   510.6    3.592      37.996
2015    9       28    16  45    2.9197   510.4    3.595      37.978
2015    9       28    16  51    2.9193   510.2    3.597      37.960
2015    9       28    16  58    2.9189   510.0    3.600      37.943
2015    9       28    17   4    2.9185   509.8    3.602      37.925
2015    9       28    17  11    2.9182   509.6    3.605      37.907
2015    9       28    17  18    2.9178   509.4    3.607      37.889
2015    9       28    17  24    2.9174   509.2    3.610      37.871
2015    9       28    17  31    2.9170   509.0    3.613      37.853
2015    9       28    17  37    2.9167   508.8    3.615      37.836
2015    9       28    17  44    2.9163   508.6    3.618      37.818
2015    9       28    17  50    2.9159   508.4    3.620      37.799
2015    9       28    17  57    2.9155   508.2    3.623      37.781
2015    9       28    18   4    2.9151   508.0    3.625      37.763
2015    9       28    18  10    2.9147   507.8    3.628      37.744
2015    9       28    18  17    2.9144   507.6    3.630      37.725
2015    9       28    18  23    2.9139   507.4    3.633      37.706
2015    9       28    18  30    2.9135   507.2    3.635      37.688
2015    9       28    18  36    2.9131   507.0    3.638      37.668
2015    9       28    18  43    2.9127   506.8    3.640      37.649
2015    9       28    18  50    2.9123   506.6    3.642      37.629
2015    9       28    18  56    2.9119   506.4    3.645      37.610
2015    9       28    19   3    2.9114   506.2    3.647      37.590
2015    9       28    19   9    2.9110   506.0    3.649      37.569
2015    9       28    19  16    2.9106   505.8    3.651      37.549
2015    9       28    19  22    2.9101   505.6    3.653      37.528
2015    9       28    19  29    2.9097   505.5    3.656      37.507
2015    9       28    19  36    2.9092   505.3    3.658      37.486
2015    9       28    19  42    2.9087   505.1    3.660      37.465
2015    9       28    19  49    2.9083   504.9    3.662      37.444
2015    9       28    19  55    2.9078   504.7    3.664      37.422
2015    9       28    20   2    2.9073   504.5    3.666      37.400
2015    9       28    20   8    2.9068   504.3    3.668      37.379
2015    9       28    20  15    2.9064   504.1    3.670      37.357
2015    9       28    20  22    2.9059   503.9    3.672      37.335
2015    9       28    20  28    2.9054   503.7    3.674      37.313
2015    9       28    20  35    2.9049   503.5    3.676      37.291
2015    9       28    20  41    2.9045   503.3    3.678      37.269
2015    9       28    20  48    2.9040   503.1    3.680      37.247
2015    9       28    20  54    2.9035   502.9    3.683      37.226
2015    9       28    21   1    2.9030   502.7    3.685      37.204
2015    9       28    21   8    2.9026   502.5    3.687      37.182
2015    9       28    21  14    2.9021   502.3    3.689      37.161
2015    9       28    21  21    2.9017   502.1    3.691      37.140
2015    9       28    21  27    2.9012   501.9    3.693      37.118
2015    9       28    21  34    2.9007   501.7    3.695      37.097
2015    9       28    21  40    2.9003   501.5    3.697      37.076
2015    9       28    21  47    2.8998   501.3    3.700      37.056
2015    9       28    21  54    2.8994   501.1    3.702      37.035
2015    9       28    22   0    2.8989   500.9    3.704      37.014
2015    9       28    22   7    2.8985   500.7    3.706      36.993
2015    9       28    22  13    2.8981   500.5    3.709      36.973
2015    9       28    22  20    2.8976   500.4    3.711      36.953
2015    9       28    22  26    2.8972   500.2    3.713      36.932
2015    9       28    22  33    2.8967   500.0    3.715      36.912
2015    9       28    22  40    2.8963   499.8    3.717      36.891
2015    9       28    22  46    2.8958   499.6    3.720      36.871
2015    9       28    22  53    2.8954   499.4    3.722      36.850
2015    9       28    22  59    2.8949   499.2    3.724      36.830
2015    9       28    23   6    2.8944   499.0    3.726      36.809
2015    9       28    23  12    2.8940   498.8    3.729      36.788
2015    9       28    23  19    2.8935   498.6    3.731      36.768
2015    9       28    23  26    2.8931   498.4    3.733      36.747
2015    9       28    23  32    2.8926   498.2    3.735      36.726
2015    9       28    23  39    2.8921   498.0    3.738      36.705
2015    9       28    23  45    2.8916   497.8    3.740      36.684
2015    9       28    23  52    2.8912   497.6    3.742      36.664
2015    9       28    23  58    2.8907   497.4    3.744      36.643
2015    9       29     0   5    2.8902   497.2    3.746      36.622
2015    9       29     0  12    2.8897   497.0    3.749      36.601
2015    9       29     0  18    2.8893   496.8    3.751      36.581
2015    9       29     0  25    2.8888   496.6    3.753      36.560
2015    9       29     0  31    2.8883   496.4    3.756      36.539
2015    9       29     0  38    2.8879   496.3    3.758      36.519
2015    9       29     0  44    2.8874   496.1    3.760      36.499
2015    9       29     0  51    2.8870   495.9    3.763      36.478
2015    9       29     0  58    2.8866   495.7    3.765      36.459
2015    9       29     1   4    2.8861   495.5    3.768      36.439
2015    9       29     1  11    2.8857   495.3    3.770      36.419
2015    9       29     1  17    2.8853   495.1    3.773      36.400
2015    9       29     1  24    2.8848   494.9    3.775      36.380
2015    9       29     1  30    2.8844   494.7    3.778      36.361
2015    9       29     1  37    2.8840   494.5    3.780      36.342
2015    9       29     1  44    2.8836   494.3    3.783      36.323
2015    9       29     1  50    2.8832   494.1    3.786      36.305
2015    9       29     1  57    2.8828   493.9    3.788      36.286
2015    9       29     2   3    2.8823   493.7    3.791      36.268
2015    9       29     2  10    2.8819   493.5    3.794      36.249
2015    9       29     2  17    2.8815   493.4    3.796      36.231
2015    9       29     2  23    2.8811   493.2    3.799      36.213
2015    9       29     2  30    2.8807   493.0    3.802      36.195
2015    9       29     2  36    2.8803   492.8    3.805      36.177
2015    9       29     2  43    2.8799   492.6    3.807      36.159
2015    9       29     2  49    2.8794   492.4    3.810      36.141
2015    9       29     2  56    2.8790   492.2    3.813      36.123
2015    9       29     3   2    2.8786   492.0    3.815      36.105
2015    9       29     3   9    2.8782   491.8    3.818      36.087
2015    9       29     3  16    2.8777   491.6    3.821      36.069
2015    9       29     3  22    2.8773   491.4    3.824      36.050
2015    9       29     3  29    2.8768   491.3    3.826      36.032
2015    9       29     3  35    2.8764   491.1    3.829      36.013
2015    9       29     3  42    2.8759   490.9    3.831      35.995
2015    9       29     3  48    2.8755   490.7    3.834      35.976
2015    9       29     3  55    2.8750   490.5    3.837      35.957
2015    9       29     4   2    2.8745   490.3    3.839      35.938
2015    9       29     4   8    2.8741   490.1    3.842      35.919
2015    9       29     4  15    2.8736   489.9    3.844      35.900
2015    9       29     4  21    2.8731   489.7    3.846      35.880
2015    9       29     4  28    2.8726   489.5    3.849      35.861
2015    9       29     4  34    2.8721   489.3    3.851      35.841
2015    9       29     4  41    2.8716   489.2    3.854      35.821
2015    9       29     4  48    2.8712   489.0    3.856      35.801
2015    9       29     4  54    2.8707   488.8    3.858      35.781
2015    9       29     5   1    2.8702   488.6    3.860      35.761
2015    9       29     5   7    2.8697   488.4    3.863      35.740
2015    9       29     5  14    2.8692   488.2    3.865      35.720
2015    9       29     5  20    2.8687   488.0    3.867      35.699
2015    9       29     5  27    2.8681   487.8    3.869      35.679
2015    9       29     5  34    2.8676   487.6    3.872      35.658
2015    9       29     5  40    2.8671   487.4    3.874      35.637
2015    9       29     5  47    2.8666   487.2    3.876      35.617
2015    9       29     5  53    2.8661   487.0    3.878      35.596
2015    9       29     6   0    2.8656   486.8    3.880      35.575
2015    9       29     6   6    2.8651   486.7    3.882      35.554
2015    9       29     6  13    2.8646   486.5    3.884      35.533
2015    9       29     6  20    2.8641   486.3    3.886      35.513
2015    9       29     6  26    2.8636   486.1    3.889      35.492
2015    9       29     6  33    2.8630   485.9    3.891      35.471
2015    9       29     6  39    2.8625   485.7    3.893      35.450
2015    9       29     6  46    2.8620   485.5    3.895      35.430
2015    9       29     6  52    2.8616   485.3    3.897      35.409
2015    9       29     6  59    2.8611   485.1    3.899      35.389
2015    9       29     7   6    2.8606   484.9    3.902      35.369
2015    9       29     7  12    2.8601   484.7    3.904      35.348
2015    9       29     7  19    2.8596   484.5    3.906      35.328
2015    9       29     7  25    2.8592   484.3    3.908      35.308
2015    9       29     7  32    2.8587   484.1    3.910      35.288
2015    9       29     7  38    2.8582   483.9    3.913      35.269
2015    9       29     7  45    2.8578   483.8    3.915      35.249
2015    9       29     7  52    2.8573   483.6    3.917      35.230
2015    9       29     7  58    2.8568   483.4    3.920      35.210
2015    9       29     8   5    2.8564   483.2    3.922      35.191
2015    9       29     8  11    2.8559   483.0    3.924      35.172
2015    9       29     8  18    2.8555   482.8    3.927      35.153
2015    9       29     8  24    2.8550   482.6    3.929      35.133
2015    9       29     8  31    2.8546   482.4    3.931      35.115
2015    9       29     8  38    2.8541   482.2    3.934      35.096
2015    9       29     8  44    2.8536   482.0    3.936      35.077
2015    9       29     8  51    2.8532   481.8    3.938      35.058
2015    9       29     8  57    2.8527   481.7    3.941      35.039
2015    9       29     9   4    2.8522   481.5    3.943      35.020
2015    9       29     9  11    2.8518   481.3    3.946      35.002
2015    9       29     9  17    2.8513   481.1    3.948      34.983
2015    9       29     9  24    2.8508   480.9    3.951      34.965
2015    9       29     9  30    2.8504   480.7    3.953      34.946
2015    9       29     9  37    2.8499   480.5    3.955      34.927
2015    9       29     9  43    2.8494   480.3    3.958      34.908
2015    9       29     9  50    2.8489   480.1    3.960      34.890
2015    9       29     9  57    2.8484   479.9    3.963      34.871
2015    9       29    10   3    2.8479   479.8    3.965      34.852
2015    9       29    10  10    2.8475   479.6    3.968      34.834
2015    9       29    10  16    2.8470   479.4    3.970      34.815
2015    9       29    10  23    2.8465   479.2    3.972      34.796
2015    9       29    10  29    2.8460   479.0    3.975      34.777
2015    9       29    10  36    2.8455   478.8    3.977      34.758
2015    9       29    10  43    2.8450   478.6    3.980      34.739
2015    9       29    10  49    2.8445   478.4    3.982      34.720
2015    9       29    10  56    2.8440   478.2    3.985      34.701
2015    9       29    11   2    2.8435   478.0    3.987      34.682
2015    9       29    11   9    2.8430   477.9    3.989      34.663
2015    9       29    11  15    2.8425   477.7    3.992      34.644
2015    9       29    11  22    2.8420   477.5    3.994      34.625
2015    9       29    11  28    2.8415   477.3    3.997      34.606
2015    9       29    11  35    2.8410   477.1    3.999      34.587
2015    9       29    11  42    2.8405   476.9    4.002      34.568
2015    9       29    11  48    2.8401   476.7    4.004      34.549
2015    9       29    11  55    2.8396   476.5    4.006      34.529
2015    9       29    12   1    2.8391   476.3    4.009      34.511
2015    9       29    12   8    2.8386   476.1    4.011      34.491
2015    9       29    12  14    2.8381   476.0    4.014      34.472
2015    9       29    12  21    2.8376   475.8    4.016      34.453
2015    9       29    12  28    2.8372   475.6    4.019      34.434
2015    9       29    12  34    2.8367   475.4    4.021      34.416
2015    9       29    12  41    2.8362   475.2    4.024      34.397
2015    9       29    12  47    2.8358   475.0    4.026      34.378
2015    9       29    12  54    2.8353   474.8    4.029      34.359
2015    9       29    13   0    2.8349   474.6    4.031      34.340
2015    9       29    13   7    2.8344   474.4    4.034      34.322
2015    9       29    13  14    2.8340   474.2    4.036      34.303
2015    9       29    13  20    2.8335   474.1    4.039      34.285
2015    9       29    13  27    2.8331   473.9    4.042      34.266
2015    9       29    13  33    2.8327   473.7    4.044      34.248
2015    9       29    13  40    2.8323   473.5    4.047      34.230
2015    9       29    13  46    2.8318   473.3    4.050      34.211
2015    9       29    13  53    2.8314   473.1    4.052      34.193
2015    9       29    14   0    2.8310   472.9    4.055      34.175
2015    9       29    14   6    2.8306   472.7    4.057      34.157
2015    9       29    14  13    2.8302   472.5    4.060      34.139
2015    9       29    14  19    2.8298   472.3    4.063      34.121
2015    9       29    14  26    2.8294   472.2    4.065      34.103
2015    9       29    14  32    2.8290   472.0    4.068      34.086
2015    9       29    14  39    2.8286   471.8    4.071      34.068
2015    9       29    14  46    2.8283   471.6    4.074      34.050
2015    9       29    14  52    2.8279   471.4    4.076      34.033
2015    9       29    14  59    2.8275   471.2    4.079      34.015
2015    9       29    15   5    2.8271   471.0    4.082      33.997
2015    9       29    15  12    2.8267   470.8    4.084      33.980
2015    9       29    15  18    2.8263   470.6    4.087      33.962
2015    9       29    15  25    2.8259   470.5    4.090      33.944
2015    9       29    15  32    2.8255   470.3    4.092      33.926
2015    9       29    15  38    2.8251   470.1    4.095      33.908
2015    9       29    15  45    2.8246   469.9    4.097      33.891
2015    9       29    15  51    2.8242   469.7    4.100      33.873
2015    9       29    15  58    2.8238   469.5    4.103      33.854
2015    9       29    16   5    2.8233   469.3    4.105      33.836
2015    9       29    16  11    2.8229   469.1    4.108      33.818
2015    9       29    16  18    2.8224   469.0    4.110      33.800
2015    9       29    16  24    2.8220   468.8    4.113      33.781
2015    9       29    16  31    2.8215   468.6    4.115      33.762
2015    9       29    16  37    2.8211   468.4    4.118      33.743
2015    9       29    16  44    2.8206   468.2    4.120      33.725
2015    9       29    16  51    2.8202   468.0    4.122      33.706
2015    9       29    16  57    2.8197   467.8    4.125      33.686
2015    9       29    17   4    2.8192   467.6    4.127      33.667
2015    9       29    17  10    2.8187   467.5    4.130      33.648
2015    9       29    17  17    2.8183   467.3    4.132      33.628
2015    9       29    17  23    2.8178   467.1    4.134      33.608
2015    9       29    17  30    2.8173   466.9    4.136      33.589
2015    9       29    17  37    2.8168   466.7    4.139      33.569
2015    9       29    17  43    2.8163   466.5    4.141      33.549
2015    9       29    17  50    2.8159   466.3    4.143      33.529
2015    9       29    17  56    2.8154   466.1    4.145      33.509
2015    9       29    18   3    2.8149   465.9    4.148      33.489
2015    9       29    18   9    2.8144   465.8    4.150      33.468
2015    9       29    18  16    2.8140   465.6    4.152      33.448
2015    9       29    18  23    2.8135   465.4    4.154      33.428
2015    9       29    18  29    2.8130   465.2    4.156      33.407
2015    9       29    18  36    2.8125   465.0    4.159      33.387
2015    9       29    18  42    2.8121   464.8    4.161      33.367
2015    9       29    18  49    2.8116   464.6    4.163      33.346
2015    9       29    18  55    2.8112   464.4    4.165      33.326
2015    9       29    19   2    2.8107   464.2    4.167      33.306
2015    9       29    19   8    2.8103   464.0    4.170      33.285
2015    9       29    19  15    2.8099   463.9    4.172      33.265
2015    9       29    19  22    2.8094   463.7    4.174      33.245
2015    9       29    19  28    2.8090   463.5    4.176      33.225
2015    9       29    19  35    2.8086   463.3    4.179      33.205
2015    9       29    19  41    2.8082   463.1    4.181      33.185
2015    9       29    19  48    2.8078   462.9    4.183      33.165
2015    9       29    19  54    2.8074   462.7    4.186      33.145
2015    9       29    20   1    2.8070   462.5    4.188      33.125
2015    9       29    20   8    2.8067   462.3    4.191      33.106
2015    9       29    20  14    2.8063   462.2    4.193      33.086
2015    9       29    20  21    2.8060   462.0    4.196      33.067
2015    9       29    20  27    2.8056   461.8    4.198      33.047
2015    9       29    20  34    2.8053   461.6    4.201      33.028
2015    9       29    20  40    2.8050   461.4    4.203      33.009
2015    9       29    20  47    2.8047   461.2    4.206      32.990
2015    9       29    20  54    2.8044   461.0    4.209      32.971
2015    9       29    21   0    2.8041   460.8    4.211      32.953
2015    9       29    21   7    2.8038   460.6    4.214      32.934
2015    9       29    21  13    2.8035   460.5    4.217      32.916
2015    9       29    21  20    2.8032   460.3    4.220      32.897
2015    9       29    21  26    2.8029   460.1    4.223      32.879
2015    9       29    21  33    2.8027   459.9    4.225      32.861
2015    9       29    21  40    2.8024   459.7    4.228      32.843
2015    9       29    21  46    2.8021   459.5    4.231      32.825
2015    9       29    21  53    2.8019   459.3    4.234      32.806
2015    9       29    21  59    2.8016   459.1    4.237      32.788
2015    9       29    22   6    2.8014   459.0    4.240      32.771
2015    9       29    22  12    2.8011   458.8    4.243      32.753
2015    9       29    22  19    2.8009   458.6    4.246      32.735
2015    9       29    22  26    2.8006   458.4    4.249      32.717
2015    9       29    22  32    2.8004   458.2    4.252      32.699
2015    9       29    22  39    2.8001   458.0    4.255      32.681
2015    9       29    22  45    2.7999   457.8    4.258      32.663
2015    9       29    22  52    2.7996   457.6    4.261      32.645
2015    9       29    22  59    2.7993   457.5    4.264      32.627
2015    9       29    23   5    2.7990   457.3    4.267      32.608
2015    9       29    23  12    2.7988   457.1    4.270      32.590
2015    9       29    23  18    2.7985   456.9    4.273      32.572
2015    9       29    23  25    2.7982   456.7    4.276      32.553
2015    9       29    23  31    2.7979   456.5    4.278      32.535
2015    9       29    23  38    2.7977   456.3    4.281      32.516
2015    9       29    23  45    2.7974   456.1    4.284      32.498
2015    9       29    23  51    2.7971   456.0    4.287      32.479
2015    9       29    23  58    2.7968   455.8    4.290      32.460
2015    9       30     0   4    2.7965   455.6    4.293      32.441
