year    month   day   hour  minute  B_enl V_enl   n_enl       T_enl
[year] [month] [day] [hour][minute] [nT]  [km/s]  [cm-3]      [kK]
2015    9       27     0   6    3.0311   572.7    3.316      46.114
2015    9       27     0  13    3.0304   572.5    3.317      46.090
2015    9       27     0  20    3.0297   572.3    3.318      46.066
2015    9       27     0  27    3.0291   572.2    3.319      46.042
2015    9       27     0  33    3.0284   572.0    3.320      46.018
2015    9       27     0  40    3.0278   571.9    3.320      45.994
2015    9       27     0  47    3.0271   571.7    3.321      45.969
2015    9       27     0  54    3.0265   571.6    3.322      45.945
2015    9       27     1   1    3.0258   571.4    3.323      45.921
2015    9       27     1   7    3.0252   571.3    3.324      45.898
2015    9       27     1  14    3.0246   571.1    3.325      45.874
2015    9       27     1  21    3.0239   570.9    3.326      45.852
2015    9       27     1  28    3.0233   570.8    3.328      45.829
2015    9       27     1  35    3.0227   570.6    3.329      45.806
2015    9       27     1  42    3.0221   570.5    3.330      45.784
2015    9       27     1  48    3.0215   570.3    3.331      45.763
2015    9       27     1  55    3.0209   570.2    3.332      45.741
2015    9       27     2   2    3.0203   570.0    3.334      45.720
2015    9       27     2   9    3.0198   569.9    3.335      45.699
2015    9       27     2  16    3.0192   569.7    3.336      45.678
2015    9       27     2  22    3.0186   569.5    3.337      45.657
2015    9       27     2  29    3.0180   569.4    3.339      45.637
2015    9       27     2  36    3.0175   569.2    3.340      45.616
2015    9       27     2  43    3.0169   569.1    3.341      45.595
2015    9       27     2  50    3.0163   568.9    3.342      45.574
2015    9       27     2  56    3.0157   568.8    3.343      45.553
2015    9       27     3   3    3.0151   568.6    3.345      45.532
2015    9       27     3  10    3.0145   568.5    3.346      45.510
2015    9       27     3  17    3.0139   568.3    3.347      45.488
2015    9       27     3  24    3.0133   568.1    3.348      45.466
2015    9       27     3  30    3.0126   568.0    3.349      45.444
2015    9       27     3  37    3.0120   567.8    3.350      45.421
2015    9       27     3  44    3.0114   567.7    3.351      45.398
2015    9       27     3  51    3.0108   567.5    3.352      45.374
2015    9       27     3  58    3.0102   567.3    3.353      45.350
2015    9       27     4   4    3.0095   567.2    3.354      45.327
2015    9       27     4  11    3.0089   567.0    3.355      45.303
2015    9       27     4  18    3.0083   566.9    3.355      45.278
2015    9       27     4  25    3.0077   566.7    3.356      45.254
2015    9       27     4  32    3.0071   566.5    3.357      45.230
2015    9       27     4  39    3.0064   566.4    3.358      45.205
2015    9       27     4  45    3.0058   566.2    3.359      45.181
2015    9       27     4  52    3.0052   566.1    3.360      45.157
2015    9       27     4  59    3.0046   565.9    3.361      45.133
2015    9       27     5   6    3.0040   565.7    3.362      45.109
2015    9       27     5  13    3.0034   565.6    3.363      45.085
2015    9       27     5  19    3.0028   565.4    3.364      45.061
2015    9       27     5  26    3.0022   565.3    3.365      45.037
2015    9       27     5  33    3.0015   565.1    3.366      45.014
2015    9       27     5  40    3.0009   564.9    3.367      44.990
2015    9       27     5  47    3.0003   564.8    3.368      44.967
2015    9       27     5  54    2.9997   564.6    3.370      44.944
2015    9       27     6   0    2.9990   564.5    3.371      44.920
2015    9       27     6   7    2.9984   564.3    3.372      44.897
2015    9       27     6  14    2.9977   564.1    3.373      44.874
2015    9       27     6  21    2.9971   564.0    3.374      44.851
2015    9       27     6  28    2.9964   563.8    3.375      44.828
2015    9       27     6  34    2.9958   563.7    3.376      44.805
2015    9       27     6  41    2.9951   563.5    3.378      44.782
2015    9       27     6  48    2.9944   563.3    3.379      44.760
2015    9       27     6  55    2.9938   563.2    3.380      44.737
2015    9       27     7   2    2.9931   563.0    3.381      44.714
2015    9       27     7   8    2.9924   562.9    3.382      44.691
2015    9       27     7  15    2.9918   562.7    3.383      44.669
2015    9       27     7  22    2.9911   562.6    3.384      44.646
2015    9       27     7  29    2.9904   562.4    3.385      44.623
2015    9       27     7  36    2.9898   562.2    3.387      44.600
2015    9       27     7  42    2.9891   562.1    3.388      44.578
2015    9       27     7  49    2.9884   561.9    3.389      44.555
2015    9       27     7  56    2.9878   561.8    3.390      44.532
2015    9       27     8   3    2.9871   561.6    3.391      44.510
2015    9       27     8  10    2.9865   561.4    3.392      44.487
2015    9       27     8  16    2.9858   561.3    3.393      44.464
2015    9       27     8  23    2.9851   561.1    3.395      44.442
2015    9       27     8  30    2.9845   561.0    3.396      44.419
2015    9       27     8  37    2.9838   560.8    3.397      44.397
2015    9       27     8  44    2.9832   560.6    3.398      44.374
2015    9       27     8  50    2.9825   560.5    3.399      44.352
2015    9       27     8  57    2.9818   560.3    3.400      44.330
2015    9       27     9   4    2.9812   560.2    3.401      44.307
2015    9       27     9  11    2.9805   560.0    3.403      44.285
2015    9       27     9  18    2.9799   559.8    3.404      44.263
2015    9       27     9  24    2.9792   559.7    3.405      44.240
2015    9       27     9  31    2.9785   559.5    3.406      44.218
2015    9       27     9  38    2.9779   559.3    3.407      44.196
2015    9       27     9  45    2.9772   559.2    3.409      44.174
2015    9       27     9  52    2.9766   559.0    3.410      44.152
2015    9       27     9  58    2.9759   558.9    3.411      44.130
2015    9       27    10   5    2.9753   558.7    3.412      44.108
2015    9       27    10  12    2.9746   558.5    3.413      44.086
2015    9       27    10  19    2.9740   558.4    3.415      44.063
2015    9       27    10  26    2.9733   558.2    3.416      44.041
2015    9       27    10  33    2.9727   558.1    3.417      44.019
2015    9       27    10  39    2.9720   557.9    3.418      43.996
2015    9       27    10  46    2.9714   557.7    3.419      43.974
2015    9       27    10  53    2.9707   557.6    3.420      43.951
2015    9       27    11   0    2.9700   557.4    3.422      43.928
2015    9       27    11   7    2.9694   557.3    3.423      43.906
2015    9       27    11  13    2.9687   557.1    3.424      43.883
2015    9       27    11  20    2.9680   556.9    3.425      43.860
2015    9       27    11  27    2.9674   556.8    3.426      43.836
2015    9       27    11  34    2.9667   556.6    3.427      43.813
2015    9       27    11  41    2.9660   556.5    3.428      43.789
2015    9       27    11  47    2.9653   556.3    3.429      43.765
2015    9       27    11  54    2.9646   556.1    3.430      43.741
2015    9       27    12   1    2.9639   556.0    3.431      43.717
2015    9       27    12   8    2.9632   555.8    3.433      43.692
2015    9       27    12  15    2.9625   555.7    3.434      43.668
2015    9       27    12  22    2.9618   555.5    3.435      43.643
2015    9       27    12  28    2.9611   555.3    3.436      43.619
2015    9       27    12  35    2.9603   555.2    3.437      43.593
2015    9       27    12  42    2.9596   555.0    3.438      43.569
2015    9       27    12  49    2.9589   554.9    3.438      43.543
2015    9       27    12  56    2.9581   554.7    3.439      43.518
2015    9       27    13   2    2.9574   554.5    3.440      43.492
2015    9       27    13   9    2.9566   554.4    3.441      43.467
2015    9       27    13  16    2.9559   554.2    3.442      43.441
2015    9       27    13  23    2.9552   554.0    3.443      43.416
2015    9       27    13  30    2.9544   553.9    3.444      43.391
2015    9       27    13  37    2.9537   553.7    3.445      43.365
2015    9       27    13  43    2.9529   553.6    3.446      43.340
2015    9       27    13  50    2.9522   553.4    3.447      43.314
2015    9       27    13  57    2.9514   553.2    3.448      43.289
2015    9       27    14   4    2.9506   553.1    3.449      43.264
2015    9       27    14  11    2.9499   552.9    3.450      43.239
2015    9       27    14  17    2.9492   552.7    3.451      43.214
2015    9       27    14  24    2.9484   552.6    3.452      43.189
2015    9       27    14  31    2.9477   552.4    3.453      43.164
2015    9       27    14  38    2.9469   552.2    3.454      43.139
2015    9       27    14  45    2.9462   552.1    3.455      43.115
2015    9       27    14  51    2.9455   551.9    3.456      43.090
2015    9       27    14  58    2.9448   551.7    3.457      43.066
2015    9       27    15   5    2.9441   551.6    3.458      43.042
2015    9       27    15  12    2.9434   551.4    3.460      43.019
2015    9       27    15  19    2.9427   551.3    3.461      42.995
2015    9       27    15  25    2.9420   551.1    3.462      42.971
2015    9       27    15  32    2.9413   550.9    3.463      42.948
2015    9       27    15  39    2.9406   550.8    3.464      42.925
2015    9       27    15  46    2.9399   550.6    3.466      42.901
2015    9       27    15  53    2.9393   550.4    3.467      42.879
2015    9       27    15  59    2.9386   550.3    3.468      42.855
2015    9       27    16   6    2.9379   550.1    3.469      42.833
2015    9       27    16  13    2.9373   549.9    3.471      42.810
2015    9       27    16  20    2.9366   549.8    3.472      42.787
2015    9       27    16  27    2.9359   549.6    3.473      42.764
2015    9       27    16  33    2.9352   549.4    3.474      42.741
2015    9       27    16  40    2.9345   549.3    3.476      42.718
2015    9       27    16  47    2.9339   549.1    3.477      42.695
2015    9       27    16  54    2.9332   549.0    3.478      42.672
2015    9       27    17   1    2.9325   548.8    3.479      42.649
2015    9       27    17   7    2.9318   548.6    3.480      42.625
2015    9       27    17  14    2.9311   548.5    3.482      42.602
2015    9       27    17  21    2.9304   548.3    3.483      42.578
2015    9       27    17  28    2.9297   548.1    3.484      42.555
2015    9       27    17  35    2.9290   548.0    3.485      42.531
2015    9       27    17  41    2.9283   547.8    3.486      42.507
2015    9       27    17  48    2.9276   547.6    3.487      42.483
2015    9       27    17  55    2.9269   547.5    3.488      42.459
2015    9       27    18   2    2.9262   547.3    3.489      42.435
2015    9       27    18   9    2.9255   547.1    3.490      42.411
2015    9       27    18  16    2.9248   547.0    3.491      42.386
2015    9       27    18  22    2.9240   546.8    3.492      42.362
2015    9       27    18  29    2.9233   546.6    3.494      42.337
2015    9       27    18  36    2.9226   546.5    3.495      42.313
2015    9       27    18  43    2.9219   546.3    3.496      42.288
2015    9       27    18  50    2.9211   546.2    3.497      42.264
2015    9       27    18  56    2.9204   546.0    3.498      42.239
2015    9       27    19   3    2.9197   545.8    3.499      42.215
2015    9       27    19  10    2.9190   545.7    3.500      42.190
2015    9       27    19  17    2.9182   545.5    3.501      42.166
2015    9       27    19  24    2.9175   545.3    3.502      42.141
2015    9       27    19  30    2.9167   545.2    3.503      42.117
2015    9       27    19  37    2.9160   545.0    3.504      42.092
2015    9       27    19  44    2.9153   544.8    3.505      42.067
2015    9       27    19  51    2.9145   544.7    3.506      42.042
2015    9       27    19  58    2.9138   544.5    3.507      42.018
2015    9       27    20   5    2.9130   544.3    3.508      41.992
2015    9       27    20  11    2.9123   544.2    3.509      41.968
2015    9       27    20  18    2.9115   544.0    3.510      41.942
2015    9       27    20  25    2.9108   543.9    3.511      41.917
2015    9       27    20  32    2.9100   543.7    3.512      41.891
2015    9       27    20  39    2.9093   543.5    3.513      41.866
2015    9       27    20  45    2.9085   543.4    3.514      41.840
2015    9       27    20  52    2.9078   543.2    3.515      41.814
2015    9       27    20  59    2.9070   543.0    3.516      41.788
2015    9       27    21   6    2.9062   542.9    3.518      41.762
2015    9       27    21  13    2.9055   542.7    3.519      41.736
2015    9       27    21  19    2.9047   542.5    3.520      41.710
2015    9       27    21  26    2.9039   542.3    3.521      41.684
2015    9       27    21  33    2.9032   542.2    3.522      41.658
2015    9       27    21  40    2.9024   542.0    3.523      41.632
2015    9       27    21  47    2.9017   541.8    3.524      41.605
2015    9       27    21  54    2.9009   541.7    3.525      41.579
2015    9       27    22   0    2.9002   541.5    3.526      41.553
2015    9       27    22   7    2.8994   541.3    3.527      41.527
2015    9       27    22  14    2.8987   541.2    3.528      41.501
2015    9       27    22  21    2.8979   541.0    3.529      41.475
2015    9       27    22  28    2.8972   540.8    3.530      41.450
2015    9       27    22  34    2.8965   540.7    3.531      41.424
2015    9       27    22  41    2.8958   540.5    3.532      41.399
2015    9       27    22  48    2.8951   540.3    3.533      41.374
2015    9       27    22  55    2.8944   540.2    3.535      41.349
2015    9       27    23   2    2.8936   540.0    3.536      41.324
2015    9       27    23   8    2.8929   539.8    3.537      41.299
2015    9       27    23  15    2.8922   539.7    3.538      41.274
2015    9       27    23  22    2.8915   539.5    3.539      41.250
2015    9       27    23  29    2.8908   539.3    3.541      41.225
2015    9       27    23  36    2.8901   539.2    3.542      41.201
2015    9       27    23  42    2.8894   539.0    3.543      41.177
2015    9       27    23  49    2.8887   538.8    3.544      41.153
2015    9       27    23  56    2.8880   538.7    3.545      41.129
2015    9       28     0   3    2.8874   538.5    3.547      41.105
2015    9       28     0  10    2.8867   538.3    3.548      41.080
2015    9       28     0  16    2.8860   538.2    3.549      41.056
2015    9       28     0  23    2.8853   538.0    3.550      41.032
2015    9       28     0  30    2.8846   537.8    3.551      41.008
2015    9       28     0  37    2.8839   537.7    3.553      40.984
2015    9       28     0  44    2.8832   537.5    3.554      40.960
2015    9       28     0  50    2.8825   537.4    3.555      40.935
2015    9       28     0  57    2.8818   537.2    3.556      40.911
2015    9       28     1   4    2.8811   537.0    3.557      40.886
2015    9       28     1  11    2.8804   536.9    3.558      40.862
2015    9       28     1  18    2.8796   536.7    3.559      40.837
2015    9       28     1  24    2.8790   536.5    3.561      40.813
2015    9       28     1  31    2.8782   536.4    3.562      40.788
2015    9       28     1  38    2.8775   536.2    3.563      40.764
2015    9       28     1  45    2.8768   536.0    3.564      40.739
2015    9       28     1  52    2.8761   535.9    3.565      40.714
2015    9       28     1  59    2.8754   535.7    3.566      40.689
2015    9       28     2   5    2.8747   535.5    3.567      40.664
2015    9       28     2  12    2.8740   535.4    3.568      40.639
2015    9       28     2  19    2.8733   535.2    3.569      40.614
2015    9       28     2  26    2.8726   535.0    3.570      40.589
2015    9       28     2  33    2.8719   534.9    3.571      40.564
2015    9       28     2  40    2.8712   534.7    3.573      40.538
2015    9       28     2  46    2.8704   534.5    3.574      40.513
2015    9       28     2  53    2.8697   534.4    3.575      40.487
2015    9       28     3   0    2.8690   534.2    3.576      40.461
2015    9       28     3   7    2.8683   534.0    3.577      40.435
2015    9       28     3  14    2.8675   533.9    3.578      40.409
2015    9       28     3  21    2.8668   533.7    3.579      40.383
2015    9       28     3  28    2.8660   533.5    3.579      40.356
2015    9       28     3  34    2.8653   533.3    3.580      40.329
2015    9       28     3  41    2.8645   533.2    3.581      40.302
2015    9       28     3  48    2.8638   533.0    3.582      40.275
2015    9       28     3  55    2.8630   532.8    3.583      40.248
2015    9       28     4   2    2.8623   532.7    3.584      40.220
2015    9       28     4   9    2.8615   532.5    3.585      40.193
2015    9       28     4  16    2.8608   532.3    3.586      40.164
2015    9       28     4  23    2.8600   532.1    3.587      40.137
2015    9       28     4  30    2.8593   532.0    3.588      40.108
2015    9       28     4  36    2.8585   531.8    3.589      40.081
2015    9       28     4  43    2.8578   531.6    3.590      40.053
2015    9       28     4  50    2.8571   531.4    3.591      40.025
2015    9       28     4  57    2.8563   531.3    3.592      39.996
2015    9       28     5   4    2.8556   531.1    3.593      39.969
2015    9       28     5  11    2.8549   530.9    3.594      39.941
2015    9       28     5  18    2.8541   530.7    3.595      39.913
2015    9       28     5  25    2.8534   530.6    3.596      39.886
2015    9       28     5  31    2.8527   530.4    3.597      39.859
2015    9       28     5  38    2.8520   530.2    3.599      39.831
2015    9       28     5  45    2.8513   530.0    3.600      39.805
2015    9       28     5  52    2.8506   529.9    3.601      39.778
2015    9       28     5  59    2.8499   529.7    3.602      39.751
2015    9       28     6   6    2.8493   529.5    3.603      39.725
2015    9       28     6  13    2.8486   529.4    3.605      39.699
2015    9       28     6  19    2.8479   529.2    3.606      39.673
2015    9       28     6  26    2.8472   529.0    3.607      39.647
2015    9       28     6  33    2.8466   528.8    3.608      39.622
2015    9       28     6  40    2.8459   528.7    3.610      39.596
2015    9       28     6  47    2.8453   528.5    3.611      39.571
2015    9       28     6  54    2.8446   528.3    3.612      39.546
2015    9       28     7   1    2.8439   528.1    3.614      39.521
2015    9       28     7   7    2.8433   528.0    3.615      39.496
2015    9       28     7  14    2.8426   527.8    3.616      39.472
2015    9       28     7  21    2.8420   527.6    3.618      39.447
2015    9       28     7  28    2.8413   527.5    3.619      39.423
2015    9       28     7  35    2.8407   527.3    3.620      39.399
2015    9       28     7  42    2.8401   527.1    3.622      39.374
2015    9       28     7  48    2.8394   526.9    3.623      39.351
2015    9       28     7  55    2.8388   526.8    3.624      39.327
2015    9       28     8   2    2.8382   526.6    3.626      39.303
2015    9       28     8   9    2.8375   526.4    3.627      39.279
2015    9       28     8  16    2.8369   526.3    3.628      39.256
2015    9       28     8  22    2.8363   526.1    3.630      39.232
2015    9       28     8  29    2.8356   525.9    3.631      39.209
2015    9       28     8  36    2.8350   525.8    3.632      39.186
2015    9       28     8  43    2.8344   525.6    3.634      39.163
2015    9       28     8  50    2.8338   525.4    3.635      39.140
2015    9       28     8  57    2.8332   525.2    3.637      39.117
2015    9       28     9   3    2.8326   525.1    3.638      39.094
2015    9       28     9  10    2.8320   524.9    3.640      39.072
2015    9       28     9  17    2.8314   524.7    3.641      39.049
2015    9       28     9  24    2.8308   524.6    3.642      39.027
2015    9       28     9  31    2.8302   524.4    3.644      39.005
2015    9       28     9  37    2.8297   524.2    3.645      38.983
2015    9       28     9  44    2.8291   524.1    3.647      38.960
2015    9       28     9  51    2.8285   523.9    3.648      38.938
2015    9       28     9  58    2.8279   523.7    3.650      38.916
2015    9       28    10   5    2.8273   523.6    3.651      38.894
2015    9       28    10  12    2.8267   523.4    3.653      38.872
2015    9       28    10  19    2.8261   523.2    3.654      38.850
2015    9       28    10  25    2.8255   523.1    3.656      38.828
2015    9       28    10  32    2.8249   522.9    3.657      38.805
2015    9       28    10  39    2.8243   522.7    3.658      38.783
2015    9       28    10  46    2.8236   522.6    3.660      38.760
2015    9       28    10  53    2.8230   522.4    3.661      38.737
2015    9       28    11   0    2.8224   522.2    3.662      38.714
2015    9       28    11   7    2.8217   522.0    3.664      38.691
2015    9       28    11  13    2.8211   521.9    3.665      38.667
2015    9       28    11  20    2.8205   521.7    3.666      38.644
2015    9       28    11  27    2.8198   521.5    3.667      38.620
2015    9       28    11  34    2.8192   521.4    3.668      38.595
2015    9       28    11  41    2.8185   521.2    3.670      38.571
2015    9       28    11  48    2.8178   521.0    3.671      38.547
2015    9       28    11  55    2.8172   520.9    3.672      38.522
2015    9       28    12   2    2.8165   520.7    3.673      38.497
2015    9       28    12   9    2.8159   520.5    3.674      38.472
2015    9       28    12  15    2.8152   520.3    3.675      38.447
2015    9       28    12  22    2.8146   520.2    3.676      38.422
2015    9       28    12  29    2.8140   520.0    3.677      38.396
2015    9       28    12  36    2.8133   519.8    3.678      38.371
2015    9       28    12  43    2.8127   519.7    3.679      38.345
2015    9       28    12  50    2.8121   519.5    3.680      38.320
2015    9       28    12  57    2.8114   519.3    3.681      38.294
2015    9       28    13   3    2.8108   519.1    3.682      38.269
2015    9       28    13  10    2.8102   519.0    3.683      38.243
2015    9       28    13  17    2.8096   518.8    3.684      38.218
2015    9       28    13  24    2.8090   518.6    3.685      38.193
2015    9       28    13  31    2.8084   518.5    3.686      38.167
2015    9       28    13  38    2.8078   518.3    3.687      38.142
2015    9       28    13  45    2.8072   518.1    3.688      38.117
2015    9       28    13  51    2.8066   517.9    3.690      38.093
2015    9       28    13  58    2.8060   517.8    3.691      38.068
2015    9       28    14   5    2.8054   517.6    3.692      38.043
2015    9       28    14  12    2.8049   517.4    3.693      38.019
2015    9       28    14  19    2.8043   517.2    3.695      37.995
2015    9       28    14  26    2.8038   517.1    3.696      37.971
2015    9       28    14  32    2.8032   516.9    3.697      37.947
2015    9       28    14  39    2.8027   516.7    3.699      37.924
2015    9       28    14  46    2.8021   516.6    3.700      37.901
2015    9       28    14  53    2.8016   516.4    3.702      37.878
2015    9       28    15   0    2.8011   516.2    3.703      37.855
2015    9       28    15   7    2.8006   516.0    3.705      37.833
2015    9       28    15  13    2.8001   515.9    3.706      37.811
2015    9       28    15  20    2.7996   515.7    3.708      37.789
2015    9       28    15  27    2.7991   515.5    3.709      37.767
2015    9       28    15  34    2.7986   515.4    3.711      37.746
2015    9       28    15  41    2.7981   515.2    3.712      37.725
2015    9       28    15  47    2.7977   515.0    3.714      37.705
2015    9       28    15  54    2.7972   514.8    3.716      37.684
2015    9       28    16   1    2.7967   514.7    3.717      37.664
2015    9       28    16   8    2.7963   514.5    3.719      37.644
2015    9       28    16  15    2.7958   514.3    3.721      37.624
2015    9       28    16  22    2.7954   514.2    3.723      37.604
2015    9       28    16  28    2.7950   514.0    3.724      37.585
2015    9       28    16  35    2.7945   513.8    3.726      37.566
2015    9       28    16  42    2.7941   513.6    3.728      37.547
2015    9       28    16  49    2.7937   513.5    3.730      37.528
2015    9       28    16  56    2.7933   513.3    3.732      37.509
2015    9       28    17   3    2.7929   513.1    3.733      37.491
2015    9       28    17   9    2.7924   513.0    3.735      37.472
2015    9       28    17  16    2.7920   512.8    3.737      37.454
2015    9       28    17  23    2.7916   512.6    3.739      37.436
2015    9       28    17  30    2.7912   512.5    3.741      37.418
2015    9       28    17  37    2.7908   512.3    3.743      37.401
2015    9       28    17  44    2.7904   512.1    3.744      37.383
2015    9       28    17  50    2.7900   512.0    3.746      37.366
2015    9       28    17  57    2.7895   511.8    3.748      37.348
2015    9       28    18   4    2.7891   511.6    3.750      37.331
2015    9       28    18  11    2.7887   511.5    3.752      37.313
2015    9       28    18  18    2.7883   511.3    3.754      37.296
2015    9       28    18  25    2.7879   511.1    3.755      37.279
2015    9       28    18  32    2.7874   511.0    3.757      37.261
2015    9       28    18  39    2.7870   510.8    3.759      37.244
2015    9       28    18  45    2.7866   510.7    3.761      37.227
2015    9       28    18  52    2.7862   510.5    3.762      37.209
2015    9       28    18  59    2.7857   510.3    3.764      37.191
2015    9       28    19   6    2.7853   510.2    3.766      37.173
2015    9       28    19  13    2.7848   510.0    3.767      37.156
2015    9       28    19  20    2.7844   509.8    3.769      37.137
2015    9       28    19  27    2.7839   509.7    3.771      37.119
2015    9       28    19  34    2.7835   509.5    3.772      37.101
2015    9       28    19  40    2.7830   509.4    3.773      37.082
2015    9       28    19  47    2.7825   509.2    3.775      37.063
2015    9       28    19  54    2.7821   509.0    3.776      37.044
2015    9       28    20   1    2.7816   508.9    3.778      37.025
2015    9       28    20   8    2.7811   508.7    3.779      37.006
2015    9       28    20  15    2.7807   508.5    3.780      36.986
2015    9       28    20  22    2.7802   508.4    3.782      36.966
2015    9       28    20  28    2.7798   508.2    3.783      36.946
2015    9       28    20  35    2.7793   508.0    3.784      36.926
2015    9       28    20  42    2.7788   507.9    3.785      36.906
2015    9       28    20  49    2.7784   507.7    3.787      36.886
2015    9       28    20  56    2.7779   507.5    3.788      36.865
2015    9       28    21   3    2.7775   507.4    3.789      36.845
2015    9       28    21  10    2.7771   507.2    3.790      36.824
2015    9       28    21  16    2.7766   507.1    3.792      36.804
2015    9       28    21  23    2.7762   506.9    3.793      36.783
2015    9       28    21  30    2.7758   506.7    3.794      36.763
2015    9       28    21  37    2.7753   506.6    3.796      36.742
2015    9       28    21  44    2.7749   506.4    3.797      36.722
2015    9       28    21  51    2.7745   506.2    3.798      36.702
2015    9       28    21  57    2.7742   506.1    3.800      36.682
2015    9       28    22   4    2.7738   505.9    3.801      36.662
2015    9       28    22  11    2.7734   505.7    3.802      36.642
2015    9       28    22  18    2.7730   505.6    3.804      36.622
2015    9       28    22  25    2.7727   505.4    3.805      36.603
2015    9       28    22  31    2.7723   505.3    3.807      36.584
2015    9       28    22  38    2.7720   505.1    3.809      36.565
2015    9       28    22  45    2.7717   504.9    3.810      36.546
2015    9       28    22  52    2.7713   504.8    3.812      36.527
2015    9       28    22  59    2.7710   504.6    3.813      36.508
2015    9       28    23   6    2.7707   504.5    3.815      36.490
2015    9       28    23  12    2.7704   504.3    3.817      36.472
2015    9       28    23  19    2.7701   504.1    3.819      36.455
2015    9       28    23  26    2.7698   504.0    3.820      36.437
2015    9       28    23  33    2.7696   503.8    3.822      36.419
2015    9       28    23  40    2.7693   503.6    3.824      36.402
2015    9       28    23  46    2.7690   503.5    3.826      36.385
2015    9       28    23  53    2.7687   503.3    3.828      36.368
2015    9       29     0   0    2.7685   503.2    3.830      36.352
2015    9       29     0   7    2.7682   503.0    3.832      36.335
2015    9       29     0  14    2.7680   502.8    3.834      36.319
2015    9       29     0  21    2.7677   502.7    3.836      36.303
2015    9       29     0  27    2.7675   502.5    3.838      36.287
2015    9       29     0  34    2.7673   502.4    3.840      36.271
2015    9       29     0  41    2.7670   502.2    3.842      36.256
2015    9       29     0  48    2.7668   502.1    3.844      36.240
2015    9       29     0  55    2.7666   501.9    3.846      36.225
2015    9       29     1   2    2.7663   501.7    3.848      36.210
2015    9       29     1   9    2.7661   501.6    3.850      36.195
2015    9       29     1  15    2.7659   501.4    3.852      36.180
2015    9       29     1  22    2.7657   501.3    3.854      36.166
2015    9       29     1  29    2.7654   501.1    3.856      36.151
2015    9       29     1  36    2.7652   500.9    3.858      36.136
2015    9       29     1  43    2.7650   500.8    3.860      36.122
2015    9       29     1  50    2.7648   500.6    3.862      36.108
2015    9       29     1  57    2.7645   500.5    3.865      36.093
2015    9       29     2   3    2.7643   500.3    3.867      36.079
2015    9       29     2  10    2.7641   500.2    3.869      36.065
2015    9       29     2  17    2.7639   500.0    3.871      36.051
2015    9       29     2  24    2.7637   499.8    3.873      36.036
2015    9       29     2  31    2.7634   499.7    3.875      36.022
2015    9       29     2  38    2.7632   499.5    3.877      36.008
2015    9       29     2  45    2.7630   499.4    3.879      35.994
2015    9       29     2  52    2.7627   499.2    3.881      35.980
2015    9       29     2  58    2.7625   499.1    3.883      35.966
2015    9       29     3   5    2.7622   498.9    3.885      35.952
2015    9       29     3  12    2.7620   498.8    3.887      35.938
2015    9       29     3  19    2.7618   498.6    3.889      35.923
2015    9       29     3  26    2.7615   498.5    3.891      35.909
2015    9       29     3  33    2.7613   498.3    3.893      35.895
2015    9       29     3  40    2.7610   498.2    3.895      35.880
2015    9       29     3  46    2.7608   498.0    3.896      35.865
2015    9       29     3  53    2.7605   497.9    3.898      35.851
2015    9       29     4   0    2.7603   497.7    3.900      35.836
2015    9       29     4   7    2.7601   497.5    3.902      35.821
2015    9       29     4  14    2.7598   497.4    3.904      35.806
2015    9       29     4  21    2.7596   497.2    3.905      35.791
2015    9       29     4  27    2.7593   497.1    3.907      35.776
2015    9       29     4  34    2.7591   496.9    3.909      35.761
2015    9       29     4  41    2.7588   496.8    3.910      35.745
2015    9       29     4  48    2.7586   496.6    3.912      35.730
2015    9       29     4  55    2.7584   496.5    3.914      35.714
2015    9       29     5   2    2.7581   496.3    3.915      35.699
2015    9       29     5   8    2.7579   496.2    3.917      35.683
2015    9       29     5  15    2.7576   496.0    3.918      35.667
2015    9       29     5  22    2.7574   495.9    3.920      35.651
2015    9       29     5  29    2.7572   495.7    3.922      35.635
2015    9       29     5  36    2.7570   495.6    3.923      35.619
2015    9       29     5  43    2.7567   495.4    3.925      35.603
2015    9       29     5  49    2.7565   495.3    3.926      35.587
2015    9       29     5  56    2.7563   495.1    3.928      35.571
2015    9       29     6   3    2.7561   495.0    3.929      35.554
2015    9       29     6  10    2.7559   494.8    3.931      35.538
2015    9       29     6  17    2.7557   494.7    3.933      35.522
2015    9       29     6  23    2.7555   494.5    3.934      35.507
2015    9       29     6  30    2.7553   494.4    3.936      35.491
2015    9       29     6  37    2.7551   494.2    3.937      35.475
2015    9       29     6  44    2.7549   494.1    3.939      35.459
2015    9       29     6  51    2.7548   493.9    3.941      35.444
2015    9       29     6  58    2.7546   493.8    3.943      35.428
2015    9       29     7   4    2.7544   493.6    3.944      35.413
2015    9       29     7  11    2.7542   493.5    3.946      35.397
2015    9       29     7  18    2.7541   493.4    3.948      35.382
2015    9       29     7  25    2.7539   493.2    3.950      35.367
2015    9       29     7  32    2.7538   493.1    3.952      35.352
2015    9       29     7  39    2.7536   492.9    3.953      35.338
2015    9       29     7  45    2.7535   492.8    3.955      35.323
2015    9       29     7  52    2.7533   492.6    3.957      35.309
2015    9       29     7  59    2.7532   492.5    3.959      35.294
2015    9       29     8   6    2.7530   492.3    3.961      35.280
2015    9       29     8  13    2.7529   492.2    3.963      35.266
2015    9       29     8  20    2.7527   492.0    3.965      35.252
2015    9       29     8  26    2.7526   491.9    3.967      35.239
2015    9       29     8  33    2.7525   491.7    3.969      35.225
2015    9       29     8  40    2.7523   491.6    3.971      35.211
2015    9       29     8  47    2.7522   491.5    3.974      35.197
2015    9       29     8  54    2.7520   491.3    3.976      35.184
2015    9       29     9   1    2.7519   491.2    3.978      35.170
2015    9       29     9   8    2.7517   491.0    3.980      35.157
2015    9       29     9  14    2.7515   490.9    3.982      35.144
2015    9       29     9  21    2.7514   490.7    3.984      35.130
2015    9       29     9  28    2.7512   490.6    3.986      35.117
2015    9       29     9  35    2.7511   490.4    3.988      35.104
2015    9       29     9  42    2.7509   490.3    3.990      35.090
2015    9       29     9  49    2.7507   490.2    3.992      35.077
2015    9       29     9  56    2.7505   490.0    3.994      35.064
2015    9       29    10   2    2.7504   489.9    3.996      35.051
2015    9       29    10   9    2.7502   489.7    3.998      35.038
2015    9       29    10  16    2.7500   489.6    4.001      35.024
2015    9       29    10  23    2.7498   489.4    4.003      35.011
2015    9       29    10  30    2.7496   489.3    4.005      34.998
2015    9       29    10  37    2.7494   489.1    4.007      34.985
2015    9       29    10  44    2.7492   489.0    4.009      34.972
2015    9       29    10  50    2.7490   488.9    4.011      34.959
2015    9       29    10  57    2.7489   488.7    4.013      34.946
2015    9       29    11   4    2.7487   488.6    4.015      34.933
2015    9       29    11  11    2.7485   488.4    4.017      34.920
2015    9       29    11  18    2.7483   488.3    4.019      34.907
2015    9       29    11  25    2.7481   488.1    4.021      34.894
2015    9       29    11  32    2.7479   488.0    4.023      34.881
2015    9       29    11  38    2.7478   487.9    4.025      34.868
2015    9       29    11  45    2.7476   487.7    4.027      34.855
2015    9       29    11  52    2.7474   487.6    4.029      34.843
2015    9       29    11  59    2.7472   487.4    4.031      34.830
2015    9       29    12   6    2.7471   487.3    4.033      34.817
2015    9       29    12  13    2.7469   487.1    4.035      34.805
2015    9       29    12  19    2.7467   487.0    4.037      34.792
2015    9       29    12  26    2.7465   486.9    4.039      34.779
2015    9       29    12  33    2.7464   486.7    4.041      34.767
2015    9       29    12  40    2.7462   486.6    4.043      34.754
2015    9       29    12  47    2.7460   486.4    4.045      34.741
2015    9       29    12  53    2.7458   486.3    4.047      34.728
2015    9       29    13   0    2.7456   486.2    4.049      34.716
2015    9       29    13   7    2.7454   486.0    4.051      34.703
2015    9       29    13  14    2.7452   485.9    4.053      34.690
2015    9       29    13  21    2.7450   485.8    4.055      34.677
2015    9       29    13  28    2.7448   485.6    4.057      34.664
2015    9       29    13  34    2.7446   485.5    4.059      34.651
2015    9       29    13  41    2.7444   485.4    4.061      34.638
2015    9       29    13  48    2.7442   485.2    4.063      34.624
2015    9       29    13  55    2.7439   485.1    4.065      34.611
2015    9       29    14   2    2.7437   484.9    4.066      34.597
2015    9       29    14   8    2.7435   484.8    4.068      34.584
2015    9       29    14  15    2.7432   484.7    4.070      34.570
2015    9       29    14  22    2.7430   484.5    4.072      34.556
2015    9       29    14  29    2.7427   484.4    4.074      34.542
2015    9       29    14  36    2.7425   484.3    4.075      34.528
2015    9       29    14  43    2.7422   484.1    4.077      34.514
2015    9       29    14  49    2.7420   484.0    4.079      34.500
2015    9       29    14  56    2.7417   483.8    4.080      34.485
2015    9       29    15   3    2.7414   483.7    4.082      34.471
2015    9       29    15  10    2.7412   483.6    4.084      34.456
2015    9       29    15  17    2.7409   483.4    4.085      34.442
2015    9       29    15  24    2.7406   483.3    4.087      34.427
2015    9       29    15  30    2.7403   483.2    4.089      34.413
2015    9       29    15  37    2.7401   483.0    4.090      34.398
2015    9       29    15  44    2.7398   482.9    4.092      34.384
2015    9       29    15  51    2.7395   482.7    4.094      34.369
2015    9       29    15  58    2.7392   482.6    4.095      34.355
2015    9       29    16   5    2.7389   482.5    4.097      34.340
2015    9       29    16  12    2.7386   482.3    4.099      34.326
2015    9       29    16  18    2.7383   482.2    4.100      34.312
2015    9       29    16  25    2.7380   482.1    4.102      34.297
2015    9       29    16  32    2.7378   481.9    4.104      34.283
2015    9       29    16  39    2.7375   481.8    4.106      34.269
2015    9       29    16  46    2.7372   481.6    4.108      34.255
2015    9       29    16  53    2.7369   481.5    4.109      34.241
2015    9       29    17   0    2.7366   481.4    4.111      34.228
2015    9       29    17   6    2.7363   481.2    4.113      34.214
2015    9       29    17  13    2.7360   481.1    4.115      34.201
2015    9       29    17  20    2.7357   480.9    4.117      34.187
2015    9       29    17  27    2.7355   480.8    4.119      34.174
2015    9       29    17  34    2.7352   480.7    4.121      34.161
2015    9       29    17  41    2.7349   480.5    4.122      34.148
2015    9       29    17  48    2.7346   480.4    4.124      34.135
2015    9       29    17  54    2.7343   480.2    4.126      34.123
2015    9       29    18   1    2.7340   480.1    4.128      34.110
2015    9       29    18   8    2.7337   480.0    4.130      34.098
2015    9       29    18  15    2.7334   479.8    4.132      34.086
2015    9       29    18  22    2.7332   479.7    4.135      34.073
2015    9       29    18  29    2.7329   479.6    4.137      34.061
2015    9       29    18  35    2.7326   479.4    4.139      34.049
2015    9       29    18  42    2.7323   479.3    4.141      34.038
2015    9       29    18  49    2.7320   479.1    4.143      34.026
2015    9       29    18  56    2.7317   479.0    4.145      34.014
2015    9       29    19   3    2.7314   478.9    4.147      34.002
2015    9       29    19  10    2.7311   478.7    4.149      33.991
2015    9       29    19  16    2.7309   478.6    4.151      33.979
2015    9       29    19  23    2.7306   478.5    4.154      33.968
2015    9       29    19  30    2.7303   478.3    4.156      33.956
2015    9       29    19  37    2.7300   478.2    4.158      33.945
2015    9       29    19  44    2.7297   478.1    4.160      33.934
2015    9       29    19  51    2.7294   477.9    4.162      33.922
2015    9       29    19  57    2.7291   477.8    4.164      33.911
2015    9       29    20   4    2.7288   477.7    4.166      33.899
2015    9       29    20  11    2.7285   477.5    4.168      33.888
2015    9       29    20  18    2.7282   477.4    4.171      33.876
2015    9       29    20  25    2.7279   477.3    4.173      33.864
2015    9       29    20  31    2.7275   477.1    4.175      33.852
2015    9       29    20  38    2.7272   477.0    4.177      33.840
2015    9       29    20  45    2.7269   476.9    4.179      33.828
2015    9       29    20  52    2.7265   476.7    4.181      33.816
2015    9       29    20  59    2.7262   476.6    4.183      33.804
2015    9       29    21   6    2.7258   476.5    4.185      33.792
2015    9       29    21  12    2.7255   476.3    4.187      33.779
2015    9       29    21  19    2.7251   476.2    4.189      33.767
2015    9       29    21  26    2.7247   476.1    4.191      33.754
2015    9       29    21  33    2.7244   475.9    4.193      33.741
2015    9       29    21  40    2.7240   475.8    4.195      33.728
2015    9       29    21  46    2.7236   475.7    4.197      33.715
2015    9       29    21  53    2.7232   475.5    4.198      33.702
2015    9       29    22   0    2.7228   475.4    4.200      33.688
2015    9       29    22   7    2.7224   475.3    4.202      33.675
2015    9       29    22  14    2.7220   475.1    4.204      33.661
2015    9       29    22  21    2.7215   475.0    4.206      33.647
2015    9       29    22  27    2.7211   474.9    4.207      33.633
2015    9       29    22  34    2.7207   474.7    4.209      33.619
2015    9       29    22  41    2.7203   474.6    4.211      33.605
2015    9       29    22  48    2.7198   474.4    4.213      33.591
2015    9       29    22  55    2.7194   474.3    4.214      33.576
2015    9       29    23   2    2.7189   474.2    4.216      33.562
2015    9       29    23   9    2.7185   474.0    4.218      33.548
2015    9       29    23  15    2.7180   473.9    4.219      33.533
2015    9       29    23  22    2.7176   473.8    4.221      33.519
2015    9       29    23  29    2.7172   473.6    4.223      33.505
2015    9       29    23  36    2.7167   473.5    4.224      33.490
2015    9       29    23  43    2.7162   473.4    4.226      33.476
2015    9       29    23  50    2.7158   473.2    4.228      33.461
2015    9       29    23  57    2.7153   473.1    4.229      33.447
2015    9       30     0   3    2.7149   472.9    4.231      33.433
2015    9       30     0  10    2.7144   472.8    4.233      33.419
2015    9       30     0  17    2.7140   472.7    4.234      33.404
2015    9       30     0  24    2.7135   472.5    4.236      33.390
2015    9       30     0  31    2.7130   472.4    4.238      33.376
2015    9       30     0  38    2.7126   472.2    4.240      33.362
2015    9       30     0  44    2.7121   472.1    4.241      33.349
2015    9       30     0  51    2.7117   472.0    4.243      33.335
2015    9       30     0  58    2.7112   471.8    4.245      33.321
2015    9       30     1   5    2.7107   471.7    4.247      33.307
2015    9       30     1  12    2.7103   471.6    4.248      33.294
2015    9       30     1  19    2.7098   471.4    4.250      33.280
2015    9       30     1  26    2.7093   471.3    4.252      33.267
2015    9       30     1  32    2.7089   471.1    4.254      33.254
2015    9       30     1  39    2.7084   471.0    4.256      33.240
2015    9       30     1  46    2.7079   470.9    4.258      33.227
2015    9       30     1  53    2.7075   470.7    4.259      33.214
2015    9       30     2   0    2.7070   470.6    4.261      33.200
2015    9       30     2   7    2.7065   470.4    4.263      33.187
2015    9       30     2  13    2.7060   470.3    4.265      33.174
2015    9       30     2  20    2.7055   470.2    4.267      33.161
2015    9       30     2  27    2.7050   470.0    4.269      33.148
2015    9       30     2  34    2.7046   469.9    4.271      33.135
2015    9       30     2  41    2.7041   469.8    4.272      33.121
2015    9       30     2  48    2.7036   469.6    4.274      33.108
2015    9       30     2  54    2.7031   469.5    4.276      33.095
2015    9       30     3   1    2.7026   469.3    4.278      33.082
2015    9       30     3   8    2.7021   469.2    4.280      33.069
2015    9       30     3  15    2.7016   469.1    4.282      33.055
2015    9       30     3  22    2.7011   468.9    4.283      33.042
2015    9       30     3  28    2.7005   468.8    4.285      33.029
2015    9       30     3  35    2.7000   468.7    4.287      33.016
2015    9       30     3  42    2.6995   468.5    4.289      33.002
2015    9       30     3  49    2.6990   468.4    4.291      32.989
2015    9       30     3  56    2.6985   468.2    4.293      32.976
2015    9       30     4   2    2.6980   468.1    4.294      32.963
2015    9       30     4   9    2.6974   468.0    4.296      32.949
2015    9       30     4  16    2.6969   467.8    4.298      32.936
2015    9       30     4  23    2.6963   467.7    4.300      32.923
2015    9       30     4  30    2.6958   467.5    4.302      32.909
2015    9       30     4  37    2.6953   467.4    4.304      32.896
2015    9       30     4  43    2.6947   467.3    4.305      32.883
2015    9       30     4  50    2.6942   467.1    4.307      32.869
2015    9       30     4  57    2.6936   467.0    4.309      32.855
2015    9       30     5   4    2.6931   466.9    4.311      32.842
2015    9       30     5  11    2.6926   466.7    4.313      32.828
2015    9       30     5  17    2.6920   466.6    4.314      32.815
2015    9       30     5  24    2.6914   466.4    4.316      32.801
2015    9       30     5  31    2.6909   466.3    4.318      32.788
2015    9       30     5  38    2.6903   466.2    4.320      32.774
2015    9       30     5  45    2.6897   466.0    4.321      32.760
2015    9       30     5  52    2.6892   465.9    4.323      32.747
2015    9       30     5  58    2.6886   465.7    4.325      32.733
2015    9       30     6   5    2.6880   465.6    4.327      32.719
2015    9       30     6  12    2.6874   465.5    4.329      32.705
2015    9       30     6  19    2.6868   465.3    4.330      32.692
2015    9       30     6  26    2.6862   465.2    4.332      32.678
2015    9       30     6  33    2.6856   465.0    4.334      32.664
2015    9       30     6  40    2.6850   464.9    4.336      32.650
2015    9       30     6  46    2.6845   464.8    4.338      32.637
2015    9       30     6  53    2.6838   464.6    4.339      32.623
2015    9       30     7   0    2.6832   464.5    4.341      32.609
2015    9       30     7   7    2.6826   464.3    4.343      32.595
2015    9       30     7  14    2.6820   464.2    4.345      32.581
2015    9       30     7  21    2.6814   464.1    4.346      32.567
2015    9       30     7  27    2.6808   463.9    4.348      32.554
2015    9       30     7  34    2.6801   463.8    4.350      32.540
2015    9       30     7  41    2.6795   463.6    4.352      32.526
2015    9       30     7  48    2.6789   463.5    4.353      32.512
2015    9       30     7  55    2.6782   463.4    4.355      32.498
2015    9       30     8   2    2.6776   463.2    4.357      32.484
2015    9       30     8   9    2.6770   463.1    4.359      32.471
2015    9       30     8  15    2.6763   463.0    4.360      32.457
2015    9       30     8  22    2.6756   462.8    4.362      32.443
2015    9       30     8  29    2.6750   462.7    4.364      32.429
2015    9       30     8  36    2.6743   462.5    4.366      32.415
2015    9       30     8  43    2.6736   462.4    4.367      32.401
2015    9       30     8  50    2.6730   462.3    4.369      32.388
2015    9       30     8  56    2.6723   462.1    4.371      32.373
2015    9       30     9   3    2.6716   462.0    4.372      32.359
2015    9       30     9  10    2.6709   461.8    4.374      32.345
2015    9       30     9  17    2.6702   461.7    4.376      32.331
2015    9       30     9  24    2.6695   461.6    4.377      32.317
2015    9       30     9  31    2.6688   461.4    4.379      32.303
2015    9       30     9  37    2.6681   461.3    4.381      32.289
2015    9       30     9  44    2.6674   461.1    4.382      32.275
2015    9       30     9  51    2.6667   461.0    4.384      32.260
2015    9       30     9  58    2.6660   460.9    4.385      32.246
2015    9       30    10   5    2.6652   460.7    4.387      32.232
2015    9       30    10  11    2.6645   460.6    4.388      32.217
2015    9       30    10  18    2.6638   460.4    4.390      32.203
2015    9       30    10  25    2.6630   460.3    4.391      32.188
2015    9       30    10  32    2.6623   460.1    4.393      32.173
2015    9       30    10  39    2.6615   460.0    4.394      32.159
2015    9       30    10  46    2.6608   459.9    4.396      32.144
2015    9       30    10  52    2.6600   459.7    4.397      32.129
2015    9       30    10  59    2.6593   459.6    4.399      32.114
2015    9       30    11   6    2.6585   459.4    4.400      32.100
2015    9       30    11  13    2.6577   459.3    4.402      32.085
2015    9       30    11  20    2.6570   459.2    4.403      32.070
2015    9       30    11  26    2.6562   459.0    4.404      32.055
2015    9       30    11  33    2.6554   458.9    4.406      32.040
2015    9       30    11  40    2.6546   458.7    4.407      32.024
2015    9       30    11  47    2.6539   458.6    4.408      32.009
2015    9       30    11  54    2.6531   458.5    4.410      31.994
2015    9       30    12   1    2.6523   458.3    4.411      31.979
2015    9       30    12   7    2.6515   458.2    4.413      31.963
2015    9       30    12  14    2.6507   458.0    4.414      31.948
2015    9       30    12  21    2.6499   457.9    4.415      31.933
2015    9       30    12  28    2.6491   457.7    4.417      31.917
2015    9       30    12  35    2.6483   457.6    4.418      31.902
2015    9       30    12  41    2.6475   457.5    4.419      31.886
2015    9       30    12  48    2.6467   457.3    4.421      31.870
2015    9       30    12  55    2.6459   457.2    4.422      31.855
2015    9       30    13   2    2.6451   457.0    4.423      31.839
2015    9       30    13   9    2.6443   456.9    4.425      31.824
2015    9       30    13  16    2.6434   456.8    4.426      31.808
2015    9       30    13  22    2.6426   456.6    4.427      31.792
2015    9       30    13  29    2.6418   456.5    4.429      31.776
2015    9       30    13  36    2.6410   456.3    4.430      31.761
2015    9       30    13  43    2.6401   456.2    4.431      31.745
2015    9       30    13  50    2.6393   456.0    4.433      31.729
2015    9       30    13  57    2.6384   455.9    4.434      31.713
2015    9       30    14   3    2.6376   455.8    4.436      31.698
2015    9       30    14  10    2.6367   455.6    4.437      31.682
2015    9       30    14  17    2.6358   455.5    4.438      31.666
2015    9       30    14  24    2.6350   455.3    4.440      31.650
2015    9       30    14  31    2.6341   455.2    4.441      31.635
2015    9       30    14  38    2.6332   455.0    4.443      31.619
2015    9       30    14  45    2.6323   454.9    4.444      31.603
2015    9       30    14  51    2.6314   454.8    4.445      31.587
2015    9       30    14  58    2.6305   454.6    4.447      31.572
2015    9       30    15   5    2.6296   454.5    4.448      31.556
2015    9       30    15  12    2.6287   454.3    4.450      31.540
2015    9       30    15  19    2.6278   454.2    4.451      31.524
2015    9       30    15  26    2.6269   454.0    4.452      31.509
2015    9       30    15  32    2.6260   453.9    4.454      31.493
2015    9       30    15  39    2.6250   453.8    4.455      31.477
2015    9       30    15  46    2.6241   453.6    4.457      31.461
2015    9       30    15  53    2.6231   453.5    4.458      31.446
2015    9       30    16   0    2.6222   453.3    4.459      31.430
2015    9       30    16   7    2.6212   453.2    4.461      31.414
2015    9       30    16  13    2.6202   453.1    4.462      31.398
2015    9       30    16  20    2.6193   452.9    4.463      31.382
2015    9       30    16  27    2.6183   452.8    4.464      31.366
2015    9       30    16  34    2.6173   452.6    4.466      31.350
2015    9       30    16  41    2.6163   452.5    4.467      31.334
2015    9       30    16  48    2.6153   452.4    4.468      31.318
2015    9       30    16  54    2.6143   452.2    4.469      31.302
2015    9       30    17   1    2.6133   452.1    4.471      31.286
2015    9       30    17   8    2.6123   451.9    4.472      31.270
2015    9       30    17  15    2.6113   451.8    4.473      31.254
2015    9       30    17  22    2.6102   451.6    4.474      31.237
2015    9       30    17  28    2.6092   451.5    4.475      31.221
2015    9       30    17  35    2.6082   451.4    4.476      31.204
2015    9       30    17  42    2.6071   451.2    4.477      31.188
2015    9       30    17  49    2.6061   451.1    4.478      31.171
2015    9       30    17  56    2.6050   450.9    4.479      31.154
2015    9       30    18   3    2.6040   450.8    4.480      31.138
2015    9       30    18   9    2.6029   450.7    4.481      31.121
2015    9       30    18  16    2.6018   450.5    4.482      31.104
2015    9       30    18  23    2.6008   450.4    4.483      31.087
2015    9       30    18  30    2.5997   450.2    4.484      31.070
2015    9       30    18  37    2.5986   450.1    4.485      31.053
2015    9       30    18  43    2.5976   449.9    4.486      31.035
2015    9       30    18  50    2.5965   449.8    4.487      31.018
2015    9       30    18  57    2.5954   449.6    4.488      31.001
2015    9       30    19   4    2.5943   449.5    4.489      30.983
2015    9       30    19  11    2.5932   449.4    4.490      30.966
2015    9       30    19  17    2.5922   449.2    4.491      30.948
2015    9       30    19  24    2.5911   449.1    4.491      30.930
2015    9       30    19  31    2.5900   448.9    4.492      30.913
2015    9       30    19  38    2.5889   448.8    4.493      30.895
2015    9       30    19  45    2.5878   448.6    4.494      30.877
2015    9       30    19  52    2.5867   448.5    4.495      30.859
2015    9       30    19  58    2.5856   448.4    4.496      30.841
2015    9       30    20   5    2.5844   448.2    4.497      30.822
2015    9       30    20  12    2.5833   448.1    4.497      30.804
2015    9       30    20  19    2.5822   447.9    4.498      30.786
2015    9       30    20  26    2.5811   447.8    4.499      30.767
2015    9       30    20  33    2.5799   447.6    4.500      30.749
2015    9       30    20  39    2.5788   447.5    4.501      30.730
2015    9       30    20  46    2.5776   447.3    4.502      30.712
2015    9       30    20  53    2.5764   447.2    4.502      30.693
2015    9       30    21   0    2.5753   447.0    4.503      30.674
2015    9       30    21   7    2.5741   446.9    4.504      30.655
2015    9       30    21  14    2.5729   446.8    4.505      30.636
2015    9       30    21  20    2.5717   446.6    4.506      30.617
2015    9       30    21  27    2.5705   446.5    4.506      30.597
2015    9       30    21  34    2.5693   446.3    4.507      30.578
2015    9       30    21  41    2.5681   446.2    4.508      30.559
2015    9       30    21  48    2.5669   446.0    4.509      30.539
2015    9       30    21  55    2.5656   445.9    4.510      30.520
2015    9       30    22   1    2.5644   445.7    4.510      30.500
2015    9       30    22   8    2.5631   445.6    4.511      30.480
2015    9       30    22  15    2.5619   445.4    4.512      30.460
2015    9       30    22  22    2.5606   445.3    4.513      30.440
2015    9       30    22  29    2.5594   445.1    4.513      30.420
2015    9       30    22  36    2.5581   445.0    4.514      30.400
2015    9       30    22  42    2.5568   444.8    4.515      30.380
2015    9       30    22  49    2.5555   444.7    4.516      30.360
2015    9       30    22  56    2.5542   444.5    4.516      30.340
2015    9       30    23   3    2.5529   444.4    4.517      30.319
2015    9       30    23  10    2.5516   444.2    4.518      30.299
2015    9       30    23  17    2.5503   444.1    4.519      30.278
2015    9       30    23  23    2.5490   443.9    4.519      30.258
2015    9       30    23  30    2.5477   443.8    4.520      30.237
2015    9       30    23  37    2.5463   443.6    4.521      30.216
2015    9       30    23  44    2.5450   443.5    4.521      30.195
2015    9       30    23  51    2.5436   443.3    4.522      30.175
2015    9       30    23  58    2.5423   443.2    4.523      30.154
2015   10        1     0   4    2.5409   443.0    4.523      30.133
2015   10        1     0  11    2.5395   442.9    4.524      30.111
2015   10        1     0  18    2.5381   442.7    4.525      30.090
2015   10        1     0  25    2.5367   442.6    4.525      30.069
2015   10        1     0  32    2.5353   442.4    4.526      30.047
2015   10        1     0  38    2.5339   442.3    4.526      30.026
2015   10        1     0  45    2.5325   442.1    4.527      30.004
2015   10        1     0  52    2.5311   441.9    4.527      29.983
2015   10        1     0  59    2.5297   441.8    4.528      29.961
2015   10        1     1   6    2.5283   441.6    4.528      29.939
2015   10        1     1  13    2.5269   441.5    4.529      29.918
2015   10        1     1  19    2.5254   441.3    4.529      29.896
2015   10        1     1  26    2.5240   441.2    4.530      29.874
2015   10        1     1  33    2.5226   441.0    4.530      29.852
2015   10        1     1  40    2.5212   440.9    4.531      29.830
2015   10        1     1  47    2.5197   440.7    4.531      29.808
2015   10        1     1  53    2.5183   440.5    4.532      29.786
2015   10        1     2   0    2.5169   440.4    4.532      29.764
2015   10        1     2   7    2.5155   440.2    4.533      29.742
2015   10        1     2  14    2.5141   440.1    4.533      29.720
2015   10        1     2  21    2.5127   439.9    4.533      29.698
2015   10        1     2  27    2.5113   439.8    4.534      29.676
2015   10        1     2  34    2.5099   439.6    4.534      29.654
2015   10        1     2  41    2.5085   439.4    4.535      29.632
2015   10        1     2  48    2.5071   439.3    4.535      29.610
2015   10        1     2  55    2.5058   439.1    4.536      29.588
2015   10        1     3   2    2.5044   439.0    4.536      29.567
2015   10        1     3   8    2.5031   438.8    4.537      29.544
2015   10        1     3  15    2.5017   438.7    4.537      29.523
2015   10        1     3  22    2.5004   438.5    4.538      29.501
2015   10        1     3  29    2.4991   438.3    4.539      29.479
2015   10        1     3  36    2.4978   438.2    4.539      29.457
2015   10        1     3  42    2.4965   438.0    4.540      29.436
2015   10        1     3  49    2.4952   437.9    4.541      29.414
2015   10        1     3  56    2.4940   437.7    4.541      29.392
2015   10        1     4   3    2.4928   437.5    4.542      29.370
2015   10        1     4  10    2.4915   437.4    4.543      29.349
2015   10        1     4  17    2.4903   437.2    4.544      29.327
2015   10        1     4  23    2.4891   437.1    4.544      29.306
2015   10        1     4  30    2.4879   436.9    4.545      29.284
2015   10        1     4  37    2.4868   436.7    4.546      29.263
2015   10        1     4  44    2.4856   436.6    4.547      29.241
2015   10        1     4  51    2.4845   436.4    4.548      29.220
2015   10        1     4  58    2.4834   436.2    4.549      29.199
2015   10        1     5   5    2.4823   436.1    4.550      29.178
2015   10        1     5  11    2.4812   435.9    4.551      29.157
2015   10        1     5  18    2.4802   435.8    4.553      29.136
2015   10        1     5  25    2.4791   435.6    4.554      29.115
2015   10        1     5  32    2.4781   435.4    4.555      29.094
2015   10        1     5  39    2.4771   435.3    4.556      29.073
2015   10        1     5  45    2.4761   435.1    4.558      29.053
2015   10        1     5  52    2.4751   434.9    4.559      29.032
2015   10        1     5  59    2.4742   434.8    4.560      29.012
2015   10        1     6   6    2.4732   434.6    4.562      28.991
2015   10        1     6  13    2.4723   434.4    4.563      28.971
2015   10        1     6  20    2.4714   434.3    4.565      28.950
2015   10        1     6  26    2.4705   434.1    4.567      28.930
2015   10        1     6  33    2.4697   434.0    4.568      28.910
2015   10        1     6  40    2.4688   433.8    4.570      28.889
2015   10        1     6  47    2.4679   433.6    4.571      28.869
2015   10        1     6  54    2.4671   433.5    4.573      28.848
2015   10        1     7   1    2.4663   433.3    4.574      28.827
2015   10        1     7   7    2.4655   433.1    4.576      28.806
2015   10        1     7  14    2.4646   433.0    4.578      28.785
2015   10        1     7  21    2.4638   432.8    4.579      28.764
2015   10        1     7  28    2.4630   432.6    4.581      28.743
2015   10        1     7  35    2.4622   432.5    4.582      28.721
2015   10        1     7  41    2.4615   432.3    4.584      28.699
2015   10        1     7  48    2.4607   432.1    4.585      28.677
2015   10        1     7  55    2.4599   432.0    4.587      28.654
2015   10        1     8   2    2.4591   431.8    4.588      28.632
2015   10        1     8   9    2.4583   431.6    4.589      28.609
2015   10        1     8  16    2.4576   431.5    4.591      28.586
2015   10        1     8  22    2.4568   431.3    4.592      28.563
2015   10        1     8  29    2.4561   431.1    4.593      28.539
2015   10        1     8  36    2.4553   430.9    4.594      28.515
2015   10        1     8  43    2.4546   430.8    4.595      28.491
2015   10        1     8  50    2.4539   430.6    4.596      28.467
2015   10        1     8  56    2.4532   430.4    4.598      28.443
2015   10        1     9   3    2.4525   430.2    4.599      28.418
2015   10        1     9  10    2.4518   430.1    4.600      28.393
2015   10        1     9  17    2.4512   429.9    4.601      28.368
2015   10        1     9  24    2.4505   429.7    4.601      28.343
2015   10        1     9  30    2.4499   429.6    4.602      28.317
2015   10        1     9  37    2.4493   429.4    4.603      28.291
2015   10        1     9  44    2.4487   429.2    4.604      28.265
2015   10        1     9  51    2.4481   429.0    4.605      28.238
2015   10        1     9  58    2.4475   428.8    4.606      28.212
2015   10        1    10   5    2.4470   428.7    4.606      28.185
2015   10        1    10  11    2.4464   428.5    4.607      28.157
2015   10        1    10  18    2.4459   428.3    4.608      28.130
2015   10        1    10  25    2.4454   428.1    4.609      28.102
2015   10        1    10  32    2.4449   428.0    4.609      28.074
2015   10        1    10  39    2.4444   427.8    4.610      28.046
2015   10        1    10  45    2.4439   427.6    4.610      28.017
2015   10        1    10  52    2.4434   427.4    4.611      27.988
2015   10        1    10  59    2.4430   427.2    4.611      27.959
2015   10        1    11   6    2.4425   427.0    4.612      27.929
2015   10        1    11  13    2.4420   426.9    4.612      27.900
2015   10        1    11  20    2.4415   426.7    4.613      27.870
2015   10        1    11  26    2.4411   426.5    4.613      27.840
2015   10        1    11  33    2.4406   426.3    4.614      27.809
2015   10        1    11  40    2.4401   426.1    4.614      27.778
2015   10        1    11  47    2.4396   425.9    4.614      27.747
2015   10        1    11  54    2.4390   425.7    4.615      27.716
2015   10        1    12   1    2.4385   425.6    4.615      27.684
2015   10        1    12   7    2.4379   425.4    4.615      27.653
2015   10        1    12  14    2.4373   425.2    4.615      27.620
2015   10        1    12  21    2.4367   425.0    4.615      27.588
2015   10        1    12  28    2.4361   424.8    4.615      27.556
2015   10        1    12  35    2.4354   424.6    4.615      27.523
2015   10        1    12  42    2.4348   424.4    4.616      27.490
2015   10        1    12  48    2.4341   424.2    4.616      27.457
2015   10        1    12  55    2.4334   424.0    4.616      27.424
2015   10        1    13   2    2.4326   423.8    4.615      27.391
2015   10        1    13   9    2.4319   423.6    4.615      27.357
2015   10        1    13  16    2.4311   423.4    4.615      27.324
2015   10        1    13  23    2.4303   423.2    4.615      27.290
2015   10        1    13  29    2.4295   423.0    4.615      27.257
2015   10        1    13  36    2.4287   422.8    4.615      27.223
2015   10        1    13  43    2.4279   422.6    4.615      27.190
2015   10        1    13  50    2.4270   422.4    4.615      27.156
2015   10        1    13  57    2.4261   422.2    4.615      27.122
2015   10        1    14   3    2.4253   422.0    4.615      27.088
2015   10        1    14  10    2.4244   421.8    4.615      27.055
2015   10        1    14  17    2.4234   421.5    4.614      27.021
2015   10        1    14  24    2.4225   421.3    4.614      26.988
2015   10        1    14  31    2.4215   421.1    4.614      26.954
2015   10        1    14  37    2.4206   420.9    4.614      26.920
2015   10        1    14  44    2.4196   420.7    4.614      26.887
2015   10        1    14  51    2.4186   420.5    4.614      26.854
2015   10        1    14  58    2.4176   420.3    4.614      26.820
2015   10        1    15   5    2.4165   420.1    4.614      26.787
2015   10        1    15  12    2.4155   419.9    4.614      26.754
2015   10        1    15  18    2.4144   419.6    4.614      26.721
2015   10        1    15  25    2.4133   419.4    4.614      26.689
2015   10        1    15  32    2.4122   419.2    4.615      26.656
2015   10        1    15  39    2.4111   419.0    4.615      26.623
2015   10        1    15  46    2.4100   418.8    4.615      26.591
2015   10        1    15  52    2.4089   418.6    4.615      26.558
2015   10        1    15  59    2.4077   418.4    4.615      26.526
2015   10        1    16   6    2.4065   418.1    4.615      26.493
2015   10        1    16  13    2.4054   417.9    4.615      26.461
2015   10        1    16  20    2.4042   417.7    4.616      26.429
2015   10        1    16  27    2.4029   417.5    4.616      26.397
2015   10        1    16  33    2.4017   417.3    4.616      26.364
2015   10        1    16  40    2.4005   417.1    4.616      26.332
2015   10        1    16  47    2.3992   416.9    4.616      26.300
2015   10        1    16  54    2.3979   416.6    4.616      26.268
2015   10        1    17   1    2.3966   416.4    4.617      26.235
2015   10        1    17   7    2.3953   416.2    4.617      26.203
2015   10        1    17  14    2.3940   416.0    4.617      26.171
2015   10        1    17  21    2.3926   415.8    4.617      26.139
2015   10        1    17  28    2.3913   415.6    4.617      26.106
2015   10        1    17  35    2.3899   415.4    4.617      26.074
2015   10        1    17  41    2.3885   415.1    4.618      26.041
2015   10        1    17  48    2.3871   414.9    4.618      26.009
2015   10        1    17  55    2.3857   414.7    4.618      25.976
2015   10        1    18   2    2.3843   414.5    4.618      25.944
2015   10        1    18   9    2.3828   414.3    4.618      25.911
2015   10        1    18  16    2.3813   414.1    4.618      25.878
2015   10        1    18  22    2.3799   413.8    4.618      25.846
2015   10        1    18  29    2.3784   413.6    4.618      25.813
2015   10        1    18  36    2.3769   413.4    4.619      25.780
2015   10        1    18  43    2.3754   413.2    4.619      25.748
2015   10        1    18  50    2.3738   413.0    4.619      25.715
2015   10        1    18  57    2.3723   412.7    4.619      25.683
2015   10        1    19   3    2.3707   412.5    4.620      25.650
2015   10        1    19  10    2.3691   412.3    4.620      25.617
2015   10        1    19  17    2.3675   412.1    4.620      25.585
2015   10        1    19  24    2.3659   411.9    4.621      25.553
2015   10        1    19  31    2.3643   411.6    4.621      25.520
2015   10        1    19  37    2.3627   411.4    4.622      25.488
2015   10        1    19  44    2.3610   411.2    4.622      25.456
2015   10        1    19  51    2.3594   411.0    4.623      25.424
2015   10        1    19  58    2.3577   410.8    4.624      25.392
2015   10        1    20   5    2.3560   410.5    4.625      25.361
2015   10        1    20  12    2.3543   410.3    4.626      25.329
2015   10        1    20  18    2.3526   410.1    4.626      25.298
2015   10        1    20  25    2.3509   409.9    4.627      25.266
2015   10        1    20  32    2.3492   409.7    4.629      25.235
2015   10        1    20  39    2.3474   409.4    4.630      25.204
2015   10        1    20  46    2.3457   409.2    4.631      25.174
2015   10        1    20  53    2.3439   409.0    4.632      25.143
2015   10        1    20  59    2.3422   408.8    4.634      25.112
2015   10        1    21   6    2.3404   408.6    4.635      25.082
2015   10        1    21  13    2.3386   408.3    4.637      25.052
2015   10        1    21  20    2.3368   408.1    4.638      25.022
2015   10        1    21  27    2.3350   407.9    4.640      24.992
2015   10        1    21  33    2.3333   407.7    4.642      24.962
2015   10        1    21  40    2.3315   407.4    4.644      24.933
2015   10        1    21  47    2.3296   407.2    4.646      24.903
2015   10        1    21  54    2.3279   407.0    4.648      24.874
2015   10        1    22   1    2.3260   406.8    4.650      24.845
2015   10        1    22   7    2.3242   406.5    4.652      24.816
2015   10        1    22  14    2.3224   406.3    4.654      24.787
2015   10        1    22  21    2.3206   406.1    4.657      24.759
2015   10        1    22  28    2.3188   405.9    4.659      24.730
2015   10        1    22  35    2.3170   405.6    4.662      24.702
2015   10        1    22  42    2.3152   405.4    4.664      24.674
2015   10        1    22  48    2.3133   405.2    4.667      24.646
2015   10        1    22  55    2.3115   405.0    4.669      24.618
2015   10        1    23   2    2.3097   404.7    4.672      24.590
2015   10        1    23   9    2.3079   404.5    4.675      24.563
2015   10        1    23  16    2.3061   404.3    4.678      24.535
2015   10        1    23  22    2.3043   404.1    4.681      24.508
2015   10        1    23  29    2.3025   403.8    4.684      24.481
2015   10        1    23  36    2.3007   403.6    4.687      24.453
2015   10        1    23  43    2.2989   403.4    4.690      24.427
2015   10        1    23  50    2.2971   403.2    4.693      24.400
2015   10        1    23  56    2.2953   402.9    4.696      24.373
2015   10        2     0   3    2.2935   402.7    4.700      24.346
2015   10        2     0  10    2.2917   402.5    4.703      24.320
2015   10        2     0  17    2.2899   402.2    4.706      24.294
2015   10        2     0  24    2.2881   402.0    4.710      24.267
2015   10        2     0  31    2.2864   401.8    4.713      24.241
2015   10        2     0  37    2.2846   401.6    4.717      24.215
2015   10        2     0  44    2.2828   401.3    4.720      24.189
2015   10        2     0  51    2.2811   401.1    4.724      24.163
2015   10        2     0  58    2.2793   400.9    4.727      24.137
2015   10        2     1   5    2.2776   400.7    4.731      24.112
2015   10        2     1  11    2.2758   400.4    4.734      24.086
2015   10        2     1  18    2.2741   400.2    4.738      24.061
2015   10        2     1  25    2.2723   400.0    4.742      24.035
2015   10        2     1  32    2.2706   399.7    4.745      24.010
2015   10        2     1  39    2.2689   399.5    4.749      23.984
2015   10        2     1  46    2.2672   399.3    4.753      23.959
2015   10        2     1  52    2.2655   399.1    4.756      23.934
2015   10        2     1  59    2.2638   398.8    4.760      23.909
2015   10        2     2   6    2.2621   398.6    4.764      23.884
2015   10        2     2  13    2.2604   398.4    4.768      23.859
2015   10        2     2  20    2.2587   398.1    4.772      23.834
2015   10        2     2  26    2.2570   397.9    4.775      23.810
2015   10        2     2  33    2.2554   397.7    4.779      23.785
2015   10        2     2  40    2.2537   397.5    4.783      23.761
2015   10        2     2  47    2.2521   397.2    4.787      23.736
2015   10        2     2  54    2.2504   397.0    4.791      23.712
2015   10        2     3   1    2.2488   396.8    4.795      23.688
2015   10        2     3   7    2.2471   396.5    4.799      23.664
2015   10        2     3  14    2.2455   396.3    4.802      23.640
2015   10        2     3  21    2.2439   396.1    4.806      23.617
2015   10        2     3  28    2.2423   395.8    4.810      23.593
2015   10        2     3  35    2.2407   395.6    4.814      23.569
2015   10        2     3  41    2.2390   395.4    4.818      23.546
2015   10        2     3  48    2.2374   395.2    4.822      23.523
2015   10        2     3  55    2.2358   394.9    4.826      23.499
2015   10        2     4   2    2.2343   394.7    4.830      23.476
2015   10        2     4   9    2.2327   394.5    4.834      23.453
2015   10        2     4  16    2.2311   394.2    4.838      23.431
2015   10        2     4  22    2.2295   394.0    4.842      23.408
2015   10        2     4  29    2.2280   393.8    4.846      23.386
2015   10        2     4  36    2.2264   393.5    4.850      23.363
2015   10        2     4  43    2.2249   393.3    4.854      23.341
2015   10        2     4  50    2.2234   393.1    4.858      23.319
2015   10        2     4  56    2.2218   392.8    4.862      23.297
2015   10        2     5   3    2.2203   392.6    4.866      23.275
2015   10        2     5  10    2.2188   392.4    4.870      23.253
2015   10        2     5  17    2.2173   392.1    4.874      23.232
2015   10        2     5  24    2.2158   391.9    4.878      23.210
2015   10        2     5  30    2.2143   391.7    4.881      23.189
2015   10        2     5  37    2.2129   391.4    4.885      23.167
2015   10        2     5  44    2.2114   391.2    4.889      23.146
2015   10        2     5  51    2.2099   391.0    4.893      23.125
2015   10        2     5  58    2.2085   390.7    4.897      23.103
2015   10        2     6   5    2.2070   390.5    4.901      23.082
2015   10        2     6  11    2.2056   390.2    4.905      23.061
2015   10        2     6  18    2.2042   390.0    4.909      23.040
2015   10        2     6  25    2.2027   389.8    4.913      23.018
2015   10        2     6  32    2.2013   389.5    4.917      22.997
2015   10        2     6  39    2.1999   389.3    4.920      22.976
2015   10        2     6  45    2.1985   389.1    4.924      22.954
2015   10        2     6  52    2.1972   388.8    4.928      22.933
2015   10        2     6  59    2.1958   388.6    4.932      22.912
2015   10        2     7   6    2.1944   388.3    4.936      22.890
2015   10        2     7  13    2.1931   388.1    4.939      22.869
2015   10        2     7  19    2.1917   387.9    4.943      22.847
2015   10        2     7  26    2.1904   387.6    4.947      22.826
2015   10        2     7  33    2.1891   387.4    4.951      22.805
2015   10        2     7  40    2.1878   387.1    4.954      22.783
2015   10        2     7  47    2.1865   386.9    4.958      22.762
2015   10        2     7  53    2.1853   386.7    4.962      22.741
2015   10        2     8   0    2.1840   386.4    4.966      22.719
2015   10        2     8   7    2.1828   386.2    4.970      22.698
2015   10        2     8  14    2.1816   385.9    4.974      22.677
2015   10        2     8  21    2.1804   385.7    4.978      22.656
2015   10        2     8  28    2.1793   385.4    4.982      22.635
2015   10        2     8  34    2.1782   385.2    4.986      22.614
2015   10        2     8  41    2.1771   384.9    4.990      22.594
2015   10        2     8  48    2.1761   384.7    4.994      22.573
2015   10        2     8  55    2.1750   384.4    4.999      22.553
2015   10        2     9   2    2.1741   384.2    5.003      22.533
2015   10        2     9   9    2.1731   383.9    5.008      22.513
2015   10        2     9  15    2.1722   383.7    5.012      22.494
2015   10        2     9  22    2.1713   383.4    5.017      22.474
2015   10        2     9  29    2.1704   383.2    5.022      22.455
2015   10        2     9  36    2.1696   382.9    5.027      22.436
2015   10        2     9  43    2.1688   382.7    5.032      22.417
2015   10        2     9  49    2.1681   382.4    5.037      22.398
2015   10        2     9  56    2.1674   382.2    5.042      22.380
2015   10        2    10   3    2.1667   381.9    5.048      22.362
2015   10        2    10  10    2.1660   381.7    5.053      22.344
2015   10        2    10  17    2.1654   381.4    5.059      22.326
2015   10        2    10  23    2.1648   381.2    5.064      22.308
2015   10        2    10  30    2.1643   380.9    5.070      22.291
2015   10        2    10  37    2.1638   380.7    5.076      22.274
2015   10        2    10  44    2.1633   380.4    5.082      22.256
2015   10        2    10  51    2.1628   380.2    5.088      22.239
2015   10        2    10  58    2.1624   379.9    5.094      22.222
2015   10        2    11   4    2.1620   379.7    5.100      22.205
2015   10        2    11  11    2.1616   379.4    5.106      22.188
2015   10        2    11  18    2.1612   379.2    5.112      22.172
2015   10        2    11  25    2.1609   378.9    5.118      22.155
2015   10        2    11  32    2.1606   378.7    5.125      22.138
2015   10        2    11  38    2.1603   378.4    5.131      22.121
2015   10        2    11  45    2.1600   378.2    5.137      22.104
2015   10        2    11  52    2.1598   377.9    5.144      22.087
2015   10        2    11  59    2.1596   377.6    5.150      22.070
2015   10        2    12   6    2.1594   377.4    5.156      22.053
2015   10        2    12  12    2.1592   377.1    5.163      22.036
2015   10        2    12  19    2.1591   376.9    5.169      22.019
2015   10        2    12  26    2.1589   376.6    5.176      22.002
2015   10        2    12  33    2.1588   376.4    5.182      21.985
2015   10        2    12  40    2.1588   376.1    5.188      21.968
2015   10        2    12  46    2.1587   375.9    5.195      21.951
2015   10        2    12  53    2.1587   375.6    5.201      21.934
2015   10        2    13   0    2.1587   375.4    5.208      21.917
2015   10        2    13   7    2.1587   375.1    5.214      21.901
2015   10        2    13  14    2.1587   374.9    5.221      21.883
2015   10        2    13  21    2.1588   374.6    5.227      21.867
2015   10        2    13  27    2.1589   374.4    5.234      21.849
2015   10        2    13  34    2.1589   374.1    5.240      21.833
2015   10        2    13  41    2.1591   373.9    5.247      21.816
2015   10        2    13  48    2.1592   373.6    5.253      21.799
2015   10        2    13  55    2.1594   373.4    5.259      21.781
2015   10        2    14   1    2.1596   373.2    5.266      21.765
2015   10        2    14   8    2.1598   372.9    5.272      21.747
2015   10        2    14  15    2.1600   372.7    5.278      21.730
2015   10        2    14  22    2.1603   372.4    5.285      21.713
2015   10        2    14  29    2.1605   372.2    5.291      21.696
2015   10        2    14  35    2.1608   371.9    5.297      21.679
2015   10        2    14  42    2.1611   371.7    5.303      21.662
2015   10        2    14  49    2.1615   371.4    5.310      21.645
2015   10        2    14  56    2.1618   371.2    5.316      21.628
2015   10        2    15   3    2.1622   371.0    5.322      21.611
2015   10        2    15   9    2.1626   370.7    5.328      21.594
2015   10        2    15  16    2.1630   370.5    5.335      21.577
2015   10        2    15  23    2.1634   370.2    5.341      21.560
2015   10        2    15  30    2.1639   370.0    5.347      21.542
2015   10        2    15  37    2.1643   369.7    5.353      21.525
2015   10        2    15  44    2.1648   369.5    5.359      21.508
2015   10        2    15  50    2.1654   369.3    5.366      21.491
2015   10        2    15  57    2.1659   369.0    5.372      21.474
2015   10        2    16   4    2.1665   368.8    5.378      21.457
2015   10        2    16  11    2.1670   368.5    5.384      21.439
2015   10        2    16  18    2.1676   368.3    5.390      21.422
2015   10        2    16  24    2.1683   368.0    5.397      21.405
2015   10        2    16  31    2.1689   367.8    5.403      21.388
2015   10        2    16  38    2.1696   367.6    5.409      21.371
2015   10        2    16  45    2.1703   367.3    5.415      21.354
2015   10        2    16  52    2.1710   367.1    5.422      21.337
2015   10        2    16  59    2.1718   366.8    5.428      21.320
2015   10        2    17   5    2.1726   366.6    5.435      21.303
2015   10        2    17  12    2.1734   366.4    5.441      21.286
2015   10        2    17  19    2.1742   366.1    5.448      21.269
2015   10        2    17  26    2.1751   365.9    5.454      21.253
2015   10        2    17  33    2.1760   365.6    5.461      21.236
2015   10        2    17  39    2.1769   365.4    5.468      21.219
2015   10        2    17  46    2.1778   365.2    5.475      21.203
2015   10        2    17  53    2.1788   364.9    5.481      21.187
2015   10        2    18   0    2.1799   364.7    5.488      21.171
2015   10        2    18   7    2.1809   364.4    5.496      21.155
2015   10        2    18  13    2.1820   364.2    5.503      21.139
2015   10        2    18  20    2.1831   364.0    5.510      21.123
2015   10        2    18  27    2.1843   363.7    5.517      21.108
2015   10        2    18  34    2.1855   363.5    5.525      21.092
2015   10        2    18  41    2.1867   363.3    5.532      21.077
2015   10        2    18  47    2.1880   363.0    5.540      21.062
2015   10        2    18  54    2.1893   362.8    5.547      21.047
2015   10        2    19   1    2.1906   362.6    5.555      21.032
2015   10        2    19   8    2.1920   362.3    5.563      21.017
2015   10        2    19  15    2.1934   362.1    5.571      21.003
2015   10        2    19  21    2.1949   361.9    5.579      20.989
2015   10        2    19  28    2.1964   361.6    5.587      20.975
2015   10        2    19  35    2.1979   361.4    5.595      20.961
2015   10        2    19  42    2.1994   361.2    5.603      20.947
2015   10        2    19  49    2.2010   361.0    5.612      20.933
2015   10        2    19  55    2.2026   360.7    5.620      20.920
2015   10        2    20   2    2.2043   360.5    5.629      20.906
2015   10        2    20   9    2.2060   360.3    5.637      20.893
2015   10        2    20  16    2.2077   360.1    5.646      20.880
2015   10        2    20  23    2.2094   359.8    5.654      20.867
2015   10        2    20  29    2.2112   359.6    5.663      20.854
2015   10        2    20  36    2.2130   359.4    5.672      20.841
2015   10        2    20  43    2.2148   359.2    5.681      20.828
2015   10        2    20  50    2.2167   358.9    5.690      20.816
2015   10        2    20  57    2.2186   358.7    5.699      20.803
2015   10        2    21   4    2.2205   358.5    5.708      20.791
2015   10        2    21  10    2.2224   358.3    5.717      20.779
2015   10        2    21  17    2.2244   358.0    5.726      20.766
2015   10        2    21  24    2.2264   357.8    5.735      20.754
2015   10        2    21  31    2.2284   357.6    5.744      20.742
2015   10        2    21  38    2.2304   357.4    5.753      20.730
2015   10        2    21  44    2.2325   357.2    5.763      20.718
2015   10        2    21  51    2.2346   356.9    5.772      20.706
2015   10        2    21  58    2.2367   356.7    5.781      20.694
2015   10        2    22   5    2.2388   356.5    5.791      20.682
2015   10        2    22  12    2.2409   356.3    5.800      20.670
2015   10        2    22  18    2.2431   356.1    5.809      20.658
2015   10        2    22  25    2.2453   355.9    5.819      20.647
2015   10        2    22  32    2.2476   355.7    5.828      20.635
2015   10        2    22  39    2.2498   355.4    5.838      20.623
2015   10        2    22  46    2.2521   355.2    5.848      20.612
2015   10        2    22  52    2.2543   355.0    5.857      20.601
2015   10        2    22  59    2.2567   354.8    5.867      20.589
2015   10        2    23   6    2.2590   354.6    5.876      20.578
2015   10        2    23  13    2.2613   354.4    5.886      20.567
2015   10        2    23  20    2.2637   354.2    5.896      20.556
2015   10        2    23  27    2.2661   354.0    5.906      20.544
2015   10        2    23  33    2.2685   353.7    5.916      20.534
2015   10        2    23  40    2.2709   353.5    5.926      20.523
2015   10        2    23  47    2.2734   353.3    5.935      20.512
2015   10        2    23  54    2.2759   353.1    5.945      20.501
2015   10        3     0   1    2.2784   352.9    5.955      20.491
2015   10        3     0   8    2.2809   352.7    5.966      20.481
2015   10        3     0  14    2.2834   352.5    5.976      20.471
2015   10        3     0  21    2.2860   352.3    5.986      20.460
2015   10        3     0  28    2.2886   352.1    5.996      20.451
2015   10        3     0  35    2.2912   351.9    6.007      20.441
2015   10        3     0  42    2.2938   351.7    6.017      20.431
2015   10        3     0  48    2.2965   351.5    6.028      20.422
2015   10        3     0  55    2.2992   351.3    6.038      20.413
2015   10        3     1   2    2.3019   351.1    6.049      20.404
2015   10        3     1   9    2.3046   350.9    6.060      20.395
2015   10        3     1  16    2.3074   350.7    6.071      20.387
2015   10        3     1  22    2.3101   350.5    6.082      20.378
2015   10        3     1  29    2.3130   350.3    6.093      20.370
2015   10        3     1  36    2.3158   350.1    6.104      20.363
2015   10        3     1  43    2.3187   349.9    6.115      20.355
2015   10        3     1  50    2.3215   349.7    6.127      20.348
2015   10        3     1  56    2.3245   349.5    6.138      20.341
2015   10        3     2   3    2.3274   349.3    6.150      20.334
2015   10        3     2  10    2.3304   349.1    6.161      20.328
2015   10        3     2  17    2.3334   348.9    6.173      20.322
2015   10        3     2  24    2.3365   348.7    6.185      20.316
2015   10        3     2  30    2.3395   348.5    6.197      20.311
2015   10        3     2  37    2.3426   348.3    6.210      20.305
2015   10        3     2  44    2.3457   348.1    6.222      20.301
2015   10        3     2  51    2.3489   347.9    6.234      20.296
2015   10        3     2  58    2.3521   347.8    6.247      20.292
2015   10        3     3   4    2.3554   347.6    6.260      20.288
2015   10        3     3  11    2.3586   347.4    6.273      20.285
2015   10        3     3  18    2.3619   347.2    6.286      20.282
2015   10        3     3  25    2.3652   347.0    6.299      20.279
2015   10        3     3  32    2.3686   346.8    6.312      20.277
2015   10        3     3  38    2.3720   346.6    6.326      20.275
2015   10        3     3  45    2.3754   346.4    6.339      20.273
2015   10        3     3  52    2.3788   346.3    6.353      20.272
2015   10        3     3  59    2.3824   346.1    6.367      20.271
2015   10        3     4   6    2.3859   345.9    6.381      20.271
2015   10        3     4  13    2.3895   345.7    6.395      20.271
2015   10        3     4  19    2.3930   345.5    6.410      20.271
2015   10        3     4  26    2.3967   345.4    6.424      20.272
2015   10        3     4  33    2.4003   345.2    6.439      20.273
2015   10        3     4  40    2.4040   345.0    6.454      20.275
2015   10        3     4  47    2.4077   344.8    6.469      20.277
2015   10        3     4  53    2.4114   344.7    6.484      20.279
2015   10        3     5   0    2.4152   344.5    6.499      20.282
2015   10        3     5   7    2.4190   344.3    6.514      20.285
2015   10        3     5  14    2.4228   344.2    6.530      20.289
2015   10        3     5  21    2.4267   344.0    6.545      20.292
2015   10        3     5  27    2.4306   343.8    6.561      20.297
2015   10        3     5  34    2.4345   343.7    6.577      20.301
2015   10        3     5  41    2.4384   343.5    6.592      20.306
2015   10        3     5  48    2.4424   343.3    6.608      20.311
2015   10        3     5  55    2.4463   343.2    6.624      20.317
2015   10        3     6   2    2.4503   343.0    6.641      20.322
2015   10        3     6   8    2.4543   342.8    6.657      20.328
2015   10        3     6  15    2.4584   342.7    6.673      20.335
2015   10        3     6  22    2.4624   342.5    6.689      20.341
2015   10        3     6  29    2.4665   342.4    6.706      20.349
2015   10        3     6  36    2.4705   342.2    6.722      20.356
2015   10        3     6  42    2.4747   342.1    6.739      20.363
2015   10        3     6  49    2.4787   341.9    6.756      20.371
2015   10        3     6  56    2.4829   341.8    6.772      20.379
2015   10        3     7   3    2.4870   341.6    6.789      20.387
2015   10        3     7  10    2.4912   341.4    6.806      20.396
2015   10        3     7  16    2.4954   341.3    6.823      20.405
2015   10        3     7  23    2.4996   341.2    6.840      20.414
2015   10        3     7  30    2.5037   341.0    6.857      20.423
2015   10        3     7  37    2.5080   340.9    6.874      20.433
2015   10        3     7  44    2.5122   340.7    6.891      20.443
2015   10        3     7  51    2.5165   340.6    6.908      20.453
2015   10        3     7  57    2.5207   340.4    6.925      20.463
2015   10        3     8   4    2.5250   340.3    6.943      20.474
2015   10        3     8  11    2.5293   340.1    6.960      20.485
2015   10        3     8  18    2.5336   340.0    6.977      20.496
2015   10        3     8  25    2.5379   339.9    6.995      20.507
2015   10        3     8  31    2.5423   339.7    7.012      20.518
2015   10        3     8  38    2.5467   339.6    7.030      20.530
2015   10        3     8  45    2.5511   339.4    7.047      20.543
2015   10        3     8  52    2.5555   339.3    7.065      20.555
2015   10        3     8  59    2.5599   339.2    7.083      20.568
2015   10        3     9   5    2.5644   339.0    7.101      20.581
2015   10        3     9  12    2.5689   338.9    7.119      20.594
2015   10        3     9  19    2.5734   338.8    7.137      20.607
2015   10        3     9  26    2.5779   338.6    7.155      20.621
2015   10        3     9  33    2.5825   338.5    7.173      20.635
2015   10        3     9  39    2.5871   338.4    7.192      20.649
2015   10        3     9  46    2.5917   338.2    7.210      20.664
2015   10        3     9  53    2.5963   338.1    7.229      20.679
2015   10        3    10   0    2.6010   338.0    7.247      20.694
2015   10        3    10   7    2.6057   337.9    7.266      20.709
2015   10        3    10  13    2.6104   337.7    7.285      20.725
2015   10        3    10  20    2.6152   337.6    7.305      20.741
2015   10        3    10  27    2.6200   337.5    7.324      20.757
2015   10        3    10  34    2.6248   337.4    7.343      20.773
2015   10        3    10  41    2.6297   337.3    7.363      20.790
2015   10        3    10  47    2.6346   337.1    7.383      20.807
2015   10        3    10  54    2.6395   337.0    7.402      20.825
2015   10        3    11   1    2.6445   336.9    7.423      20.843
2015   10        3    11   8    2.6495   336.8    7.443      20.860
2015   10        3    11  15    2.6545   336.7    7.463      20.879
2015   10        3    11  21    2.6596   336.6    7.484      20.897
2015   10        3    11  28    2.6647   336.4    7.504      20.916
2015   10        3    11  35    2.6698   336.3    7.525      20.936
2015   10        3    11  42    2.6750   336.2    7.546      20.955
2015   10        3    11  49    2.6802   336.1    7.567      20.975
2015   10        3    11  56    2.6854   336.0    7.589      20.995
2015   10        3    12   2    2.6907   335.9    7.610      21.015
2015   10        3    12   9    2.6961   335.8    7.632      21.036
2015   10        3    12  16    2.7014   335.7    7.654      21.058
2015   10        3    12  23    2.7068   335.6    7.676      21.079
2015   10        3    12  30    2.7122   335.5    7.698      21.101
2015   10        3    12  36    2.7177   335.4    7.720      21.123
2015   10        3    12  43    2.7232   335.3    7.742      21.145
2015   10        3    12  50    2.7288   335.2    7.765      21.168
2015   10        3    12  57    2.7343   335.1    7.788      21.191
2015   10        3    13   4    2.7400   335.0    7.811      21.214
2015   10        3    13  10    2.7456   334.9    7.833      21.238
2015   10        3    13  17    2.7513   334.8    7.856      21.262
2015   10        3    13  24    2.7570   334.7    7.879      21.286
2015   10        3    13  31    2.7628   334.6    7.903      21.311
2015   10        3    13  38    2.7685   334.5    7.926      21.335
2015   10        3    13  45    2.7744   334.4    7.949      21.361
2015   10        3    13  51    2.7802   334.3    7.972      21.386
2015   10        3    13  58    2.7861   334.3    7.996      21.412
2015   10        3    14   5    2.7920   334.2    8.019      21.438
2015   10        3    14  12    2.7980   334.1    8.043      21.465
2015   10        3    14  19    2.8039   334.0    8.066      21.491
2015   10        3    14  26    2.8099   333.9    8.089      21.519
2015   10        3    14  32    2.8159   333.8    8.112      21.546
2015   10        3    14  39    2.8220   333.7    8.136      21.574
2015   10        3    14  46    2.8280   333.7    8.159      21.602
2015   10        3    14  53    2.8341   333.6    8.182      21.630
2015   10        3    15   0    2.8402   333.5    8.205      21.659
2015   10        3    15   6    2.8463   333.4    8.228      21.688
2015   10        3    15  13    2.8525   333.4    8.251      21.716
2015   10        3    15  20    2.8586   333.3    8.274      21.746
2015   10        3    15  27    2.8648   333.2    8.297      21.775
2015   10        3    15  34    2.8710   333.1    8.320      21.804
2015   10        3    15  40    2.8772   333.1    8.342      21.834
2015   10        3    15  47    2.8834   333.0    8.365      21.863
2015   10        3    15  54    2.8897   332.9    8.388      21.893
2015   10        3    16   1    2.8960   332.8    8.411      21.923
2015   10        3    16   8    2.9022   332.8    8.433      21.952
2015   10        3    16  14    2.9085   332.7    8.456      21.982
2015   10        3    16  21    2.9148   332.6    8.478      22.012
2015   10        3    16  28    2.9212   332.6    8.501      22.042
2015   10        3    16  35    2.9276   332.5    8.523      22.072
2015   10        3    16  42    2.9340   332.4    8.545      22.102
2015   10        3    16  48    2.9404   332.4    8.568      22.132
2015   10        3    16  55    2.9468   332.3    8.590      22.162
2015   10        3    17   2    2.9532   332.2    8.612      22.191
2015   10        3    17   9    2.9598   332.2    8.634      22.221
2015   10        3    17  16    2.9662   332.1    8.656      22.251
2015   10        3    17  22    2.9728   332.0    8.679      22.281
2015   10        3    17  29    2.9793   332.0    8.701      22.311
2015   10        3    17  36    2.9859   331.9    8.723      22.341
2015   10        3    17  43    2.9925   331.8    8.745      22.371
2015   10        3    17  50    2.9991   331.8    8.767      22.401
2015   10        3    17  56    3.0057   331.7    8.789      22.431
2015   10        3    18   3    3.0125   331.7    8.811      22.461
2015   10        3    18  10    3.0191   331.6    8.833      22.491
2015   10        3    18  17    3.0259   331.5    8.856      22.521
2015   10        3    18  24    3.0327   331.5    8.878      22.550
2015   10        3    18  31    3.0395   331.4    8.900      22.581
2015   10        3    18  37    3.0463   331.4    8.922      22.611
2015   10        3    18  44    3.0532   331.3    8.945      22.641
2015   10        3    18  51    3.0601   331.3    8.967      22.671
2015   10        3    18  58    3.0671   331.2    8.990      22.701
2015   10        3    19   5    3.0741   331.1    9.012      22.732
2015   10        3    19  11    3.0812   331.1    9.035      22.762
2015   10        3    19  18    3.0882   331.0    9.058      22.793
2015   10        3    19  25    3.0954   331.0    9.081      22.824
2015   10        3    19  32    3.1025   330.9    9.104      22.855
2015   10        3    19  39    3.1098   330.9    9.127      22.886
2015   10        3    19  45    3.1170   330.8    9.150      22.917
2015   10        3    19  52    3.1243   330.8    9.174      22.949
2015   10        3    19  59    3.1316   330.7    9.197      22.981
2015   10        3    20   6    3.1390   330.7    9.221      23.013
2015   10        3    20  13    3.1464   330.6    9.245      23.045
2015   10        3    20  19    3.1539   330.6    9.270      23.078
2015   10        3    20  26    3.1614   330.5    9.294      23.111
2015   10        3    20  33    3.1690   330.5    9.319      23.144
2015   10        3    20  40    3.1766   330.4    9.343      23.178
2015   10        3    20  47    3.1842   330.4    9.368      23.212
2015   10        3    20  54    3.1919   330.3    9.393      23.246
2015   10        3    21   0    3.1997   330.3    9.419      23.281
2015   10        3    21   7    3.2074   330.3    9.444      23.316
2015   10        3    21  14    3.2153   330.2    9.470      23.352
2015   10        3    21  21    3.2231   330.2    9.496      23.388
2015   10        3    21  28    3.2310   330.1    9.522      23.425
2015   10        3    21  34    3.2389   330.1    9.549      23.462
2015   10        3    21  41    3.2469   330.1    9.575      23.500
2015   10        3    21  48    3.2549   330.0    9.602      23.538
2015   10        3    21  55    3.2630   330.0    9.629      23.576
2015   10        3    22   2    3.2711   330.0    9.656      23.615
2015   10        3    22   9    3.2792   329.9    9.683      23.655
2015   10        3    22  15    3.2873   329.9    9.710      23.695
2015   10        3    22  22    3.2955   329.9    9.738      23.736
2015   10        3    22  29    3.3037   329.9    9.765      23.777
2015   10        3    22  36    3.3119   329.8    9.793      23.819
2015   10        3    22  43    3.3201   329.8    9.820      23.861
2015   10        3    22  49    3.3284   329.8    9.847      23.903
2015   10        3    22  56    3.3366   329.8    9.875      23.946
2015   10        3    23   3    3.3449   329.8    9.902      23.990
2015   10        3    23  10    3.3531   329.8    9.929      24.034
2015   10        3    23  17    3.3615   329.7    9.956      24.078
2015   10        3    23  23    3.3698   329.7    9.983      24.123
2015   10        3    23  30    3.3782   329.7   10.010      24.168
2015   10        3    23  37    3.3865   329.7   10.037      24.213
2015   10        3    23  44    3.3950   329.7   10.064      24.259
2015   10        3    23  51    3.4034   329.7   10.090      24.304
2015   10        3    23  57    3.4119   329.7   10.117      24.350
2015   10        4     0   4    3.4204   329.7   10.144      24.396
2015   10        4     0  11    3.4290   329.7   10.171      24.442
2015   10        4     0  18    3.4376   329.7   10.197      24.488
2015   10        4     0  25    3.4463   329.7   10.224      24.534
2015   10        4     0  31    3.4549   329.7   10.250      24.579
2015   10        4     0  38    3.4637   329.7   10.277      24.625
2015   10        4     0  45    3.4724   329.7   10.304      24.671
2015   10        4     0  52    3.4813   329.7   10.331      24.717
2015   10        4     0  59    3.4901   329.7   10.357      24.762
2015   10        4     1   5    3.4990   329.7   10.384      24.809
2015   10        4     1  12    3.5078   329.7   10.411      24.855
2015   10        4     1  19    3.5168   329.7   10.438      24.902
2015   10        4     1  26    3.5258   329.7   10.464      24.949
2015   10        4     1  33    3.5349   329.7   10.491      24.996
2015   10        4     1  39    3.5439   329.7   10.518      25.043
2015   10        4     1  46    3.5531   329.7   10.545      25.090
2015   10        4     1  53    3.5623   329.7   10.572      25.137
2015   10        4     2   0    3.5716   329.7   10.600      25.185
2015   10        4     2   7    3.5808   329.7   10.627      25.232
2015   10        4     2  14    3.5903   329.7   10.655      25.279
2015   10        4     2  20    3.5997   329.7   10.683      25.327
2015   10        4     2  27    3.6093   329.7   10.711      25.375
2015   10        4     2  34    3.6189   329.7   10.739      25.423
2015   10        4     2  41    3.6286   329.7   10.768      25.471
2015   10        4     2  48    3.6384   329.8   10.797      25.521
2015   10        4     2  54    3.6484   329.8   10.826      25.571
2015   10        4     3   1    3.6583   329.8   10.856      25.622
2015   10        4     3   8    3.6684   329.8   10.886      25.673
2015   10        4     3  15    3.6785   329.8   10.917      25.725
2015   10        4     3  22    3.6887   329.9   10.948      25.779
2015   10        4     3  28    3.6989   329.9   10.978      25.832
2015   10        4     3  35    3.7092   329.9   11.010      25.887
2015   10        4     3  42    3.7194   329.9   11.041      25.944
2015   10        4     3  49    3.7297   330.0   11.072      26.002
2015   10        4     3  56    3.7399   330.0   11.103      26.062
2015   10        4     4   3    3.7502   330.1   11.134      26.123
2015   10        4     4   9    3.7603   330.1   11.164      26.185
2015   10        4     4  16    3.7706   330.2   11.194      26.249
2015   10        4     4  23    3.7807   330.2   11.224      26.313
2015   10        4     4  30    3.7909   330.3   11.255      26.377
2015   10        4     4  37    3.8009   330.3   11.284      26.440
2015   10        4     4  43    3.8111   330.4   11.314      26.503
2015   10        4     4  50    3.8211   330.4   11.343      26.566
2015   10        4     4  57    3.8312   330.5   11.373      26.628
2015   10        4     5   4    3.8412   330.5   11.402      26.689
2015   10        4     5  11    3.8512   330.6   11.431      26.751
2015   10        4     5  18    3.8612   330.6   11.460      26.812
2015   10        4     5  24    3.8712   330.7   11.489      26.873
2015   10        4     5  31    3.8811   330.7   11.517      26.934
2015   10        4     5  38    3.8911   330.8   11.546      26.996
2015   10        4     5  45    3.9011   330.9   11.575      27.056
2015   10        4     5  52    3.9110   330.9   11.604      27.117
2015   10        4     5  58    3.9210   331.0   11.633      27.178
2015   10        4     6   5    3.9309   331.0   11.662      27.239
2015   10        4     6  12    3.9408   331.1   11.691      27.300
2015   10        4     6  19    3.9507   331.2   11.720      27.362
2015   10        4     6  26    3.9605   331.2   11.749      27.423
2015   10        4     6  32    3.9704   331.3   11.777      27.485
2015   10        4     6  39    3.9803   331.4   11.806      27.547
2015   10        4     6  46    3.9901   331.4   11.834      27.609
2015   10        4     6  53    4.0000   331.5   11.863      27.671
2015   10        4     7   0    4.0099   331.6   11.891      27.734
2015   10        4     7   6    4.0197   331.7   11.920      27.797
2015   10        4     7  13    4.0297   331.8   11.948      27.860
2015   10        4     7  20    4.0396   331.8   11.976      27.923
2015   10        4     7  27    4.0495   331.9   12.005      27.987
2015   10        4     7  34    4.0594   332.0   12.033      28.050
2015   10        4     7  40    4.0695   332.1   12.062      28.114
2015   10        4     7  47    4.0795   332.2   12.091      28.177
2015   10        4     7  54    4.0896   332.2   12.120      28.240
2015   10        4     8   1    4.0996   332.3   12.149      28.304
2015   10        4     8   8    4.1098   332.4   12.178      28.368
2015   10        4     8  14    4.1199   332.5   12.207      28.431
2015   10        4     8  21    4.1301   332.6   12.236      28.496
2015   10        4     8  28    4.1403   332.7   12.265      28.560
2015   10        4     8  35    4.1505   332.8   12.294      28.626
2015   10        4     8  42    4.1607   332.8   12.323      28.691
2015   10        4     8  48    4.1710   332.9   12.352      28.757
2015   10        4     8  55    4.1812   333.0   12.382      28.823
2015   10        4     9   2    4.1915   333.1   12.411      28.890
2015   10        4     9   9    4.2018   333.2   12.440      28.956
2015   10        4     9  16    4.2122   333.3   12.470      29.023
2015   10        4     9  22    4.2226   333.4   12.500      29.089
2015   10        4     9  29    4.2331   333.5   12.530      29.156
2015   10        4     9  36    4.2436   333.6   12.561      29.223
2015   10        4     9  43    4.2542   333.7   12.592      29.290
2015   10        4     9  50    4.2650   333.8   12.624      29.357
2015   10        4     9  57    4.2759   333.9   12.657      29.425
2015   10        4    10   3    4.2868   334.0   12.689      29.495
2015   10        4    10  10    4.2979   334.2   12.723      29.566
2015   10        4    10  17    4.3091   334.3   12.757      29.639
2015   10        4    10  24    4.3205   334.4   12.792      29.713
2015   10        4    10  31    4.3320   334.5   12.828      29.788
2015   10        4    10  37    4.3437   334.6   12.864      29.865
2015   10        4    10  44    4.3554   334.8   12.900      29.944
2015   10        4    10  51    4.3672   334.9   12.937      30.026
2015   10        4    10  58    4.3790   335.1   12.974      30.110
2015   10        4    11   5    4.3908   335.2   13.010      30.198
2015   10        4    11  11    4.4025   335.4   13.045      30.289
2015   10        4    11  18    4.4141   335.6   13.080      30.384
2015   10        4    11  25    4.4254   335.8   13.113      30.480
2015   10        4    11  32    4.4366   336.0   13.144      30.579
2015   10        4    11  39    4.4475   336.1   13.175      30.677
2015   10        4    11  46    4.4582   336.3   13.204      30.775
2015   10        4    11  52    4.4687   336.5   13.231      30.872
2015   10        4    11  59    4.4790   336.7   13.258      30.966
2015   10        4    12   6    4.4889   336.8   13.282      31.059
2015   10        4    12  13    4.4987   337.0   13.306      31.150
2015   10        4    12  20    4.5082   337.2   13.328      31.238
2015   10        4    12  27    4.5176   337.4   13.348      31.326
2015   10        4    12  33    4.5267   337.6   13.368      31.411
2015   10        4    12  40    4.5357   337.7   13.387      31.495
2015   10        4    12  47    4.5444   337.9   13.404      31.577
2015   10        4    12  54    4.5531   338.1   13.421      31.657
2015   10        4    13   1    4.5616   338.2   13.436      31.736
2015   10        4    13   7    4.5699   338.4   13.451      31.814
2015   10        4    13  14    4.5781   338.6   13.465      31.890
2015   10        4    13  21    4.5862   338.7   13.479      31.966
2015   10        4    13  28    4.5942   338.9   13.492      32.039
2015   10        4    13  35    4.6021   339.1   13.504      32.112
2015   10        4    13  41    4.6098   339.2   13.516      32.183
2015   10        4    13  48    4.6176   339.4   13.527      32.254
2015   10        4    13  55    4.6251   339.6   13.538      32.323
2015   10        4    14   2    4.6327   339.7   13.549      32.392
2015   10        4    14   9    4.6402   339.9   13.559      32.459
2015   10        4    14  15    4.6476   340.0   13.569      32.526
2015   10        4    14  22    4.6550   340.2   13.579      32.591
2015   10        4    14  29    4.6623   340.4   13.588      32.656
2015   10        4    14  36    4.6696   340.5   13.598      32.720
2015   10        4    14  43    4.6769   340.7   13.607      32.783
2015   10        4    14  49    4.6841   340.8   13.617      32.846
2015   10        4    14  56    4.6914   341.0   13.626      32.909
2015   10        4    15   3    4.6986   341.1   13.635      32.971
2015   10        4    15  10    4.7058   341.3   13.645      33.033
2015   10        4    15  17    4.7131   341.5   13.654      33.094
2015   10        4    15  23    4.7203   341.6   13.664      33.155
2015   10        4    15  30    4.7275   341.8   13.674      33.216
2015   10        4    15  37    4.7348   341.9   13.684      33.278
2015   10        4    15  44    4.7420   342.1   13.694      33.339
2015   10        4    15  51    4.7493   342.3   13.704      33.400
2015   10        4    15  57    4.7565   342.4   13.714      33.462
2015   10        4    16   4    4.7638   342.6   13.724      33.524
2015   10        4    16  11    4.7711   342.7   13.735      33.587
2015   10        4    16  18    4.7783   342.9   13.746      33.649
2015   10        4    16  25    4.7856   343.1   13.756      33.712
2015   10        4    16  32    4.7929   343.2   13.768      33.775
2015   10        4    16  38    4.8002   343.4   13.779      33.838
2015   10        4    16  45    4.8076   343.6   13.791      33.901
2015   10        4    16  52    4.8149   343.7   13.803      33.964
2015   10        4    16  59    4.8224   343.9   13.816      34.027
2015   10        4    17   6    4.8299   344.1   13.830      34.091
2015   10        4    17  12    4.8375   344.2   13.844      34.156
2015   10        4    17  19    4.8452   344.4   13.858      34.221
2015   10        4    17  26    4.8529   344.6   13.874      34.289
2015   10        4    17  33    4.8607   344.7   13.890      34.357
2015   10        4    17  40    4.8686   344.9   13.906      34.425
2015   10        4    17  46    4.8766   345.1   13.924      34.495
2015   10        4    17  53    4.8847   345.3   13.942      34.567
2015   10        4    18   0    4.8928   345.5   13.960      34.641
2015   10        4    18   7    4.9010   345.7   13.979      34.718
2015   10        4    18  14    4.9091   345.9   13.997      34.796
2015   10        4    18  20    4.9173   346.1   14.015      34.878
2015   10        4    18  27    4.9254   346.3   14.033      34.963
2015   10        4    18  34    4.9334   346.5   14.050      35.050
2015   10        4    18  41    4.9412   346.7   14.067      35.138
2015   10        4    18  48    4.9489   347.0   14.083      35.227
2015   10        4    18  55    4.9564   347.2   14.099      35.315
2015   10        4    19   1    4.9638   347.4   14.114      35.403
2015   10        4    19   8    4.9710   347.6   14.128      35.491
2015   10        4    19  15    4.9780   347.8   14.142      35.579
2015   10        4    19  22    4.9849   348.1   14.155      35.666
2015   10        4    19  29    4.9916   348.3   14.167      35.753
2015   10        4    19  35    4.9982   348.5   14.179      35.838
2015   10        4    19  42    5.0046   348.8   14.190      35.925
2015   10        4    19  49    5.0108   349.0   14.201      36.011
2015   10        4    19  56    5.0168   349.2   14.211      36.099
2015   10        4    20   3    5.0226   349.5   14.219      36.186
2015   10        4    20  10    5.0283   349.7   14.227      36.273
2015   10        4    20  16    5.0337   349.9   14.234      36.360
2015   10        4    20  23    5.0389   350.2   14.240      36.448
2015   10        4    20  30    5.0438   350.4   14.244      36.534
2015   10        4    20  37    5.0486   350.7   14.247      36.619
2015   10        4    20  44    5.0532   350.9   14.248      36.702
2015   10        4    20  50    5.0576   351.2   14.249      36.783
2015   10        4    20  57    5.0618   351.4   14.248      36.862
2015   10        4    21   4    5.0659   351.6   14.247      36.939
2015   10        4    21  11    5.0697   351.9   14.244      37.014
2015   10        4    21  18    5.0734   352.1   14.240      37.089
2015   10        4    21  24    5.0770   352.4   14.236      37.161
2015   10        4    21  31    5.0804   352.6   14.231      37.232
2015   10        4    21  38    5.0838   352.8   14.225      37.301
2015   10        4    21  45    5.0871   353.1   14.219      37.370
2015   10        4    21  52    5.0903   353.3   14.212      37.437
2015   10        4    21  58    5.0934   353.5   14.205      37.504
2015   10        4    22   5    5.0965   353.8   14.198      37.569
2015   10        4    22  12    5.0995   354.0   14.190      37.635
2015   10        4    22  19    5.1025   354.2   14.183      37.699
2015   10        4    22  26    5.1055   354.5   14.175      37.763
2015   10        4    22  32    5.1085   354.7   14.167      37.827
2015   10        4    22  39    5.1115   354.9   14.159      37.891
2015   10        4    22  46    5.1144   355.2   14.151      37.955
2015   10        4    22  53    5.1174   355.4   14.143      38.019
2015   10        4    23   0    5.1204   355.6   14.134      38.082
2015   10        4    23   6    5.1234   355.9   14.126      38.146
2015   10        4    23  13    5.1263   356.1   14.118      38.210
2015   10        4    23  20    5.1293   356.3   14.109      38.274
2015   10        4    23  27    5.1323   356.6   14.101      38.337
2015   10        4    23  34    5.1353   356.8   14.092      38.401
2015   10        4    23  40    5.1382   357.0   14.083      38.464
2015   10        4    23  47    5.1412   357.3   14.074      38.527
2015   10        4    23  54    5.1441   357.5   14.064      38.589
2015   10        5     0   1    5.1469   357.8   14.055      38.652
2015   10        5     0   8    5.1497   358.0   14.045      38.713
2015   10        5     0  15    5.1524   358.2   14.035      38.775
2015   10        5     0  21    5.1551   358.5   14.025      38.835
2015   10        5     0  28    5.1577   358.7   14.015      38.895
2015   10        5     0  35    5.1602   358.9   14.005      38.955
2015   10        5     0  42    5.1627   359.2   13.994      39.014
2015   10        5     0  49    5.1651   359.4   13.984      39.072
2015   10        5     0  55    5.1674   359.7   13.973      39.130
2015   10        5     1   2    5.1697   359.9   13.963      39.187
2015   10        5     1   9    5.1719   360.1   13.952      39.244
2015   10        5     1  16    5.1740   360.4   13.942      39.300
2015   10        5     1  23    5.1761   360.6   13.932      39.357
2015   10        5     1  29    5.1782   360.8   13.922      39.413
2015   10        5     1  36    5.1802   361.1   13.911      39.469
2015   10        5     1  43    5.1822   361.3   13.902      39.525
2015   10        5     1  50    5.1841   361.5   13.892      39.582
2015   10        5     1  57    5.1860   361.8   13.882      39.637
2015   10        5     2   4    5.1879   362.0   13.873      39.693
2015   10        5     2  10    5.1898   362.2   13.865      39.748
2015   10        5     2  17    5.1916   362.4   13.856      39.804
2015   10        5     2  24    5.1935   362.7   13.848      39.860
2015   10        5     2  31    5.1953   362.9   13.840      39.917
2015   10        5     2  38    5.1971   363.1   13.832      39.974
2015   10        5     2  44    5.1989   363.4   13.825      40.031
2015   10        5     2  51    5.2006   363.6   13.818      40.088
2015   10        5     2  58    5.2023   363.8   13.811      40.147
2015   10        5     3   5    5.2039   364.1   13.805      40.206
2015   10        5     3  12    5.2053   364.3   13.798      40.267
2015   10        5     3  19    5.2067   364.6   13.791      40.328
2015   10        5     3  25    5.2078   364.8   13.784      40.390
2015   10        5     3  32    5.2088   365.1   13.776      40.453
2015   10        5     3  39    5.2096   365.3   13.768      40.518
2015   10        5     3  46    5.2103   365.6   13.758      40.583
2015   10        5     3  53    5.2107   365.9   13.748      40.646
2015   10        5     3  59    5.2109   366.1   13.737      40.708
2015   10        5     4   6    5.2110   366.4   13.726      40.770
2015   10        5     4  13    5.2108   366.6   13.713      40.829
2015   10        5     4  20    5.2104   366.9   13.700      40.888
2015   10        5     4  27    5.2099   367.2   13.686      40.945
2015   10        5     4  33    5.2092   367.4   13.671      41.002
2015   10        5     4  40    5.2084   367.7   13.656      41.057
2015   10        5     4  47    5.2073   368.0   13.640      41.112
2015   10        5     4  54    5.2063   368.2   13.623      41.165
2015   10        5     5   1    5.2051   368.5   13.606      41.218
2015   10        5     5   7    5.2039   368.8   13.589      41.270
2015   10        5     5  14    5.2026   369.0   13.572      41.321
2015   10        5     5  21    5.2014   369.3   13.554      41.371
2015   10        5     5  28    5.2001   369.6   13.536      41.422
2015   10        5     5  35    5.1988   369.8   13.518      41.472
2015   10        5     5  41    5.1975   370.1   13.499      41.522
2015   10        5     5  48    5.1962   370.4   13.481      41.572
2015   10        5     5  55    5.1948   370.7   13.462      41.621
2015   10        5     6   2    5.1936   370.9   13.442      41.671
2015   10        5     6   9    5.1922   371.2   13.423      41.721
2015   10        5     6  15    5.1909   371.5   13.403      41.770
2015   10        5     6  22    5.1894   371.7   13.383      41.819
2015   10        5     6  29    5.1881   372.0   13.362      41.867
2015   10        5     6  36    5.1866   372.3   13.341      41.915
2015   10        5     6  43    5.1851   372.6   13.320      41.962
2015   10        5     6  49    5.1836   372.8   13.298      42.009
2015   10        5     6  56    5.1821   373.1   13.275      42.054
2015   10        5     7   3    5.1804   373.4   13.252      42.098
2015   10        5     7  10    5.1787   373.6   13.229      42.141
2015   10        5     7  17    5.1768   373.9   13.205      42.183
2015   10        5     7  23    5.1749   374.2   13.180      42.223
2015   10        5     7  30    5.1729   374.5   13.155      42.262
2015   10        5     7  37    5.1708   374.7   13.129      42.299
2015   10        5     7  44    5.1686   375.0   13.103      42.335
2015   10        5     7  51    5.1664   375.3   13.077      42.369
2015   10        5     7  58    5.1640   375.5   13.050      42.402
2015   10        5     8   4    5.1616   375.8   13.023      42.433
2015   10        5     8  11    5.1591   376.1   12.996      42.464
2015   10        5     8  18    5.1566   376.4   12.968      42.493
2015   10        5     8  25    5.1540   376.6   12.940      42.522
2015   10        5     8  32    5.1513   376.9   12.913      42.550
2015   10        5     8  38    5.1486   377.2   12.884      42.578
2015   10        5     8  45    5.1458   377.5   12.856      42.605
2015   10        5     8  52    5.1430   377.7   12.827      42.631
2015   10        5     8  59    5.1401   378.0   12.798      42.656
2015   10        5     9   6    5.1371   378.3   12.768      42.681
2015   10        5     9  12    5.1340   378.6   12.738      42.705
2015   10        5     9  19    5.1308   378.9   12.708      42.730
2015   10        5     9  26    5.1276   379.2   12.677      42.754
2015   10        5     9  33    5.1242   379.5   12.646      42.777
2015   10        5     9  40    5.1208   379.7   12.614      42.800
2015   10        5     9  47    5.1171   380.0   12.581      42.822
2015   10        5     9  53    5.1133   380.3   12.547      42.842
2015   10        5    10   0    5.1093   380.6   12.512      42.861
2015   10        5    10   7    5.1050   380.9   12.476      42.878
2015   10        5    10  14    5.1004   381.2   12.438      42.892
2015   10        5    10  21    5.0956   381.5   12.400      42.902
2015   10        5    10  27    5.0903   381.8   12.360      42.909
2015   10        5    10  34    5.0849   382.0   12.319      42.911
2015   10        5    10  41    5.0790   382.3   12.277      42.911
2015   10        5    10  48    5.0730   382.6   12.234      42.907
2015   10        5    10  55    5.0664   382.9   12.189      42.901
2015   10        5    11   2    5.0597   383.1   12.144      42.888
2015   10        5    11   8    5.0525   383.4   12.098      42.870
2015   10        5    11  15    5.0452   383.6   12.052      42.848
2015   10        5    11  22    5.0377   383.8   12.006      42.823
2015   10        5    11  29    5.0301   384.1   11.961      42.794
2015   10        5    11  36    5.0224   384.3   11.916      42.761
2015   10        5    11  42    5.0148   384.5   11.872      42.725
2015   10        5    11  49    5.0071   384.7   11.829      42.690
2015   10        5    11  56    4.9997   384.9   11.788      42.657
2015   10        5    12   3    4.9922   385.1   11.747      42.624
2015   10        5    12  10    4.9849   385.4   11.707      42.593
2015   10        5    12  16    4.9776   385.6   11.667      42.564
2015   10        5    12  23    4.9705   385.8   11.629      42.535
2015   10        5    12  30    4.9633   386.0   11.591      42.507
2015   10        5    12  37    4.9564   386.2   11.553      42.479
2015   10        5    12  44    4.9494   386.5   11.517      42.453
2015   10        5    12  50    4.9426   386.7   11.481      42.427
2015   10        5    12  57    4.9358   386.9   11.445      42.402
2015   10        5    13   4    4.9291   387.1   11.410      42.378
2015   10        5    13  11    4.9223   387.3   11.375      42.354
2015   10        5    13  18    4.9158   387.6   11.341      42.331
2015   10        5    13  24    4.9091   387.8   11.307      42.307
2015   10        5    13  31    4.9026   388.0   11.273      42.285
2015   10        5    13  38    4.8960   388.2   11.240      42.262
2015   10        5    13  45    4.8895   388.4   11.207      42.239
2015   10        5    13  52    4.8830   388.6   11.174      42.216
2015   10        5    13  58    4.8765   388.8   11.141      42.193
2015   10        5    14   5    4.8700   389.0   11.109      42.170
2015   10        5    14  12    4.8636   389.2   11.077      42.146
2015   10        5    14  19    4.8571   389.4   11.045      42.122
2015   10        5    14  26    4.8507   389.6   11.014      42.098
2015   10        5    14  32    4.8442   389.8   10.983      42.073
2015   10        5    14  39    4.8378   390.0   10.952      42.048
2015   10        5    14  46    4.8314   390.2   10.921      42.023
2015   10        5    14  53    4.8251   390.4   10.891      41.996
2015   10        5    15   0    4.8188   390.6   10.861      41.970
2015   10        5    15   6    4.8126   390.7   10.832      41.943
2015   10        5    15  13    4.8064   390.9   10.802      41.915
2015   10        5    15  20    4.8003   391.1   10.774      41.888
2015   10        5    15  27    4.7942   391.3   10.746      41.860
2015   10        5    15  34    4.7884   391.4   10.719      41.834
2015   10        5    15  41    4.7824   391.6   10.691      41.807
2015   10        5    15  47    4.7767   391.8   10.665      41.781
2015   10        5    15  54    4.7708   392.0   10.638      41.756
2015   10        5    16   1    4.7651   392.1   10.612      41.731
2015   10        5    16   8    4.7594   392.3   10.586      41.706
2015   10        5    16  15    4.7538   392.5   10.560      41.681
2015   10        5    16  21    4.7480   392.7   10.533      41.657
2015   10        5    16  28    4.7424   392.9   10.508      41.633
2015   10        5    16  35    4.7366   393.1   10.481      41.609
2015   10        5    16  42    4.7308   393.3   10.455      41.585
2015   10        5    16  49    4.7250   393.5   10.428      41.560
2015   10        5    16  56    4.7191   393.7   10.400      41.535
2015   10        5    17   2    4.7130   393.9   10.372      41.508
2015   10        5    17   9    4.7068   394.1   10.344      41.478
2015   10        5    17  16    4.7003   394.3   10.314      41.446
2015   10        5    17  23    4.6937   394.5   10.284      41.412
2015   10        5    17  30    4.6868   394.7   10.252      41.373
2015   10        5    17  36    4.6798   394.9   10.220      41.330
2015   10        5    17  43    4.6724   395.1   10.186      41.281
2015   10        5    17  50    4.6648   395.3   10.152      41.227
2015   10        5    17  57    4.6569   395.5   10.116      41.166
2015   10        5    18   4    4.6487   395.7   10.080      41.103
2015   10        5    18  11    4.6403   395.9   10.042      41.035
2015   10        5    18  17    4.6316   396.1   10.003      40.961
2015   10        5    18  24    4.6226   396.3    9.964      40.879
2015   10        5    18  31    4.6135   396.4    9.924      40.792
2015   10        5    18  38    4.6043   396.6    9.885      40.700
2015   10        5    18  45    4.5951   396.7    9.845      40.606
2015   10        5    18  51    4.5859   396.8    9.807      40.508
2015   10        5    18  58    4.5769   396.9    9.769      40.407
2015   10        5    19   5    4.5681   397.0    9.733      40.305
2015   10        5    19  12    4.5596   397.1    9.698      40.207
2015   10        5    19  19    4.5513   397.2    9.664      40.111
2015   10        5    19  25    4.5432   397.3    9.631      40.018
2015   10        5    19  32    4.5354   397.4    9.599      39.926
2015   10        5    19  39    4.5277   397.5    9.568      39.837
2015   10        5    19  46    4.5202   397.6    9.538      39.749
2015   10        5    19  53    4.5128   397.7    9.509      39.663
2015   10        5    19  59    4.5056   397.8    9.481      39.577
2015   10        5    20   6    4.4986   397.9    9.454      39.493
2015   10        5    20  13    4.4917   397.9    9.427      39.410
2015   10        5    20  20    4.4850   398.0    9.402      39.329
2015   10        5    20  27    4.4784   398.1    9.377      39.248
2015   10        5    20  33    4.4718   398.2    9.354      39.170
2015   10        5    20  40    4.4654   398.3    9.331      39.092
2015   10        5    20  47    4.4591   398.3    9.308      39.016
2015   10        5    20  54    4.4529   398.4    9.287      38.942
2015   10        5    21   1    4.4468   398.4    9.266      38.870
2015   10        5    21   7    4.4408   398.5    9.246      38.799
2015   10        5    21  14    4.4349   398.6    9.227      38.731
2015   10        5    21  21    4.4290   398.6    9.208      38.664
2015   10        5    21  28    4.4233   398.7    9.190      38.599
2015   10        5    21  35    4.4176   398.7    9.173      38.536
2015   10        5    21  41    4.4120   398.8    9.156      38.476
2015   10        5    21  48    4.4066   398.8    9.140      38.417
2015   10        5    21  55    4.4012   398.8    9.124      38.361
2015   10        5    22   2    4.3959   398.9    9.109      38.306
2015   10        5    22   9    4.3907   398.9    9.095      38.254
2015   10        5    22  15    4.3856   398.9    9.081      38.203
2015   10        5    22  22    4.3806   399.0    9.067      38.155
2015   10        5    22  29    4.3757   399.0    9.054      38.108
2015   10        5    22  36    4.3709   399.0    9.042      38.063
2015   10        5    22  43    4.3662   399.0    9.029      38.020
2015   10        5    22  50    4.3616   399.0    9.017      37.979
2015   10        5    22  56    4.3570   399.0    9.006      37.938
2015   10        5    23   3    4.3525   399.0    8.995      37.900
2015   10        5    23  10    4.3482   399.0    8.984      37.862
2015   10        5    23  17    4.3439   399.0    8.973      37.825
2015   10        5    23  24    4.3396   399.0    8.963      37.789
2015   10        5    23  30    4.3355   399.0    8.953      37.755
2015   10        5    23  37    4.3315   399.0    8.944      37.720
2015   10        5    23  44    4.3275   399.0    8.934      37.687
2015   10        5    23  51    4.3236   399.0    8.925      37.653
2015   10        5    23  58    4.3199   399.0    8.916      37.620
2015   10        6     0   4    4.3161   399.0    8.907      37.586
2015   10        6     0  11    4.3125   399.0    8.899      37.553
2015   10        6     0  18    4.3090   399.0    8.891      37.518
2015   10        6     0  25    4.3055   399.0    8.883      37.483
2015   10        6     0  32    4.3020   399.0    8.875      37.447
2015   10        6     0  39    4.2987   399.0    8.867      37.410
2015   10        6     0  45    4.2954   399.0    8.860      37.372
2015   10        6     0  52    4.2921   399.0    8.853      37.333
2015   10        6     0  59    4.2889   399.0    8.846      37.294
2015   10        6     1   6    4.2858   399.0    8.840      37.254
2015   10        6     1  13    4.2828   399.0    8.834      37.212
2015   10        6     1  19    4.2798   399.0    8.828      37.170
2015   10        6     1  26    4.2770   399.0    8.822      37.126
2015   10        6     1  33    4.2741   399.0    8.816      37.083
2015   10        6     1  40    4.2714   399.0    8.811      37.039
2015   10        6     1  47    4.2686   399.0    8.806      36.995
2015   10        6     1  54    4.2661   398.9    8.801      36.952
2015   10        6     2   0    4.2635   398.9    8.797      36.909
2015   10        6     2   7    4.2612   398.9    8.793      36.867
2015   10        6     2  14    4.2589   398.9    8.789      36.827
2015   10        6     2  21    4.2569   398.9    8.785      36.788
2015   10        6     2  27    4.2550   398.9    8.782      36.750
2015   10        6     2  34    4.2533   398.8    8.780      36.713
2015   10        6     2  41    4.2517   398.8    8.777      36.678
2015   10        6     2  48    4.2504   398.8    8.776      36.643
2015   10        6     2  55    4.2491   398.8    8.775      36.610
2015   10        6     3   2    4.2481   398.8    8.774      36.578
2015   10        6     3   8    4.2471   398.7    8.774      36.547
2015   10        6     3  15    4.2463   398.7    8.775      36.516
2015   10        6     3  22    4.2456   398.7    8.776      36.487
2015   10        6     3  29    4.2451   398.7    8.778      36.458
2015   10        6     3  36    4.2445   398.7    8.780      36.431
2015   10        6     3  42    4.2441   398.7    8.783      36.406
2015   10        6     3  49    4.2437   398.6    8.786      36.382
2015   10        6     3  56    4.2434   398.6    8.790      36.360
2015   10        6     4   3    4.2431   398.6    8.794      36.340
2015   10        6     4  10    4.2429   398.6    8.799      36.322
2015   10        6     4  16    4.2427   398.6    8.803      36.306
2015   10        6     4  23    4.2425   398.6    8.809      36.292
2015   10        6     4  30    4.2424   398.6    8.814      36.281
2015   10        6     4  37    4.2423   398.6    8.820      36.272
2015   10        6     4  44    4.2422   398.6    8.825      36.266
2015   10        6     4  50    4.2422   398.6    8.831      36.263
2015   10        6     4  57    4.2422   398.6    8.836      36.263
2015   10        6     5   4    4.2422   398.6    8.842      36.265
2015   10        6     5  11    4.2423   398.6    8.847      36.269
2015   10        6     5  18    4.2424   398.7    8.852      36.275
2015   10        6     5  24    4.2426   398.7    8.857      36.281
2015   10        6     5  31    4.2428   398.7    8.862      36.288
2015   10        6     5  38    4.2430   398.7    8.867      36.296
2015   10        6     5  45    4.2433   398.7    8.872      36.304
2015   10        6     5  52    4.2436   398.7    8.877      36.312
2015   10        6     5  58    4.2440   398.7    8.881      36.320
2015   10        6     6   5    4.2444   398.7    8.886      36.329
2015   10        6     6  12    4.2449   398.7    8.890      36.339
2015   10        6     6  19    4.2454   398.7    8.895      36.348
2015   10        6     6  26    4.2460   398.7    8.899      36.358
2015   10        6     6  33    4.2467   398.7    8.903      36.368
2015   10        6     6  39    4.2474   398.7    8.908      36.379
2015   10        6     6  46    4.2483   398.7    8.912      36.389
2015   10        6     6  53    4.2492   398.7    8.917      36.400
2015   10        6     7   0    4.2503   398.7    8.921      36.411
2015   10        6     7   7    4.2515   398.7    8.926      36.422
2015   10        6     7  13    4.2527   398.7    8.931      36.433
2015   10        6     7  20    4.2542   398.7    8.936      36.445
2015   10        6     7  27    4.2558   398.7    8.941      36.457
2015   10        6     7  34    4.2575   398.8    8.947      36.469
2015   10        6     7  41    4.2594   398.8    8.952      36.482
2015   10        6     7  48    4.2616   398.8    8.959      36.495
2015   10        6     7  54    4.2638   398.8    8.965      36.508
2015   10        6     8   1    4.2663   398.8    8.972      36.523
2015   10        6     8   8    4.2690   398.8    8.980      36.538
2015   10        6     8  15    4.2719   398.8    8.988      36.553
2015   10        6     8  22    4.2749   398.8    8.997      36.570
2015   10        6     8  28    4.2783   398.9    9.006      36.588
2015   10        6     8  35    4.2818   398.9    9.016      36.607
2015   10        6     8  42    4.2856   398.9    9.028      36.627
2015   10        6     8  49    4.2895   398.9    9.039      36.648
2015   10        6     8  56    4.2938   399.0    9.052      36.670
2015   10        6     9   2    4.2981   399.0    9.066      36.695
2015   10        6     9   9    4.3027   399.1    9.081      36.723
2015   10        6     9  16    4.3075   399.1    9.096      36.753
2015   10        6     9  23    4.3125   399.1    9.112      36.786
2015   10        6     9  30    4.3176   399.2    9.130      36.821
2015   10        6     9  36    4.3229   399.3    9.148      36.859
2015   10        6     9  43    4.3282   399.3    9.167      36.899
2015   10        6     9  50    4.3336   399.4    9.186      36.945
2015   10        6     9  57    4.3389   399.5    9.206      36.994
2015   10        6    10   4    4.3443   399.6    9.225      37.047
2015   10        6    10  10    4.3496   399.7    9.245      37.105
2015   10        6    10  17    4.3549   399.8    9.264      37.166
2015   10        6    10  24    4.3600   399.9    9.283      37.231
2015   10        6    10  31    4.3652   400.0    9.301      37.295
2015   10        6    10  38    4.3702   400.2    9.319      37.358
2015   10        6    10  44    4.3751   400.3    9.337      37.421
2015   10        6    10  51    4.3799   400.4    9.354      37.483
2015   10        6    10  58    4.3847   400.5    9.371      37.544
2015   10        6    11   5    4.3892   400.6    9.388      37.605
2015   10        6    11  12    4.3937   400.7    9.404      37.666
2015   10        6    11  18    4.3981   400.9    9.420      37.728
2015   10        6    11  25    4.4025   401.0    9.435      37.789
2015   10        6    11  32    4.4068   401.1    9.451      37.851
2015   10        6    11  39    4.4110   401.2    9.466      37.914
2015   10        6    11  46    4.4152   401.3    9.481      37.976
2015   10        6    11  53    4.4193   401.5    9.495      38.040
2015   10        6    11  59    4.4234   401.6    9.509      38.104
2015   10        6    12   6    4.4274   401.7    9.522      38.170
2015   10        6    12  13    4.4314   401.9    9.535      38.236
2015   10        6    12  20    4.4354   402.0    9.548      38.304
2015   10        6    12  27    4.4393   402.1    9.560      38.372
2015   10        6    12  33    4.4433   402.3    9.571      38.440
2015   10        6    12  40    4.4471   402.4    9.582      38.508
2015   10        6    12  47    4.4511   402.5    9.593      38.575
2015   10        6    12  54    4.4549   402.7    9.603      38.642
2015   10        6    13   1    4.4588   402.8    9.613      38.707
2015   10        6    13   7    4.4627   402.9    9.623      38.771
2015   10        6    13  14    4.4667   403.1    9.632      38.834
2015   10        6    13  21    4.4706   403.2    9.641      38.896
2015   10        6    13  28    4.4746   403.4    9.650      38.958
2015   10        6    13  35    4.4786   403.5    9.659      39.019
2015   10        6    13  42    4.4827   403.6    9.667      39.080
2015   10        6    13  48    4.4867   403.8    9.676      39.139
2015   10        6    13  55    4.4910   403.9    9.684      39.199
2015   10        6    14   2    4.4951   404.0    9.693      39.257
2015   10        6    14   9    4.4995   404.2    9.701      39.316
2015   10        6    14  16    4.5038   404.3    9.709      39.374
2015   10        6    14  22    4.5083   404.5    9.718      39.432
2015   10        6    14  29    4.5128   404.6    9.726      39.489
2015   10        6    14  36    4.5175   404.8    9.735      39.547
2015   10        6    14  43    4.5222   404.9    9.743      39.603
2015   10        6    14  50    4.5271   405.1    9.752      39.661
2015   10        6    14  56    4.5320   405.2    9.761      39.718
2015   10        6    15   3    4.5371   405.4    9.770      39.776
2015   10        6    15  10    4.5422   405.5    9.780      39.833
2015   10        6    15  17    4.5475   405.7    9.790      39.891
2015   10        6    15  24    4.5529   405.8    9.800      39.950
2015   10        6    15  31    4.5585   406.0    9.811      40.009
2015   10        6    15  37    4.5641   406.1    9.823      40.068
2015   10        6    15  44    4.5699   406.3    9.835      40.129
2015   10        6    15  51    4.5758   406.4    9.847      40.191
2015   10        6    15  58    4.5819   406.6    9.860      40.253
2015   10        6    16   5    4.5881   406.8    9.875      40.316
2015   10        6    16  11    4.5945   406.9    9.890      40.381
2015   10        6    16  18    4.6009   407.1    9.906      40.448
2015   10        6    16  25    4.6074   407.3    9.922      40.517
2015   10        6    16  32    4.6141   407.4    9.940      40.589
2015   10        6    16  39    4.6209   407.6    9.959      40.663
2015   10        6    16  45    4.6278   407.8    9.978      40.740
2015   10        6    16  52    4.6347   408.0    9.999      40.819
2015   10        6    16  59    4.6416   408.2   10.020      40.900
2015   10        6    17   6    4.6485   408.4   10.042      40.987
2015   10        6    17  13    4.6553   408.6   10.064      41.078
2015   10        6    17  19    4.6621   408.8   10.086      41.175
2015   10        6    17  26    4.6687   409.0   10.108      41.276
2015   10        6    17  33    4.6752   409.3   10.130      41.383
2015   10        6    17  40    4.6816   409.5   10.152      41.492
2015   10        6    17  47    4.6879   409.8   10.172      41.604
2015   10        6    17  53    4.6941   410.0   10.192      41.717
2015   10        6    18   0    4.7001   410.3   10.212      41.831
2015   10        6    18   7    4.7059   410.5   10.229      41.947
2015   10        6    18  14    4.7117   410.8   10.246      42.064
2015   10        6    18  21    4.7173   411.0   10.262      42.181
2015   10        6    18  27    4.7227   411.3   10.276      42.298
2015   10        6    18  34    4.7279   411.6   10.289      42.412
2015   10        6    18  41    4.7331   411.8   10.301      42.524
2015   10        6    18  48    4.7381   412.1   10.312      42.633
2015   10        6    18  55    4.7429   412.4   10.322      42.741
2015   10        6    19   1    4.7476   412.6   10.331      42.846
2015   10        6    19   8    4.7523   412.9   10.340      42.950
2015   10        6    19  15    4.7568   413.2   10.347      43.051
2015   10        6    19  22    4.7612   413.4   10.354      43.152
2015   10        6    19  29    4.7656   413.7   10.360      43.250
2015   10        6    19  36    4.7699   414.0   10.366      43.348
2015   10        6    19  42    4.7742   414.2   10.371      43.445
2015   10        6    19  49    4.7784   414.5   10.376      43.541
2015   10        6    19  56    4.7826   414.8   10.380      43.635
2015   10        6    20   3    4.7868   415.0   10.384      43.730
2015   10        6    20  10    4.7910   415.3   10.389      43.823
2015   10        6    20  16    4.7953   415.6   10.393      43.916
2015   10        6    20  23    4.7995   415.8   10.397      44.010
2015   10        6    20  30    4.8039   416.1   10.401      44.104
2015   10        6    20  37    4.8083   416.4   10.405      44.199
2015   10        6    20  44    4.8129   416.7   10.409      44.294
2015   10        6    20  50    4.8175   416.9   10.414      44.391
2015   10        6    20  57    4.8223   417.2   10.418      44.490
2015   10        6    21   4    4.8271   417.5   10.422      44.591
2015   10        6    21  11    4.8321   417.8   10.427      44.696
2015   10        6    21  18    4.8372   418.1   10.430      44.802
2015   10        6    21  25    4.8423   418.5   10.434      44.912
2015   10        6    21  31    4.8474   418.8   10.436      45.023
2015   10        6    21  38    4.8525   419.1   10.438      45.134
2015   10        6    21  45    4.8574   419.5   10.440      45.242
2015   10        6    21  52    4.8623   419.8   10.440      45.348
2015   10        6    21  59    4.8668   420.2   10.440      45.450
2015   10        6    22   5    4.8713   420.5   10.438      45.551
2015   10        6    22  12    4.8755   420.8   10.436      45.648
2015   10        6    22  19    4.8796   421.2   10.434      45.744
2015   10        6    22  26    4.8836   421.5   10.430      45.835
2015   10        6    22  33    4.8874   421.9   10.426      45.925
2015   10        6    22  39    4.8910   422.2   10.422      46.011
2015   10        6    22  46    4.8945   422.5   10.417      46.096
2015   10        6    22  53    4.8980   422.9   10.412      46.178
2015   10        6    23   0    4.9013   423.2   10.407      46.258
2015   10        6    23   7    4.9045   423.5   10.401      46.337
2015   10        6    23  14    4.9076   423.8   10.396      46.414
2015   10        6    23  20    4.9107   424.1   10.390      46.490
2015   10        6    23  27    4.9136   424.5   10.385      46.566
2015   10        6    23  34    4.9166   424.8   10.380      46.640
2015   10        6    23  41    4.9195   425.1   10.374      46.715
2015   10        6    23  48    4.9223   425.4   10.369      46.789
2015   10        6    23  54    4.9251   425.7   10.364      46.864
2015   10        7     0   1    4.9278   426.0   10.359      46.938
