year    month   day   hour  minute  B_enl V_enl   n_enl       T_enl
[year] [month] [day] [hour][minute] [nT]  [km/s]  [cm-3]      [kK]
2015    9       17     0   2    4.1057   526.2    4.636      46.479
2015    9       17     0   8    4.1064   526.3    4.636      46.499
2015    9       17     0  14    4.1071   526.3    4.636      46.520
2015    9       17     0  20    4.1077   526.4    4.636      46.541
2015    9       17     0  27    4.1084   526.5    4.636      46.562
2015    9       17     0  33    4.1090   526.6    4.636      46.583
2015    9       17     0  39    4.1096   526.7    4.636      46.604
2015    9       17     0  45    4.1102   526.8    4.636      46.625
2015    9       17     0  52    4.1108   526.9    4.636      46.647
2015    9       17     0  58    4.1114   526.9    4.637      46.668
2015    9       17     1   4    4.1119   527.0    4.637      46.690
2015    9       17     1  10    4.1125   527.1    4.637      46.712
2015    9       17     1  16    4.1130   527.2    4.638      46.735
2015    9       17     1  23    4.1135   527.3    4.638      46.758
2015    9       17     1  29    4.1140   527.4    4.639      46.783
2015    9       17     1  35    4.1145   527.5    4.639      46.807
2015    9       17     1  41    4.1150   527.6    4.640      46.832
2015    9       17     1  48    4.1155   527.6    4.640      46.857
2015    9       17     1  54    4.1159   527.7    4.640      46.882
2015    9       17     2   0    4.1164   527.8    4.641      46.906
2015    9       17     2   6    4.1169   527.9    4.642      46.931
2015    9       17     2  13    4.1174   528.0    4.642      46.956
2015    9       17     2  19    4.1178   528.1    4.643      46.981
2015    9       17     2  25    4.1183   528.2    4.644      47.008
2015    9       17     2  31    4.1188   528.2    4.644      47.035
2015    9       17     2  38    4.1193   528.3    4.645      47.062
2015    9       17     2  44    4.1198   528.4    4.645      47.090
2015    9       17     2  50    4.1204   528.5    4.646      47.118
2015    9       17     2  56    4.1209   528.6    4.646      47.147
2015    9       17     3   2    4.1214   528.7    4.647      47.174
2015    9       17     3   9    4.1219   528.8    4.647      47.202
2015    9       17     3  15    4.1225   528.9    4.647      47.229
2015    9       17     3  21    4.1230   529.0    4.646      47.255
2015    9       17     3  27    4.1235   529.1    4.646      47.282
2015    9       17     3  34    4.1239   529.2    4.646      47.307
2015    9       17     3  40    4.1244   529.3    4.645      47.331
2015    9       17     3  46    4.1249   529.4    4.644      47.355
2015    9       17     3  52    4.1253   529.5    4.643      47.378
2015    9       17     3  59    4.1257   529.6    4.642      47.399
2015    9       17     4   5    4.1261   529.7    4.641      47.420
2015    9       17     4  11    4.1265   529.8    4.640      47.441
2015    9       17     4  17    4.1269   529.9    4.639      47.460
2015    9       17     4  24    4.1272   530.0    4.637      47.479
2015    9       17     4  30    4.1276   530.2    4.636      47.497
2015    9       17     4  36    4.1279   530.3    4.634      47.515
2015    9       17     4  42    4.1281   530.4    4.632      47.532
2015    9       17     4  48    4.1284   530.5    4.630      47.548
2015    9       17     4  55    4.1287   530.6    4.629      47.564
2015    9       17     5   1    4.1289   530.7    4.627      47.580
2015    9       17     5   7    4.1291   530.8    4.625      47.595
2015    9       17     5  13    4.1293   530.9    4.623      47.610
2015    9       17     5  20    4.1296   531.0    4.621      47.625
2015    9       17     5  26    4.1297   531.1    4.619      47.639
2015    9       17     5  32    4.1299   531.2    4.617      47.653
2015    9       17     5  38    4.1300   531.3    4.616      47.667
2015    9       17     5  44    4.1302   531.4    4.614      47.681
2015    9       17     5  51    4.1303   531.5    4.612      47.695
2015    9       17     5  57    4.1303   531.6    4.610      47.710
2015    9       17     6   3    4.1304   531.8    4.608      47.726
2015    9       17     6   9    4.1304   531.9    4.606      47.741
2015    9       17     6  16    4.1304   532.0    4.604      47.757
2015    9       17     6  22    4.1304   532.1    4.602      47.773
2015    9       17     6  28    4.1303   532.2    4.600      47.788
2015    9       17     6  34    4.1302   532.3    4.598      47.803
2015    9       17     6  41    4.1301   532.5    4.596      47.818
2015    9       17     6  47    4.1299   532.6    4.593      47.833
2015    9       17     6  53    4.1298   532.7    4.591      47.848
2015    9       17     6  59    4.1296   532.8    4.589      47.862
2015    9       17     7   6    4.1294   532.9    4.587      47.877
2015    9       17     7  12    4.1292   533.0    4.585      47.891
2015    9       17     7  18    4.1289   533.2    4.582      47.905
2015    9       17     7  24    4.1286   533.3    4.580      47.919
2015    9       17     7  30    4.1283   533.4    4.578      47.933
2015    9       17     7  37    4.1280   533.5    4.576      47.947
2015    9       17     7  43    4.1276   533.6    4.574      47.961
2015    9       17     7  49    4.1273   533.7    4.572      47.975
2015    9       17     7  55    4.1268   533.9    4.570      47.989
2015    9       17     8   2    4.1264   534.0    4.568      48.003
2015    9       17     8   8    4.1259   534.1    4.566      48.016
2015    9       17     8  14    4.1254   534.2    4.564      48.030
2015    9       17     8  20    4.1249   534.3    4.562      48.044
2015    9       17     8  27    4.1243   534.5    4.560      48.059
2015    9       17     8  33    4.1238   534.6    4.558      48.074
2015    9       17     8  39    4.1232   534.7    4.556      48.091
2015    9       17     8  45    4.1226   534.8    4.554      48.107
2015    9       17     8  51    4.1220   534.9    4.552      48.124
2015    9       17     8  58    4.1213   535.0    4.550      48.142
2015    9       17     9   4    4.1207   535.1    4.548      48.159
2015    9       17     9  10    4.1200   535.3    4.546      48.175
2015    9       17     9  16    4.1193   535.4    4.543      48.192
2015    9       17     9  23    4.1186   535.5    4.541      48.208
2015    9       17     9  29    4.1180   535.6    4.539      48.224
2015    9       17     9  35    4.1173   535.7    4.537      48.240
2015    9       17     9  41    4.1166   535.8    4.534      48.255
2015    9       17     9  48    4.1159   535.9    4.532      48.270
2015    9       17     9  54    4.1152   536.0    4.530      48.286
2015    9       17    10   0    4.1145   536.1    4.528      48.301
2015    9       17    10   6    4.1139   536.2    4.525      48.316
2015    9       17    10  13    4.1132   536.3    4.523      48.331
2015    9       17    10  19    4.1125   536.4    4.521      48.346
2015    9       17    10  25    4.1119   536.5    4.519      48.361
2015    9       17    10  31    4.1112   536.6    4.516      48.377
2015    9       17    10  38    4.1105   536.7    4.514      48.392
2015    9       17    10  44    4.1098   536.8    4.511      48.407
2015    9       17    10  50    4.1090   536.9    4.509      48.421
2015    9       17    10  56    4.1083   537.0    4.506      48.434
2015    9       17    11   2    4.1076   537.1    4.503      48.447
2015    9       17    11   9    4.1068   537.3    4.501      48.458
2015    9       17    11  15    4.1059   537.4    4.498      48.469
2015    9       17    11  21    4.1051   537.5    4.495      48.480
2015    9       17    11  27    4.1042   537.6    4.492      48.489
2015    9       17    11  34    4.1033   537.7    4.488      48.498
2015    9       17    11  40    4.1023   537.8    4.485      48.506
2015    9       17    11  46    4.1013   537.9    4.482      48.514
2015    9       17    11  52    4.1002   538.0    4.478      48.520
2015    9       17    11  59    4.0991   538.1    4.475      48.527
2015    9       17    12   5    4.0980   538.2    4.471      48.532
2015    9       17    12  11    4.0968   538.3    4.468      48.538
2015    9       17    12  17    4.0956   538.3    4.464      48.542
2015    9       17    12  23    4.0944   538.4    4.461      48.546
2015    9       17    12  30    4.0931   538.5    4.457      48.550
2015    9       17    12  36    4.0918   538.6    4.453      48.553
2015    9       17    12  42    4.0905   538.7    4.449      48.555
2015    9       17    12  48    4.0891   538.8    4.445      48.557
2015    9       17    12  55    4.0877   538.9    4.442      48.559
2015    9       17    13   1    4.0862   539.0    4.438      48.560
2015    9       17    13   7    4.0847   539.1    4.434      48.561
2015    9       17    13  13    4.0832   539.2    4.430      48.562
2015    9       17    13  20    4.0817   539.3    4.426      48.562
2015    9       17    13  26    4.0801   539.4    4.421      48.561
2015    9       17    13  32    4.0785   539.5    4.417      48.561
2015    9       17    13  38    4.0769   539.6    4.413      48.560
2015    9       17    13  44    4.0752   539.7    4.409      48.558
2015    9       17    13  51    4.0736   539.8    4.405      48.556
2015    9       17    13  57    4.0718   539.9    4.401      48.554
2015    9       17    14   3    4.0701   540.0    4.396      48.552
2015    9       17    14   9    4.0683   540.1    4.392      48.549
2015    9       17    14  16    4.0666   540.1    4.388      48.545
2015    9       17    14  22    4.0648   540.2    4.384      48.542
2015    9       17    14  28    4.0630   540.3    4.379      48.538
2015    9       17    14  34    4.0611   540.4    4.375      48.534
2015    9       17    14  41    4.0592   540.5    4.371      48.529
2015    9       17    14  47    4.0574   540.6    4.366      48.524
2015    9       17    14  53    4.0555   540.7    4.362      48.519
2015    9       17    14  59    4.0536   540.7    4.358      48.514
2015    9       17    15   5    4.0516   540.8    4.353      48.508
2015    9       17    15  12    4.0497   540.9    4.349      48.502
2015    9       17    15  18    4.0477   541.0    4.345      48.496
2015    9       17    15  24    4.0457   541.1    4.340      48.490
2015    9       17    15  30    4.0438   541.2    4.336      48.483
2015    9       17    15  37    4.0418   541.2    4.331      48.477
2015    9       17    15  43    4.0397   541.3    4.327      48.470
2015    9       17    15  49    4.0377   541.4    4.323      48.463
2015    9       17    15  55    4.0357   541.5    4.318      48.456
2015    9       17    16   2    4.0336   541.5    4.314      48.449
2015    9       17    16   8    4.0316   541.6    4.310      48.442
2015    9       17    16  14    4.0295   541.7    4.306      48.434
2015    9       17    16  20    4.0275   541.7    4.301      48.427
2015    9       17    16  27    4.0254   541.8    4.297      48.419
2015    9       17    16  33    4.0233   541.9    4.293      48.411
2015    9       17    16  39    4.0213   541.9    4.289      48.403
2015    9       17    16  45    4.0192   542.0    4.285      48.395
2015    9       17    16  51    4.0171   542.1    4.281      48.387
2015    9       17    16  58    4.0150   542.1    4.277      48.378
2015    9       17    17   4    4.0129   542.2    4.273      48.370
2015    9       17    17  10    4.0108   542.2    4.269      48.361
2015    9       17    17  16    4.0087   542.3    4.265      48.353
2015    9       17    17  23    4.0066   542.3    4.261      48.344
2015    9       17    17  29    4.0044   542.4    4.257      48.335
2015    9       17    17  35    4.0023   542.4    4.253      48.326
2015    9       17    17  41    4.0002   542.5    4.250      48.317
2015    9       17    17  48    3.9981   542.5    4.246      48.308
2015    9       17    17  54    3.9959   542.6    4.242      48.299
2015    9       17    18   0    3.9938   542.6    4.238      48.289
2015    9       17    18   6    3.9916   542.7    4.234      48.279
2015    9       17    18  13    3.9895   542.7    4.230      48.269
2015    9       17    18  19    3.9873   542.7    4.226      48.258
2015    9       17    18  25    3.9851   542.8    4.223      48.247
2015    9       17    18  31    3.9829   542.8    4.219      48.235
2015    9       17    18  37    3.9807   542.8    4.215      48.223
2015    9       17    18  44    3.9785   542.9    4.211      48.211
2015    9       17    18  50    3.9762   542.9    4.207      48.199
2015    9       17    18  56    3.9740   542.9    4.204      48.185
2015    9       17    19   2    3.9717   543.0    4.200      48.172
2015    9       17    19   9    3.9694   543.0    4.196      48.159
2015    9       17    19  15    3.9671   543.0    4.193      48.145
2015    9       17    19  21    3.9648   543.0    4.189      48.131
2015    9       17    19  27    3.9625   543.1    4.185      48.116
2015    9       17    19  34    3.9601   543.1    4.182      48.102
2015    9       17    19  40    3.9577   543.1    4.178      48.087
2015    9       17    19  46    3.9554   543.1    4.175      48.072
2015    9       17    19  52    3.9530   543.1    4.171      48.057
2015    9       17    19  58    3.9506   543.2    4.168      48.041
2015    9       17    20   5    3.9482   543.2    4.165      48.026
2015    9       17    20  11    3.9457   543.2    4.162      48.011
2015    9       17    20  17    3.9433   543.2    4.158      47.995
2015    9       17    20  23    3.9409   543.2    4.155      47.980
2015    9       17    20  30    3.9384   543.2    4.152      47.964
2015    9       17    20  36    3.9360   543.2    4.149      47.949
2015    9       17    20  42    3.9335   543.3    4.146      47.934
2015    9       17    20  48    3.9311   543.3    4.143      47.918
2015    9       17    20  55    3.9286   543.3    4.141      47.904
2015    9       17    21   1    3.9261   543.3    4.138      47.889
2015    9       17    21   7    3.9237   543.3    4.135      47.875
2015    9       17    21  13    3.9212   543.3    4.132      47.861
2015    9       17    21  19    3.9187   543.3    4.130      47.847
2015    9       17    21  26    3.9162   543.3    4.127      47.833
2015    9       17    21  32    3.9138   543.3    4.124      47.819
2015    9       17    21  38    3.9113   543.3    4.121      47.805
2015    9       17    21  44    3.9088   543.3    4.119      47.790
2015    9       17    21  51    3.9063   543.3    4.116      47.776
2015    9       17    21  57    3.9038   543.3    4.113      47.761
2015    9       17    22   3    3.9013   543.3    4.111      47.746
2015    9       17    22   9    3.8988   543.3    4.108      47.732
2015    9       17    22  16    3.8964   543.3    4.105      47.718
2015    9       17    22  22    3.8939   543.3    4.102      47.704
2015    9       17    22  28    3.8914   543.3    4.099      47.689
2015    9       17    22  34    3.8890   543.3    4.096      47.675
2015    9       17    22  41    3.8865   543.3    4.093      47.660
2015    9       17    22  47    3.8840   543.3    4.090      47.645
2015    9       17    22  53    3.8816   543.3    4.087      47.629
2015    9       17    22  59    3.8791   543.3    4.084      47.612
2015    9       17    23   5    3.8766   543.3    4.081      47.595
2015    9       17    23  12    3.8741   543.3    4.078      47.578
2015    9       17    23  18    3.8716   543.3    4.075      47.561
2015    9       17    23  24    3.8691   543.3    4.071      47.543
2015    9       17    23  30    3.8666   543.3    4.068      47.524
2015    9       17    23  37    3.8641   543.3    4.065      47.506
2015    9       17    23  43    3.8616   543.3    4.062      47.486
2015    9       17    23  49    3.8591   543.3    4.059      47.467
2015    9       17    23  55    3.8566   543.3    4.055      47.448
2015    9       18     0   2    3.8542   543.2    4.052      47.428
2015    9       18     0   8    3.8519   543.2    4.049      47.410
2015    9       18     0  14    3.8496   543.2    4.046      47.391
2015    9       18     0  20    3.8474   543.2    4.043      47.372
2015    9       18     0  27    3.8451   543.2    4.040      47.353
2015    9       18     0  33    3.8428   543.2    4.037      47.334
2015    9       18     0  39    3.8405   543.2    4.034      47.314
2015    9       18     0  45    3.8382   543.2    4.031      47.295
2015    9       18     0  51    3.8360   543.2    4.028      47.275
2015    9       18     0  58    3.8337   543.1    4.025      47.255
2015    9       18     1   4    3.8315   543.1    4.023      47.235
2015    9       18     1  10    3.8292   543.1    4.020      47.215
2015    9       18     1  16    3.8270   543.1    4.017      47.195
2015    9       18     1  23    3.8247   543.1    4.014      47.175
2015    9       18     1  29    3.8225   543.1    4.011      47.154
2015    9       18     1  35    3.8202   543.0    4.008      47.134
2015    9       18     1  41    3.8180   543.0    4.006      47.114
2015    9       18     1  48    3.8158   543.0    4.003      47.093
2015    9       18     1  54    3.8136   543.0    4.000      47.073
2015    9       18     2   0    3.8114   543.0    3.997      47.053
2015    9       18     2   6    3.8092   542.9    3.995      47.033
2015    9       18     2  13    3.8070   542.9    3.992      47.012
2015    9       18     2  19    3.8048   542.9    3.990      46.992
2015    9       18     2  25    3.8026   542.9    3.987      46.972
2015    9       18     2  31    3.8004   542.8    3.985      46.952
2015    9       18     2  37    3.7982   542.8    3.983      46.932
2015    9       18     2  44    3.7960   542.8    3.981      46.912
2015    9       18     2  50    3.7938   542.7    3.979      46.892
2015    9       18     2  56    3.7916   542.7    3.977      46.873
2015    9       18     3   2    3.7894   542.7    3.975      46.853
2015    9       18     3   9    3.7872   542.6    3.973      46.834
2015    9       18     3  15    3.7850   542.6    3.971      46.814
2015    9       18     3  21    3.7828   542.6    3.969      46.795
2015    9       18     3  27    3.7805   542.5    3.968      46.776
2015    9       18     3  33    3.7783   542.5    3.966      46.757
2015    9       18     3  40    3.7761   542.5    3.965      46.739
2015    9       18     3  46    3.7738   542.4    3.963      46.721
2015    9       18     3  52    3.7716   542.4    3.962      46.702
2015    9       18     3  58    3.7694   542.4    3.961      46.685
2015    9       18     4   5    3.7671   542.3    3.960      46.667
2015    9       18     4  11    3.7649   542.3    3.959      46.651
2015    9       18     4  17    3.7626   542.2    3.958      46.634
2015    9       18     4  23    3.7603   542.2    3.957      46.618
2015    9       18     4  30    3.7581   542.1    3.956      46.603
2015    9       18     4  36    3.7558   542.1    3.955      46.587
2015    9       18     4  42    3.7535   542.1    3.954      46.571
2015    9       18     4  48    3.7512   542.0    3.953      46.556
2015    9       18     4  54    3.7489   542.0    3.952      46.540
2015    9       18     5   1    3.7467   541.9    3.951      46.524
2015    9       18     5   7    3.7444   541.9    3.950      46.508
2015    9       18     5  13    3.7421   541.8    3.950      46.493
2015    9       18     5  19    3.7398   541.8    3.949      46.478
2015    9       18     5  26    3.7375   541.7    3.948      46.463
2015    9       18     5  32    3.7352   541.7    3.946      46.447
2015    9       18     5  38    3.7330   541.6    3.945      46.432
2015    9       18     5  44    3.7307   541.6    3.944      46.417
2015    9       18     5  51    3.7284   541.5    3.943      46.401
2015    9       18     5  57    3.7261   541.5    3.942      46.384
2015    9       18     6   3    3.7238   541.4    3.941      46.367
2015    9       18     6   9    3.7215   541.4    3.939      46.350
2015    9       18     6  16    3.7192   541.3    3.938      46.333
2015    9       18     6  22    3.7168   541.3    3.936      46.315
2015    9       18     6  28    3.7145   541.2    3.935      46.297
2015    9       18     6  34    3.7122   541.1    3.934      46.278
2015    9       18     6  40    3.7099   541.1    3.932      46.260
2015    9       18     6  47    3.7075   541.0    3.931      46.240
2015    9       18     6  53    3.7052   541.0    3.929      46.221
2015    9       18     6  59    3.7029   540.9    3.927      46.201
2015    9       18     7   5    3.7006   540.9    3.926      46.181
2015    9       18     7  12    3.6982   540.8    3.924      46.161
2015    9       18     7  18    3.6959   540.8    3.922      46.141
2015    9       18     7  24    3.6936   540.7    3.921      46.120
2015    9       18     7  30    3.6913   540.6    3.919      46.098
2015    9       18     7  37    3.6889   540.6    3.917      46.077
2015    9       18     7  43    3.6866   540.5    3.915      46.055
2015    9       18     7  49    3.6843   540.5    3.913      46.032
2015    9       18     7  55    3.6820   540.4    3.911      46.010
2015    9       18     8   2    3.6797   540.3    3.909      45.987
2015    9       18     8   8    3.6774   540.3    3.907      45.964
2015    9       18     8  14    3.6751   540.2    3.905      45.940
2015    9       18     8  20    3.6728   540.2    3.903      45.916
2015    9       18     8  27    3.6706   540.1    3.901      45.892
2015    9       18     8  33    3.6683   540.0    3.899      45.867
2015    9       18     8  39    3.6660   540.0    3.897      45.843
2015    9       18     8  45    3.6638   539.9    3.895      45.818
2015    9       18     8  51    3.6615   539.9    3.893      45.793
2015    9       18     8  58    3.6593   539.8    3.891      45.768
2015    9       18     9   4    3.6570   539.7    3.889      45.743
2015    9       18     9  10    3.6548   539.7    3.887      45.717
2015    9       18     9  16    3.6526   539.6    3.885      45.692
2015    9       18     9  23    3.6503   539.5    3.883      45.666
2015    9       18     9  29    3.6481   539.5    3.880      45.641
2015    9       18     9  35    3.6458   539.4    3.878      45.615
2015    9       18     9  41    3.6436   539.4    3.876      45.589
2015    9       18     9  48    3.6413   539.3    3.874      45.563
2015    9       18     9  54    3.6391   539.2    3.872      45.537
2015    9       18    10   0    3.6368   539.2    3.870      45.511
2015    9       18    10   6    3.6345   539.1    3.868      45.485
2015    9       18    10  12    3.6322   539.0    3.866      45.458
2015    9       18    10  19    3.6299   539.0    3.864      45.432
2015    9       18    10  25    3.6276   538.9    3.862      45.405
2015    9       18    10  31    3.6252   538.9    3.860      45.379
2015    9       18    10  37    3.6229   538.8    3.858      45.352
2015    9       18    10  44    3.6205   538.7    3.856      45.325
2015    9       18    10  50    3.6181   538.7    3.854      45.298
2015    9       18    10  56    3.6157   538.6    3.852      45.271
2015    9       18    11   2    3.6133   538.5    3.850      45.244
2015    9       18    11   9    3.6109   538.5    3.849      45.216
2015    9       18    11  15    3.6085   538.4    3.847      45.188
2015    9       18    11  21    3.6060   538.3    3.845      45.161
2015    9       18    11  27    3.6036   538.3    3.843      45.133
2015    9       18    11  33    3.6011   538.2    3.841      45.105
2015    9       18    11  40    3.5987   538.1    3.840      45.077
2015    9       18    11  46    3.5962   538.0    3.838      45.048
2015    9       18    11  52    3.5937   538.0    3.837      45.020
2015    9       18    11  58    3.5912   537.9    3.835      44.992
2015    9       18    12   5    3.5887   537.8    3.833      44.963
2015    9       18    12  11    3.5862   537.7    3.832      44.935
2015    9       18    12  17    3.5837   537.6    3.831      44.906
2015    9       18    12  23    3.5812   537.5    3.829      44.878
2015    9       18    12  29    3.5787   537.5    3.828      44.849
2015    9       18    12  36    3.5762   537.4    3.827      44.821
2015    9       18    12  42    3.5737   537.3    3.825      44.793
2015    9       18    12  48    3.5712   537.2    3.824      44.765
2015    9       18    12  54    3.5687   537.1    3.823      44.737
2015    9       18    13   1    3.5662   537.0    3.822      44.710
2015    9       18    13   7    3.5637   536.9    3.821      44.682
2015    9       18    13  13    3.5612   536.8    3.820      44.655
2015    9       18    13  19    3.5587   536.7    3.819      44.628
2015    9       18    13  26    3.5563   536.6    3.818      44.601
2015    9       18    13  32    3.5538   536.5    3.817      44.574
2015    9       18    13  38    3.5514   536.4    3.816      44.548
2015    9       18    13  44    3.5490   536.3    3.815      44.521
2015    9       18    13  50    3.5465   536.2    3.815      44.495
2015    9       18    13  57    3.5441   536.1    3.814      44.469
2015    9       18    14   3    3.5417   536.0    3.813      44.442
2015    9       18    14   9    3.5394   535.9    3.812      44.416
2015    9       18    14  15    3.5370   535.8    3.811      44.389
2015    9       18    14  22    3.5346   535.7    3.811      44.362
2015    9       18    14  28    3.5322   535.6    3.810      44.335
2015    9       18    14  34    3.5299   535.5    3.809      44.308
2015    9       18    14  40    3.5276   535.4    3.808      44.280
2015    9       18    14  47    3.5252   535.3    3.807      44.252
2015    9       18    14  53    3.5229   535.2    3.806      44.224
2015    9       18    14  59    3.5206   535.0    3.805      44.195
2015    9       18    15   5    3.5183   534.9    3.804      44.166
2015    9       18    15  11    3.5160   534.8    3.803      44.137
2015    9       18    15  18    3.5137   534.7    3.802      44.106
2015    9       18    15  24    3.5115   534.6    3.801      44.076
2015    9       18    15  30    3.5092   534.5    3.800      44.045
2015    9       18    15  36    3.5070   534.3    3.799      44.013
2015    9       18    15  42    3.5047   534.2    3.798      43.981
2015    9       18    15  49    3.5025   534.1    3.796      43.949
2015    9       18    15  55    3.5003   534.0    3.795      43.916
2015    9       18    16   1    3.4981   533.9    3.794      43.882
2015    9       18    16   7    3.4959   533.7    3.793      43.848
2015    9       18    16  14    3.4937   533.6    3.791      43.814
2015    9       18    16  20    3.4915   533.5    3.790      43.779
2015    9       18    16  26    3.4893   533.4    3.788      43.744
2015    9       18    16  32    3.4871   533.2    3.787      43.708
2015    9       18    16  39    3.4849   533.1    3.786      43.672
2015    9       18    16  45    3.4827   533.0    3.784      43.635
2015    9       18    16  51    3.4805   532.9    3.783      43.598
2015    9       18    16  57    3.4783   532.7    3.781      43.561
2015    9       18    17   3    3.4761   532.6    3.780      43.524
2015    9       18    17  10    3.4739   532.5    3.778      43.486
2015    9       18    17  16    3.4717   532.4    3.777      43.447
2015    9       18    17  22    3.4694   532.2    3.775      43.409
2015    9       18    17  28    3.4672   532.1    3.773      43.370
2015    9       18    17  35    3.4650   532.0    3.772      43.331
2015    9       18    17  41    3.4627   531.8    3.770      43.291
2015    9       18    17  47    3.4604   531.7    3.769      43.252
2015    9       18    17  53    3.4582   531.6    3.767      43.212
2015    9       18    18   0    3.4559   531.4    3.765      43.171
2015    9       18    18   6    3.4537   531.3    3.764      43.131
2015    9       18    18  12    3.4514   531.2    3.762      43.090
2015    9       18    18  18    3.4491   531.0    3.761      43.049
2015    9       18    18  25    3.4468   530.9    3.759      43.008
2015    9       18    18  31    3.4445   530.8    3.757      42.967
2015    9       18    18  37    3.4422   530.6    3.756      42.926
2015    9       18    18  43    3.4399   530.5    3.754      42.884
2015    9       18    18  50    3.4376   530.3    3.753      42.843
2015    9       18    18  56    3.4353   530.2    3.751      42.801
2015    9       18    19   2    3.4330   530.1    3.750      42.760
2015    9       18    19   8    3.4307   529.9    3.749      42.719
2015    9       18    19  15    3.4284   529.8    3.747      42.678
2015    9       18    19  21    3.4261   529.6    3.746      42.636
2015    9       18    19  27    3.4239   529.5    3.745      42.596
2015    9       18    19  33    3.4216   529.3    3.744      42.555
2015    9       18    19  40    3.4193   529.2    3.743      42.514
2015    9       18    19  46    3.4171   529.0    3.742      42.474
2015    9       18    19  52    3.4149   528.9    3.741      42.435
2015    9       18    19  58    3.4126   528.8    3.740      42.395
2015    9       18    20   5    3.4104   528.6    3.739      42.356
2015    9       18    20  11    3.4082   528.5    3.738      42.317
2015    9       18    20  17    3.4060   528.3    3.738      42.279
2015    9       18    20  23    3.4039   528.2    3.737      42.240
2015    9       18    20  30    3.4017   528.0    3.736      42.202
2015    9       18    20  36    3.3996   527.9    3.736      42.165
2015    9       18    20  42    3.3974   527.7    3.735      42.127
2015    9       18    20  48    3.3953   527.5    3.735      42.090
2015    9       18    20  55    3.3931   527.4    3.735      42.052
2015    9       18    21   1    3.3910   527.2    3.734      42.015
2015    9       18    21   7    3.3889   527.1    3.734      41.977
2015    9       18    21  13    3.3868   526.9    3.733      41.940
2015    9       18    21  20    3.3847   526.8    3.733      41.903
2015    9       18    21  26    3.3826   526.6    3.733      41.866
2015    9       18    21  32    3.3805   526.5    3.732      41.828
2015    9       18    21  38    3.3785   526.3    3.732      41.791
2015    9       18    21  45    3.3764   526.1    3.732      41.753
2015    9       18    21  51    3.3743   526.0    3.732      41.716
2015    9       18    21  57    3.3723   525.8    3.731      41.678
2015    9       18    22   4    3.3702   525.6    3.731      41.641
2015    9       18    22  10    3.3682   525.5    3.731      41.602
2015    9       18    22  16    3.3662   525.3    3.731      41.565
2015    9       18    22  22    3.3641   525.1    3.731      41.527
2015    9       18    22  29    3.3621   525.0    3.730      41.489
2015    9       18    22  35    3.3601   524.8    3.730      41.450
2015    9       18    22  41    3.3582   524.6    3.730      41.412
2015    9       18    22  47    3.3562   524.5    3.730      41.373
2015    9       18    22  54    3.3542   524.3    3.730      41.335
2015    9       18    23   0    3.3523   524.1    3.730      41.296
2015    9       18    23   6    3.3503   523.9    3.730      41.257
2015    9       18    23  12    3.3484   523.8    3.730      41.218
2015    9       18    23  19    3.3465   523.6    3.730      41.179
2015    9       18    23  25    3.3446   523.4    3.730      41.140
2015    9       18    23  31    3.3428   523.2    3.730      41.101
2015    9       18    23  37    3.3409   523.1    3.731      41.061
2015    9       18    23  44    3.3390   522.9    3.731      41.021
2015    9       18    23  50    3.3372   522.7    3.731      40.981
2015    9       18    23  56    3.3353   522.5    3.731      40.941
2015    9       19     0   2    3.3334   522.4    3.731      40.900
2015    9       19     0   9    3.3313   522.2    3.731      40.859
2015    9       19     0  15    3.3293   522.0    3.731      40.818
2015    9       19     0  21    3.3272   521.8    3.731      40.776
2015    9       19     0  27    3.3252   521.7    3.731      40.734
2015    9       19     0  34    3.3231   521.5    3.731      40.691
2015    9       19     0  40    3.3211   521.3    3.730      40.649
2015    9       19     0  46    3.3190   521.1    3.730      40.606
2015    9       19     0  52    3.3170   520.9    3.730      40.562
2015    9       19     0  59    3.3149   520.7    3.730      40.519
2015    9       19     1   5    3.3129   520.6    3.730      40.474
2015    9       19     1  11    3.3109   520.4    3.729      40.430
2015    9       19     1  17    3.3089   520.2    3.729      40.385
2015    9       19     1  24    3.3069   520.0    3.729      40.340
2015    9       19     1  30    3.3049   519.8    3.728      40.295
2015    9       19     1  36    3.3029   519.6    3.728      40.249
2015    9       19     1  42    3.3009   519.4    3.727      40.204
2015    9       19     1  49    3.2989   519.2    3.727      40.158
2015    9       19     1  55    3.2970   519.0    3.726      40.112
2015    9       19     2   1    3.2950   518.8    3.726      40.066
2015    9       19     2   7    3.2931   518.6    3.725      40.020
2015    9       19     2  14    3.2912   518.4    3.725      39.974
2015    9       19     2  20    3.2893   518.2    3.724      39.928
2015    9       19     2  26    3.2873   518.0    3.724      39.882
2015    9       19     2  32    3.2855   517.8    3.723      39.836
2015    9       19     2  39    3.2836   517.6    3.722      39.790
2015    9       19     2  45    3.2817   517.4    3.722      39.744
2015    9       19     2  51    3.2799   517.2    3.721      39.698
2015    9       19     2  57    3.2780   517.0    3.721      39.652
2015    9       19     3   4    3.2762   516.8    3.720      39.605
2015    9       19     3  10    3.2744   516.6    3.719      39.559
2015    9       19     3  16    3.2726   516.4    3.719      39.513
2015    9       19     3  22    3.2708   516.2    3.718      39.467
2015    9       19     3  29    3.2690   516.0    3.718      39.420
2015    9       19     3  35    3.2672   515.8    3.717      39.373
2015    9       19     3  41    3.2655   515.6    3.716      39.327
2015    9       19     3  47    3.2637   515.4    3.716      39.280
2015    9       19     3  54    3.2620   515.2    3.715      39.233
2015    9       19     4   0    3.2602   515.0    3.714      39.186
2015    9       19     4   6    3.2585   514.8    3.713      39.139
2015    9       19     4  12    3.2568   514.6    3.713      39.091
2015    9       19     4  19    3.2551   514.4    3.712      39.044
2015    9       19     4  25    3.2533   514.2    3.711      38.996
2015    9       19     4  31    3.2516   514.0    3.711      38.949
2015    9       19     4  37    3.2499   513.7    3.710      38.901
2015    9       19     4  44    3.2482   513.5    3.709      38.853
2015    9       19     4  50    3.2465   513.3    3.708      38.805
2015    9       19     4  56    3.2448   513.1    3.708      38.756
2015    9       19     5   2    3.2431   512.9    3.707      38.708
2015    9       19     5   9    3.2413   512.7    3.706      38.660
2015    9       19     5  15    3.2396   512.5    3.706      38.611
2015    9       19     5  21    3.2379   512.2    3.705      38.563
2015    9       19     5  27    3.2362   512.0    3.704      38.514
2015    9       19     5  34    3.2346   511.8    3.704      38.465
2015    9       19     5  40    3.2329   511.6    3.703      38.417
2015    9       19     5  46    3.2312   511.4    3.703      38.369
2015    9       19     5  52    3.2295   511.1    3.703      38.320
2015    9       19     5  59    3.2279   510.9    3.702      38.272
2015    9       19     6   5    3.2262   510.7    3.702      38.224
2015    9       19     6  11    3.2246   510.4    3.702      38.176
2015    9       19     6  17    3.2230   510.2    3.702      38.129
2015    9       19     6  24    3.2214   510.0    3.702      38.082
2015    9       19     6  30    3.2198   509.7    3.702      38.035
2015    9       19     6  36    3.2183   509.5    3.702      37.989
2015    9       19     6  42    3.2168   509.3    3.703      37.943
2015    9       19     6  49    3.2153   509.0    3.703      37.897
2015    9       19     6  55    3.2138   508.8    3.704      37.852
2015    9       19     7   1    3.2123   508.6    3.705      37.808
2015    9       19     7   7    3.2109   508.3    3.706      37.764
2015    9       19     7  14    3.2095   508.1    3.707      37.720
2015    9       19     7  20    3.2082   507.8    3.708      37.677
2015    9       19     7  26    3.2068   507.6    3.709      37.635
2015    9       19     7  32    3.2055   507.4    3.711      37.593
2015    9       19     7  39    3.2042   507.1    3.712      37.552
2015    9       19     7  45    3.2030   506.9    3.714      37.511
2015    9       19     7  51    3.2018   506.6    3.716      37.470
2015    9       19     7  57    3.2005   506.4    3.718      37.430
2015    9       19     8   4    3.1994   506.2    3.720      37.390
2015    9       19     8  10    3.1982   505.9    3.722      37.351
2015    9       19     8  16    3.1971   505.7    3.725      37.312
2015    9       19     8  22    3.1959   505.4    3.727      37.273
2015    9       19     8  29    3.1948   505.2    3.729      37.234
2015    9       19     8  35    3.1938   504.9    3.732      37.195
2015    9       19     8  41    3.1927   504.7    3.734      37.156
2015    9       19     8  47    3.1916   504.4    3.737      37.117
2015    9       19     8  54    3.1906   504.2    3.739      37.079
2015    9       19     9   0    3.1896   503.9    3.742      37.040
2015    9       19     9   6    3.1885   503.7    3.744      37.002
2015    9       19     9  12    3.1875   503.4    3.747      36.963
2015    9       19     9  19    3.1865   503.2    3.749      36.924
2015    9       19     9  25    3.1855   502.9    3.752      36.885
2015    9       19     9  31    3.1845   502.7    3.754      36.846
2015    9       19     9  37    3.1835   502.4    3.757      36.807
2015    9       19     9  44    3.1825   502.1    3.759      36.768
2015    9       19     9  50    3.1815   501.9    3.761      36.729
2015    9       19     9  56    3.1806   501.6    3.764      36.689
2015    9       19    10   2    3.1796   501.3    3.766      36.649
2015    9       19    10   9    3.1787   501.1    3.768      36.609
2015    9       19    10  15    3.1778   500.8    3.770      36.569
2015    9       19    10  21    3.1769   500.5    3.772      36.529
2015    9       19    10  27    3.1761   500.3    3.774      36.488
2015    9       19    10  34    3.1752   500.0    3.776      36.448
2015    9       19    10  40    3.1744   499.7    3.778      36.407
2015    9       19    10  46    3.1736   499.4    3.780      36.366
2015    9       19    10  52    3.1729   499.2    3.782      36.325
2015    9       19    10  59    3.1722   498.9    3.784      36.284
2015    9       19    11   5    3.1715   498.6    3.786      36.242
2015    9       19    11  11    3.1708   498.4    3.788      36.201
2015    9       19    11  17    3.1702   498.1    3.790      36.160
2015    9       19    11  24    3.1696   497.8    3.792      36.118
2015    9       19    11  30    3.1691   497.5    3.794      36.077
2015    9       19    11  36    3.1685   497.2    3.796      36.035
2015    9       19    11  42    3.1680   497.0    3.798      35.994
2015    9       19    11  49    3.1675   496.7    3.800      35.952
2015    9       19    11  55    3.1671   496.4    3.802      35.910
2015    9       19    12   1    3.1667   496.1    3.804      35.869
2015    9       19    12   7    3.1663   495.8    3.806      35.827
2015    9       19    12  14    3.1659   495.5    3.808      35.785
2015    9       19    12  20    3.1656   495.3    3.809      35.743
2015    9       19    12  26    3.1653   495.0    3.811      35.701
2015    9       19    12  32    3.1650   494.7    3.814      35.659
2015    9       19    12  39    3.1648   494.4    3.816      35.617
2015    9       19    12  45    3.1646   494.1    3.818      35.575
2015    9       19    12  51    3.1643   493.8    3.820      35.533
2015    9       19    12  57    3.1642   493.5    3.822      35.491
2015    9       19    13   4    3.1641   493.2    3.824      35.449
2015    9       19    13  10    3.1640   492.9    3.827      35.407
2015    9       19    13  16    3.1639   492.6    3.829      35.366
2015    9       19    13  22    3.1639   492.3    3.832      35.324
2015    9       19    13  29    3.1639   492.0    3.834      35.283
2015    9       19    13  35    3.1639   491.7    3.837      35.242
2015    9       19    13  41    3.1640   491.4    3.840      35.201
2015    9       19    13  47    3.1641   491.1    3.843      35.161
2015    9       19    13  53    3.1643   490.8    3.846      35.121
2015    9       19    14   0    3.1645   490.5    3.849      35.081
2015    9       19    14   6    3.1647   490.2    3.852      35.042
2015    9       19    14  12    3.1650   489.9    3.856      35.004
2015    9       19    14  18    3.1654   489.5    3.860      34.966
2015    9       19    14  25    3.1658   489.2    3.864      34.929
2015    9       19    14  31    3.1662   488.9    3.868      34.892
2015    9       19    14  37    3.1667   488.6    3.872      34.856
2015    9       19    14  43    3.1673   488.3    3.876      34.821
2015    9       19    14  50    3.1679   488.0    3.881      34.787
2015    9       19    14  56    3.1685   487.7    3.886      34.753
2015    9       19    15   2    3.1692   487.4    3.891      34.721
2015    9       19    15   8    3.1700   487.1    3.896      34.689
2015    9       19    15  15    3.1708   486.8    3.901      34.657
2015    9       19    15  21    3.1717   486.5    3.907      34.627
2015    9       19    15  27    3.1726   486.2    3.913      34.597
2015    9       19    15  33    3.1736   485.8    3.919      34.569
2015    9       19    15  40    3.1746   485.5    3.925      34.540
2015    9       19    15  46    3.1757   485.2    3.931      34.513
2015    9       19    15  52    3.1768   484.9    3.938      34.486
2015    9       19    15  58    3.1780   484.6    3.944      34.459
2015    9       19    16   5    3.1792   484.3    3.951      34.434
2015    9       19    16  11    3.1804   484.0    3.958      34.408
2015    9       19    16  17    3.1817   483.7    3.964      34.383
2015    9       19    16  23    3.1830   483.4    3.971      34.359
2015    9       19    16  30    3.1844   483.1    3.978      34.334
2015    9       19    16  36    3.1858   482.8    3.986      34.310
2015    9       19    16  42    3.1872   482.5    3.993      34.287
2015    9       19    16  48    3.1886   482.2    4.000      34.263
2015    9       19    16  55    3.1901   481.9    4.007      34.240
2015    9       19    17   1    3.1916   481.6    4.014      34.217
2015    9       19    17   7    3.1932   481.3    4.022      34.193
2015    9       19    17  13    3.1947   481.0    4.029      34.170
2015    9       19    17  20    3.1964   480.7    4.036      34.147
2015    9       19    17  26    3.1980   480.4    4.043      34.125
2015    9       19    17  32    3.1998   480.1    4.051      34.102
2015    9       19    17  38    3.2015   479.7    4.058      34.080
2015    9       19    17  44    3.2033   479.4    4.066      34.057
2015    9       19    17  51    3.2052   479.1    4.073      34.035
2015    9       19    17  57    3.2071   478.8    4.080      34.014
2015    9       19    18   3    3.2091   478.5    4.088      33.992
2015    9       19    18   9    3.2111   478.2    4.095      33.971
2015    9       19    18  16    3.2132   477.9    4.103      33.950
2015    9       19    18  22    3.2154   477.6    4.111      33.929
2015    9       19    18  28    3.2176   477.3    4.118      33.909
2015    9       19    18  34    3.2199   477.0    4.126      33.888
2015    9       19    18  41    3.2222   476.7    4.134      33.869
2015    9       19    18  47    3.2247   476.4    4.142      33.849
2015    9       19    18  53    3.2271   476.1    4.150      33.830
2015    9       19    18  59    3.2297   475.8    4.158      33.811
2015    9       19    19   6    3.2323   475.5    4.166      33.792
2015    9       19    19  12    3.2350   475.2    4.174      33.774
2015    9       19    19  18    3.2377   474.9    4.182      33.756
2015    9       19    19  24    3.2405   474.6    4.190      33.738
2015    9       19    19  31    3.2433   474.4    4.199      33.721
2015    9       19    19  37    3.2462   474.1    4.207      33.704
2015    9       19    19  43    3.2492   473.8    4.216      33.687
2015    9       19    19  49    3.2523   473.5    4.225      33.671
2015    9       19    19  56    3.2553   473.2    4.233      33.655
2015    9       19    20   2    3.2585   472.9    4.242      33.639
2015    9       19    20   8    3.2617   472.6    4.251      33.624
2015    9       19    20  14    3.2650   472.3    4.261      33.609
2015    9       19    20  21    3.2683   472.0    4.270      33.594
2015    9       19    20  27    3.2717   471.7    4.280      33.580
2015    9       19    20  33    3.2752   471.4    4.289      33.567
2015    9       19    20  39    3.2787   471.1    4.299      33.553
2015    9       19    20  46    3.2823   470.9    4.309      33.541
2015    9       19    20  52    3.2860   470.6    4.319      33.529
2015    9       19    20  58    3.2897   470.3    4.330      33.517
2015    9       19    21   4    3.2935   470.0    4.340      33.505
2015    9       19    21  11    3.2973   469.7    4.351      33.495
2015    9       19    21  17    3.3013   469.4    4.362      33.485
2015    9       19    21  23    3.3053   469.1    4.373      33.475
2015    9       19    21  29    3.3095   468.8    4.385      33.466
2015    9       19    21  35    3.3136   468.6    4.396      33.458
2015    9       19    21  42    3.3179   468.3    4.408      33.450
2015    9       19    21  48    3.3223   468.0    4.421      33.444
2015    9       19    21  54    3.3268   467.7    4.433      33.438
2015    9       19    22   0    3.3313   467.4    4.446      33.433
2015    9       19    22   7    3.3360   467.2    4.459      33.429
2015    9       19    22  13    3.3408   466.9    4.472      33.425
2015    9       19    22  19    3.3457   466.6    4.486      33.423
2015    9       19    22  25    3.3507   466.3    4.500      33.422
2015    9       19    22  32    3.3558   466.1    4.514      33.422
2015    9       19    22  38    3.3610   465.8    4.529      33.424
2015    9       19    22  44    3.3663   465.5    4.543      33.427
2015    9       19    22  50    3.3717   465.3    4.558      33.432
2015    9       19    22  57    3.3773   465.0    4.573      33.438
2015    9       19    23   3    3.3828   464.8    4.588      33.446
2015    9       19    23   9    3.3886   464.5    4.604      33.455
2015    9       19    23  15    3.3944   464.3    4.619      33.465
2015    9       19    23  22    3.4004   464.0    4.635      33.475
2015    9       19    23  28    3.4064   463.8    4.651      33.488
2015    9       19    23  34    3.4125   463.6    4.666      33.502
2015    9       19    23  40    3.4186   463.3    4.682      33.517
2015    9       19    23  47    3.4248   463.1    4.698      33.535
2015    9       19    23  53    3.4310   462.9    4.713      33.553
2015    9       19    23  59    3.4373   462.7    4.728      33.573
2015    9       20     0   5    3.4435   462.5    4.743      33.594
2015    9       20     0  11    3.4498   462.3    4.758      33.615
2015    9       20     0  18    3.4561   462.1    4.772      33.635
2015    9       20     0  24    3.4625   461.9    4.787      33.655
2015    9       20     0  30    3.4688   461.7    4.801      33.675
2015    9       20     0  36    3.4751   461.5    4.815      33.694
2015    9       20     0  43    3.4815   461.3    4.829      33.713
2015    9       20     0  49    3.4879   461.1    4.843      33.732
2015    9       20     0  55    3.4943   460.9    4.856      33.751
2015    9       20     1   1    3.5008   460.7    4.870      33.769
2015    9       20     1   8    3.5072   460.5    4.883      33.788
2015    9       20     1  14    3.5137   460.3    4.896      33.806
2015    9       20     1  20    3.5202   460.2    4.909      33.824
2015    9       20     1  26    3.5268   460.0    4.923      33.842
2015    9       20     1  33    3.5333   459.8    4.935      33.860
2015    9       20     1  39    3.5399   459.6    4.948      33.877
2015    9       20     1  45    3.5465   459.4    4.961      33.895
2015    9       20     1  51    3.5532   459.3    4.974      33.913
2015    9       20     1  58    3.5598   459.1    4.987      33.930
2015    9       20     2   4    3.5665   458.9    5.000      33.948
2015    9       20     2  10    3.5733   458.8    5.012      33.965
2015    9       20     2  16    3.5800   458.6    5.025      33.983
2015    9       20     2  23    3.5868   458.4    5.038      34.000
2015    9       20     2  29    3.5937   458.3    5.050      34.017
2015    9       20     2  35    3.6005   458.1    5.063      34.035
2015    9       20     2  41    3.6075   457.9    5.076      34.053
2015    9       20     2  47    3.6144   457.8    5.089      34.070
2015    9       20     2  54    3.6214   457.6    5.102      34.088
2015    9       20     3   0    3.6284   457.5    5.115      34.106
2015    9       20     3   6    3.6355   457.3    5.128      34.124
2015    9       20     3  12    3.6426   457.2    5.141      34.142
2015    9       20     3  19    3.6497   457.0    5.154      34.161
2015    9       20     3  25    3.6569   456.9    5.167      34.180
2015    9       20     3  31    3.6642   456.7    5.181      34.200
2015    9       20     3  37    3.6715   456.6    5.195      34.220
2015    9       20     3  44    3.6789   456.4    5.208      34.240
2015    9       20     3  50    3.6863   456.3    5.222      34.262
2015    9       20     3  56    3.6938   456.2    5.237      34.284
2015    9       20     4   2    3.7014   456.0    5.251      34.306
2015    9       20     4   9    3.7090   455.9    5.266      34.330
2015    9       20     4  15    3.7167   455.8    5.280      34.355
2015    9       20     4  21    3.7245   455.6    5.296      34.380
2015    9       20     4  27    3.7324   455.5    5.311      34.407
2015    9       20     4  34    3.7404   455.4    5.327      34.434
2015    9       20     4  40    3.7484   455.3    5.343      34.463
2015    9       20     4  46    3.7566   455.1    5.360      34.493
2015    9       20     4  52    3.7649   455.0    5.377      34.525
2015    9       20     4  59    3.7733   454.9    5.395      34.558
2015    9       20     5   5    3.7818   454.8    5.413      34.592
2015    9       20     5  11    3.7905   454.7    5.431      34.629
2015    9       20     5  17    3.7992   454.6    5.450      34.666
2015    9       20     5  23    3.8082   454.5    5.470      34.706
2015    9       20     5  30    3.8172   454.4    5.490      34.749
2015    9       20     5  36    3.8265   454.3    5.511      34.793
2015    9       20     5  42    3.8358   454.2    5.532      34.841
2015    9       20     5  48    3.8454   454.1    5.554      34.890
2015    9       20     5  55    3.8551   454.0    5.577      34.942
2015    9       20     6   1    3.8650   453.9    5.600      34.997
2015    9       20     6   7    3.8750   453.9    5.624      35.056
2015    9       20     6  13    3.8852   453.8    5.648      35.118
2015    9       20     6  20    3.8954   453.8    5.672      35.183
2015    9       20     6  26    3.9059   453.7    5.697      35.251
2015    9       20     6  32    3.9165   453.7    5.722      35.322
2015    9       20     6  38    3.9272   453.6    5.747      35.398
2015    9       20     6  44    3.9379   453.6    5.772      35.474
2015    9       20     6  51    3.9488   453.6    5.798      35.552
2015    9       20     6  57    3.9596   453.6    5.823      35.632
2015    9       20     7   3    3.9707   453.6    5.848      35.714
2015    9       20     7   9    3.9816   453.6    5.872      35.799
2015    9       20     7  16    3.9926   453.6    5.896      35.886
2015    9       20     7  22    4.0034   453.6    5.919      35.976
2015    9       20     7  28    4.0143   453.7    5.942      36.068
2015    9       20     7  34    4.0251   453.7    5.964      36.159
2015    9       20     7  41    4.0358   453.7    5.985      36.251
2015    9       20     7  47    4.0463   453.7    6.005      36.340
2015    9       20     7  53    4.0568   453.8    6.025      36.427
2015    9       20     7  59    4.0672   453.8    6.044      36.511
2015    9       20     8   6    4.0775   453.8    6.062      36.592
2015    9       20     8  12    4.0877   453.9    6.079      36.671
2015    9       20     8  18    4.0979   453.9    6.096      36.747
2015    9       20     8  24    4.1079   453.9    6.112      36.822
2015    9       20     8  31    4.1179   454.0    6.128      36.894
2015    9       20     8  37    4.1278   454.0    6.143      36.964
2015    9       20     8  43    4.1377   454.0    6.158      37.032
2015    9       20     8  49    4.1475   454.1    6.172      37.099
2015    9       20     8  55    4.1572   454.1    6.186      37.164
2015    9       20     9   2    4.1669   454.1    6.199      37.227
2015    9       20     9   8    4.1766   454.2    6.212      37.289
2015    9       20     9  14    4.1862   454.2    6.224      37.349
2015    9       20     9  20    4.1958   454.3    6.237      37.408
2015    9       20     9  27    4.2054   454.3    6.248      37.465
2015    9       20     9  33    4.2149   454.3    6.260      37.521
2015    9       20     9  39    4.2244   454.4    6.271      37.577
2015    9       20     9  45    4.2339   454.4    6.282      37.631
2015    9       20     9  52    4.2434   454.4    6.293      37.684
2015    9       20     9  58    4.2529   454.4    6.304      37.736
2015    9       20    10   4    4.2623   454.5    6.315      37.788
2015    9       20    10  10    4.2718   454.5    6.325      37.838
2015    9       20    10  17    4.2813   454.5    6.335      37.888
2015    9       20    10  23    4.2908   454.6    6.345      37.938
2015    9       20    10  29    4.3003   454.6    6.355      37.986
2015    9       20    10  35    4.3098   454.6    6.365      38.035
2015    9       20    10  42    4.3194   454.6    6.375      38.083
2015    9       20    10  48    4.3290   454.7    6.385      38.132
2015    9       20    10  54    4.3385   454.7    6.395      38.180
2015    9       20    11   0    4.3482   454.7    6.406      38.228
2015    9       20    11   6    4.3578   454.8    6.416      38.277
2015    9       20    11  13    4.3675   454.8    6.426      38.326
2015    9       20    11  19    4.3773   454.8    6.436      38.375
2015    9       20    11  25    4.3870   454.9    6.447      38.425
2015    9       20    11  31    4.3969   454.9    6.457      38.476
2015    9       20    11  38    4.4067   454.9    6.468      38.528
2015    9       20    11  44    4.4167   455.0    6.479      38.581
2015    9       20    11  50    4.4267   455.0    6.490      38.634
2015    9       20    11  56    4.4367   455.1    6.502      38.690
2015    9       20    12   3    4.4469   455.1    6.514      38.746
2015    9       20    12   9    4.4571   455.2    6.526      38.805
2015    9       20    12  15    4.4674   455.2    6.538      38.865
2015    9       20    12  21    4.4778   455.3    6.551      38.928
2015    9       20    12  27    4.4882   455.4    6.565      38.992
2015    9       20    12  34    4.4988   455.4    6.579      39.059
2015    9       20    12  40    4.5095   455.5    6.593      39.128
2015    9       20    12  46    4.5202   455.6    6.608      39.201
2015    9       20    12  52    4.5311   455.7    6.623      39.276
2015    9       20    12  59    4.5421   455.7    6.639      39.355
2015    9       20    13   5    4.5532   455.8    6.656      39.437
2015    9       20    13  11    4.5644   455.9    6.673      39.521
2015    9       20    13  17    4.5757   456.1    6.691      39.609
2015    9       20    13  24    4.5870   456.2    6.710      39.701
2015    9       20    13  30    4.5985   456.3    6.729      39.797
2015    9       20    13  36    4.6101   456.4    6.748      39.896
2015    9       20    13  42    4.6216   456.6    6.767      40.000
2015    9       20    13  49    4.6333   456.7    6.787      40.108
2015    9       20    13  55    4.6449   456.9    6.807      40.218
2015    9       20    14   1    4.6566   457.0    6.827      40.330
2015    9       20    14   7    4.6683   457.2    6.847      40.444
2015    9       20    14  13    4.6800   457.4    6.867      40.560
2015    9       20    14  20    4.6917   457.5    6.888      40.681
2015    9       20    14  26    4.7033   457.7    6.907      40.803
2015    9       20    14  32    4.7150   457.9    6.927      40.930
2015    9       20    14  38    4.7266   458.1    6.946      41.060
2015    9       20    14  45    4.7383   458.3    6.965      41.194
2015    9       20    14  51    4.7501   458.5    6.983      41.330
2015    9       20    14  57    4.7621   458.7    7.001      41.469
2015    9       20    15   3    4.7741   458.9    7.020      41.611
2015    9       20    15  10    4.7866   459.2    7.038      41.758
2015    9       20    15  16    4.7993   459.4    7.057      41.909
2015    9       20    15  22    4.8126   459.7    7.076      42.069
2015    9       20    15  28    4.8264   459.9    7.095      42.236
2015    9       20    15  35    4.8411   460.2    7.116      42.415
2015    9       20    15  41    4.8565   460.5    7.138      42.607
2015    9       20    15  47    4.8734   460.8    7.161      42.816
2015    9       20    15  53    4.8912   461.1    7.186      43.046
2015    9       20    15  59    4.9113   461.5    7.214      43.302
2015    9       20    16   6    4.9329   461.9    7.244      43.588
2015    9       20    16  12    4.9577   462.3    7.278      43.913
2015    9       20    16  18    4.9845   462.8    7.316      44.283
2015    9       20    16  24    5.0157   463.3    7.359      44.711
2015    9       20    16  31    5.0495   463.9    7.407      45.205
2015    9       20    16  37    5.0892   464.6    7.463      45.785
2015    9       20    16  43    5.1323   465.3    7.526      46.462
2015    9       20    16  49    5.1822   466.2    7.599      47.257
2015    9       20    16  56    5.2365   467.2    7.683      48.186
2015    9       20    17   2    5.2990   468.3    7.780      49.271
2015    9       20    17   8    5.3671   469.6    7.891      50.530
2015    9       20    17  14    5.4447   471.0    8.019      51.997
2015    9       20    17  21    5.5300   472.7    8.165      53.674
2015    9       20    17  27    5.6261   474.5    8.332      55.601
2015    9       20    17  33    5.7304   476.6    8.521      57.770
2015    9       20    17  39    5.8451   478.8    8.739      60.182
2015    9       20    17  45    5.9695   481.3    8.985      62.883
2015    9       20    17  52    6.1053   484.0    9.260      65.892
2015    9       20    17  58    6.2487   486.9    9.563      69.159
2015    9       20    18   4    6.4001   489.8    9.899      72.639
2015    9       20    18  10    6.5561   492.9   10.266      76.225
2015    9       20    18  17    6.7140   496.2   10.660      80.051
2015    9       20    18  23    6.8707   499.6   11.075      83.997
2015    9       20    18  29    7.0269   503.0   11.507      87.969
2015    9       20    18  35    7.1820   506.6   11.942      91.940
2015    9       20    18  42    7.3367   510.0   12.373      95.887
2015    9       20    18  48    7.4897   513.3   12.796      99.513
2015    9       20    18  54    7.6415   516.3   13.215     102.845
2015    9       20    19   0    7.7926   519.1   13.627     105.902
2015    9       20    19   6    7.9437   521.8   14.034     108.746
2015    9       20    19  13    8.0942   524.3   14.434     111.398
2015    9       20    19  19    8.2414   526.7   14.832     113.877
2015    9       20    19  25    8.3853   528.9   15.232     116.127
2015    9       20    19  31    8.5208   531.1   15.631     118.279
2015    9       20    19  38    8.6453   533.2   16.023     120.393
2015    9       20    19  44    8.7550   535.2   16.403     122.445
2015    9       20    19  50    8.8513   537.2   16.765     124.409
2015    9       20    19  56    8.9286   539.2   17.096     126.340
2015    9       20    20   3    8.9897   541.1   17.392     128.121
2015    9       20    20   9    9.0312   542.8   17.657     129.694
2015    9       20    20  15    9.0573   544.3   17.888     131.069
2015    9       20    20  21    9.0649   545.7   18.087     132.275
2015    9       20    20  27    9.0592   547.0   18.252     133.341
2015    9       20    20  34    9.0384   548.2   18.386     134.247
2015    9       20    20  40    9.0073   549.3   18.493     134.995
2015    9       20    20  46    8.9639   550.2   18.575     135.604
2015    9       20    20  52    8.9132   551.1   18.633     136.092
2015    9       20    20  59    8.8530   551.9   18.671     136.477
2015    9       20    21   5    8.7875   552.7   18.689     136.764
2015    9       20    21  11    8.7146   553.4   18.692     136.965
2015    9       20    21  17    8.6380   554.0   18.681     137.090
2015    9       20    21  24    8.5557   554.6   18.657     137.151
2015    9       20    21  30    8.4707   555.2   18.624     137.154
2015    9       20    21  36    8.3807   555.7   18.581     137.109
2015    9       20    21  42    8.2881   556.2   18.531     137.021
2015    9       20    21  48    8.1910   556.6   18.475     136.894
2015    9       20    21  55    8.0913   557.0   18.412     136.728
2015    9       20    22   1    7.9879   557.3   18.344     136.529
2015    9       20    22   7    7.8824   557.7   18.271     136.298
2015    9       20    22  13    7.7739   558.0   18.191     136.031
2015    9       20    22  20    7.6644   558.2   18.107     135.731
2015    9       20    22  26    7.5530   558.5   18.015     135.393
2015    9       20    22  32    7.4414   558.8   17.918     135.018
2015    9       20    22  38    7.3290   559.0   17.813     134.600
2015    9       20    22  45    7.2171   559.2   17.703     134.141
2015    9       20    22  51    7.1060   559.4   17.585     133.635
2015    9       20    22  57    6.9963   559.6   17.460     133.089
2015    9       20    23   3    6.8887   559.8   17.328     132.492
2015    9       20    23  10    6.7837   559.9   17.189     131.847
2015    9       20    23  16    6.6822   560.0   17.042     131.151
2015    9       20    23  22    6.5838   560.1   16.888     130.410
2015    9       20    23  28    6.4898   560.2   16.726     129.622
2015    9       20    23  34    6.3992   560.2   16.557     128.787
2015    9       20    23  41    6.3137   560.2   16.380     127.902
2015    9       20    23  47    6.2319   560.2   16.196     126.982
2015    9       20    23  53    6.1555   560.1   16.004     126.027
2015    9       20    23  59    6.0833   560.1   15.806     125.050
2015    9       21     0   6    6.0168   560.0   15.601     124.060
2015    9       21     0  12    5.9544   559.8   15.390     123.070
2015    9       21     0  18    5.8977   559.7   15.172     122.067
2015    9       21     0  24    5.8451   559.5   14.949     121.050
2015    9       21     0  31    5.7982   559.3   14.721     120.005
2015    9       21     0  37    5.7553   559.1   14.489     118.936
2015    9       21     0  43    5.7180   558.9   14.253     117.835
2015    9       21     0  49    5.6845   558.7   14.015     116.714
2015    9       21     0  55    5.6563   558.5   13.774     115.568
2015    9       21     1   2    5.6318   558.3   13.531     114.387
2015    9       21     1   8    5.6124   558.0   13.284     113.179
2015    9       21     1  14    5.5966   557.8   13.037     111.961
2015    9       21     1  20    5.5859   557.5   12.787     110.735
2015    9       21     1  27    5.5788   557.3   12.538     109.518
2015    9       21     1  33    5.5764   557.0   12.288     108.335
2015    9       21     1  39    5.5774   556.8   12.039     107.195
2015    9       21     1  45    5.5828   556.5   11.790     106.090
2015    9       21     1  52    5.5909   556.3   11.543     105.015
2015    9       21     1  58    5.6029   556.1   11.297     103.963
2015    9       21     2   4    5.6173   555.9   11.055     102.937
2015    9       21     2  10    5.6348   555.7   10.815     101.930
2015    9       21     2  16    5.6539   555.5   10.580     100.943
2015    9       21     2  23    5.6754   555.4   10.347      99.976
2015    9       21     2  29    5.6981   555.2   10.119      99.032
2015    9       21     2  35    5.7227   555.1    9.895      98.102
2015    9       21     2  41    5.7479   555.0    9.675      97.189
2015    9       21     2  48    5.7742   554.9    9.459      96.285
2015    9       21     2  54    5.8005   554.8    9.247      95.391
2015    9       21     3   0    5.8273   554.7    9.040      94.503
2015    9       21     3   6    5.8536   554.6    8.837      93.623
2015    9       21     3  13    5.8802   554.5    8.639      92.746
2015    9       21     3  19    5.9065   554.5    8.445      91.874
2015    9       21     3  25    5.9331   554.4    8.254      91.004
2015    9       21     3  31    5.9594   554.4    8.069      90.137
2015    9       21     3  37    5.9861   554.4    7.887      89.270
2015    9       21     3  44    6.0126   554.4    7.709      88.405
2015    9       21     3  50    6.0394   554.4    7.536      87.538
2015    9       21     3  56    6.0661   554.5    7.366      86.672
2015    9       21     4   2    6.0930   554.5    7.201      85.802
2015    9       21     4   9    6.1198   554.6    7.040      84.934
2015    9       21     4  15    6.1467   554.7    6.882      84.060
2015    9       21     4  21    6.1732   554.8    6.729      83.187
2015    9       21     4  27    6.1996   554.9    6.580      82.310
2015    9       21     4  33    6.2256   555.0    6.435      81.433
2015    9       21     4  40    6.2511   555.2    6.293      80.553
2015    9       21     4  46    6.2760   555.3    6.156      79.674
2015    9       21     4  52    6.3001   555.5    6.022      78.792
2015    9       21     4  58    6.3233   555.7    5.893      77.912
2015    9       21     5   5    6.3450   556.0    5.767      77.030
2015    9       21     5  11    6.3655   556.2    5.645      76.153
2015    9       21     5  17    6.3843   556.5    5.526      75.274
2015    9       21     5  23    6.4017   556.8    5.412      74.401
2015    9       21     5  30    6.4173   557.1    5.301      73.528
2015    9       21     5  36    6.4317   557.4    5.194      72.663
2015    9       21     5  42    6.4443   557.8    5.090      71.800
2015    9       21     5  48    6.4557   558.2    4.990      70.946
2015    9       21     5  55    6.4653   558.6    4.892      70.096
2015    9       21     6   1    6.4738   559.0    4.799      69.257
2015    9       21     6   7    6.4803   559.5    4.708      68.423
2015    9       21     6  13    6.4855   560.0    4.621      67.602
2015    9       21     6  19    6.4887   560.5    4.537      66.788
2015    9       21     6  26    6.4905   561.0    4.456      65.989
2015    9       21     6  32    6.4900   561.6    4.378      65.200
2015    9       21     6  38    6.4882   562.1    4.304      64.426
2015    9       21     6  44    6.4839   562.7    4.232      63.664
2015    9       21     6  51    6.4782   563.3    4.163      62.919
2015    9       21     6  57    6.4700   563.9    4.097      62.189
2015    9       21     7   3    6.4605   564.6    4.033      61.479
2015    9       21     7   9    6.4485   565.2    3.973      60.785
2015    9       21     7  16    6.4351   565.8    3.915      60.112
2015    9       21     7  22    6.4194   566.5    3.860      59.458
2015    9       21     7  28    6.4024   567.1    3.808      58.828
2015    9       21     7  34    6.3830   567.8    3.759      58.218
2015    9       21     7  40    6.3627   568.4    3.712      57.634
2015    9       21     7  47    6.3404   569.1    3.668      57.073
2015    9       21     7  53    6.3173   569.7    3.627      56.538
2015    9       21     7  59    6.2923   570.3    3.587      56.027
2015    9       21     8   5    6.2668   570.9    3.551      55.544
2015    9       21     8  12    6.2396   571.5    3.517      55.086
2015    9       21     8  18    6.2121   572.1    3.485      54.655
2015    9       21     8  24    6.1832   572.6    3.455      54.250
2015    9       21     8  30    6.1542   573.2    3.428      53.872
2015    9       21     8  37    6.1239   573.8    3.402      53.519
2015    9       21     8  43    6.0933   574.4    3.379      53.191
2015    9       21     8  49    6.0614   575.1    3.358      52.888
2015    9       21     8  55    6.0291   575.7    3.338      52.612
2015    9       21     9   1    5.9955   576.5    3.321      52.361
2015    9       21     9   8    5.9614   577.2    3.305      52.134
2015    9       21     9  14    5.9260   578.0    3.291      51.935
2015    9       21     9  20    5.8900   578.8    3.279      51.763
2015    9       21     9  26    5.8528   579.6    3.269      51.614
2015    9       21     9  33    5.8149   580.4    3.259      51.487
2015    9       21     9  39    5.7760   581.1    3.250      51.381
2015    9       21     9  45    5.7365   581.8    3.242      51.288
2015    9       21     9  51    5.6960   582.5    3.234      51.209
2015    9       21     9  57    5.6553   583.1    3.227      51.142
2015    9       21    10   4    5.6142   583.8    3.221      51.084
2015    9       21    10  10    5.5734   584.3    3.215      51.036
2015    9       21    10  16    5.5328   584.9    3.210      50.999
2015    9       21    10  22    5.4932   585.4    3.206      50.971
2015    9       21    10  29    5.4545   585.9    3.202      50.951
2015    9       21    10  35    5.4169   586.3    3.199      50.936
2015    9       21    10  41    5.3801   586.8    3.196      50.931
2015    9       21    10  47    5.3442   587.3    3.194      50.929
2015    9       21    10  54    5.3089   587.8    3.192      50.928
2015    9       21    11   0    5.2745   588.3    3.190      50.927
2015    9       21    11   6    5.2407   588.8    3.190      50.928
2015    9       21    11  12    5.2076   589.4    3.189      50.930
2015    9       21    11  18    5.1750   590.0    3.190      50.934
2015    9       21    11  25    5.1431   590.6    3.191      50.940
2015    9       21    11  31    5.1118   591.2    3.192      50.949
2015    9       21    11  37    5.0809   591.8    3.194      50.961
2015    9       21    11  43    5.0507   592.4    3.197      50.978
2015    9       21    11  50    5.0207   593.0    3.199      50.997
2015    9       21    11  56    4.9913   593.5    3.201      51.018
2015    9       21    12   2    4.9623   594.0    3.204      51.044
2015    9       21    12   8    4.9340   594.5    3.206      51.072
2015    9       21    12  14    4.9063   595.0    3.208      51.102
2015    9       21    12  21    4.8795   595.4    3.210      51.133
2015    9       21    12  27    4.8536   595.9    3.213      51.168
2015    9       21    12  33    4.8288   596.3    3.216      51.206
2015    9       21    12  39    4.8049   596.6    3.219      51.250
2015    9       21    12  46    4.7821   597.0    3.223      51.298
2015    9       21    12  52    4.7602   597.3    3.227      51.352
2015    9       21    12  58    4.7393   597.6    3.231      51.412
2015    9       21    13   4    4.7192   598.0    3.236      51.479
2015    9       21    13  11    4.7001   598.3    3.242      51.554
2015    9       21    13  17    4.6817   598.5    3.248      51.636
2015    9       21    13  23    4.6643   598.8    3.255      51.727
2015    9       21    13  29    4.6476   599.1    3.263      51.825
2015    9       21    13  35    4.6318   599.3    3.271      51.932
2015    9       21    13  42    4.6166   599.6    3.280      52.047
2015    9       21    13  48    4.6023   599.8    3.290      52.172
2015    9       21    13  54    4.5885   600.0    3.300      52.306
2015    9       21    14   0    4.5756   600.2    3.310      52.447
2015    9       21    14   7    4.5632   600.4    3.321      52.594
2015    9       21    14  13    4.5516   600.6    3.333      52.751
2015    9       21    14  19    4.5405   600.7    3.345      52.916
2015    9       21    14  25    4.5302   600.9    3.357      53.089
2015    9       21    14  32    4.5203   601.1    3.369      53.269
2015    9       21    14  38    4.5112   601.2    3.382      53.456
2015    9       21    14  44    4.5025   601.3    3.395      53.647
2015    9       21    14  50    4.4946   601.4    3.408      53.837
2015    9       21    14  56    4.4870   601.5    3.421      54.027
2015    9       21    15   3    4.4802   601.6    3.435      54.218
2015    9       21    15   9    4.4737   601.6    3.449      54.411
2015    9       21    15  15    4.4681   601.7    3.463      54.606
2015    9       21    15  21    4.4629   601.7    3.477      54.802
2015    9       21    15  28    4.4585   601.8    3.492      55.000
2015    9       21    15  34    4.4544   601.8    3.508      55.197
2015    9       21    15  40    4.4512   601.8    3.523      55.394
2015    9       21    15  46    4.4482   601.8    3.539      55.592
2015    9       21    15  53    4.4461   601.8    3.556      55.791
2015    9       21    15  59    4.4442   601.8    3.572      55.993
2015    9       21    16   5    4.4431   601.8    3.589      56.195
2015    9       21    16  11    4.4422   601.8    3.606      56.397
2015    9       21    16  17    4.4421   601.8    3.623      56.600
2015    9       21    16  24    4.4421   601.8    3.640      56.809
2015    9       21    16  30    4.4427   601.8    3.658      57.021
2015    9       21    16  36    4.4436   601.8    3.675      57.234
2015    9       21    16  42    4.4450   601.8    3.692      57.453
2015    9       21    16  49    4.4465   601.8    3.709      57.673
2015    9       21    16  55    4.4486   601.9    3.725      57.894
2015    9       21    17   1    4.4508   601.9    3.742      58.112
2015    9       21    17   7    4.4535   601.9    3.758      58.328
2015    9       21    17  13    4.4563   602.0    3.774      58.542
2015    9       21    17  20    4.4596   602.0    3.790      58.757
2015    9       21    17  26    4.4630   602.1    3.806      58.970
2015    9       21    17  32    4.4669   602.2    3.822      59.185
2015    9       21    17  38    4.4709   602.3    3.837      59.400
2015    9       21    17  45    4.4753   602.3    3.853      59.614
2015    9       21    17  51    4.4799   602.4    3.868      59.827
2015    9       21    17  57    4.4850   602.5    3.883      60.038
2015    9       21    18   3    4.4902   602.6    3.898      60.246
2015    9       21    18   9    4.4958   602.7    3.913      60.451
2015    9       21    18  16    4.5016   602.8    3.927      60.653
2015    9       21    18  22    4.5079   602.8    3.942      60.854
2015    9       21    18  28    4.5142   602.9    3.957      61.052
2015    9       21    18  34    4.5210   603.0    3.971      61.249
2015    9       21    18  41    4.5280   603.1    3.985      61.445
2015    9       21    18  47    4.5354   603.2    4.000      61.640
2015    9       21    18  53    4.5429   603.4    4.013      61.835
2015    9       21    18  59    4.5508   603.5    4.027      62.030
2015    9       21    19   6    4.5588   603.6    4.040      62.223
2015    9       21    19  12    4.5672   603.7    4.054      62.415
2015    9       21    19  18    4.5757   603.9    4.066      62.604
2015    9       21    19  24    4.5845   604.0    4.079      62.792
2015    9       21    19  30    4.5934   604.1    4.092      62.978
2015    9       21    19  37    4.6025   604.2    4.104      63.165
2015    9       21    19  43    4.6117   604.4    4.116      63.351
2015    9       21    19  49    4.6211   604.5    4.128      63.538
2015    9       21    19  55    4.6306   604.6    4.140      63.725
2015    9       21    20   2    4.6403   604.8    4.152      63.913
2015    9       21    20   8    4.6499   604.9    4.163      64.103
2015    9       21    20  14    4.6599   605.0    4.175      64.294
2015    9       21    20  20    4.6698   605.2    4.187      64.486
2015    9       21    20  27    4.6799   605.3    4.198      64.680
2015    9       21    20  33    4.6899   605.4    4.210      64.875
2015    9       21    20  39    4.7002   605.6    4.222      65.072
2015    9       21    20  45    4.7104   605.7    4.233      65.270
2015    9       21    20  51    4.7208   605.9    4.245      65.469
2015    9       21    20  58    4.7313   606.0    4.256      65.669
2015    9       21    21   4    4.7418   606.2    4.268      65.870
2015    9       21    21  10    4.7524   606.3    4.280      66.071
2015    9       21    21  16    4.7632   606.5    4.291      66.273
2015    9       21    21  23    4.7740   606.7    4.303      66.476
2015    9       21    21  29    4.7849   606.8    4.314      66.682
2015    9       21    21  35    4.7959   607.0    4.325      66.890
2015    9       21    21  41    4.8069   607.3    4.335      67.101
2015    9       21    21  48    4.8180   607.5    4.345      67.313
2015    9       21    21  54    4.8292   607.7    4.355      67.526
2015    9       21    22   0    4.8404   607.9    4.364      67.736
2015    9       21    22   6    4.8516   608.1    4.373      67.942
2015    9       21    22  12    4.8628   608.4    4.381      68.144
2015    9       21    22  19    4.8741   608.6    4.389      68.342
2015    9       21    22  25    4.8853   608.8    4.397      68.537
2015    9       21    22  31    4.8965   609.1    4.404      68.729
2015    9       21    22  37    4.9076   609.3    4.411      68.918
2015    9       21    22  44    4.9188   609.5    4.418      69.104
2015    9       21    22  50    4.9298   609.8    4.425      69.288
2015    9       21    22  56    4.9408   610.0    4.431      69.469
2015    9       21    23   2    4.9518   610.3    4.437      69.647
2015    9       21    23   8    4.9627   610.5    4.443      69.824
2015    9       21    23  15    4.9735   610.8    4.448      69.998
2015    9       21    23  21    4.9843   611.1    4.453      70.169
2015    9       21    23  27    4.9950   611.3    4.458      70.339
2015    9       21    23  33    5.0056   611.6    4.463      70.506
2015    9       21    23  40    5.0160   611.9    4.467      70.672
2015    9       21    23  46    5.0264   612.1    4.471      70.835
2015    9       21    23  52    5.0367   612.4    4.474      70.995
2015    9       21    23  58    5.0469   612.7    4.477      71.152
2015    9       22     0   4    5.0570   613.0    4.480      71.306
2015    9       22     0  11    5.0669   613.3    4.482      71.456
2015    9       22     0  17    5.0767   613.6    4.484      71.603
2015    9       22     0  23    5.0863   613.8    4.486      71.747
2015    9       22     0  29    5.0957   614.1    4.487      71.888
2015    9       22     0  36    5.1050   614.4    4.488      72.025
2015    9       22     0  42    5.1142   614.7    4.489      72.159
2015    9       22     0  48    5.1231   615.0    4.489      72.290
2015    9       22     0  54    5.1319   615.4    4.489      72.418
2015    9       22     1   1    5.1405   615.7    4.489      72.544
2015    9       22     1   7    5.1490   616.0    4.488      72.666
2015    9       22     1  13    5.1572   616.3    4.487      72.786
2015    9       22     1  19    5.1653   616.6    4.486      72.904
2015    9       22     1  25    5.1732   616.9    4.485      73.019
2015    9       22     1  32    5.1810   617.2    4.483      73.132
2015    9       22     1  38    5.1885   617.5    4.481      73.242
2015    9       22     1  44    5.1959   617.9    4.479      73.350
2015    9       22     1  50    5.2031   618.2    4.477      73.456
2015    9       22     1  57    5.2101   618.5    4.474      73.560
2015    9       22     2   3    5.2169   618.8    4.471      73.662
2015    9       22     2   9    5.2235   619.2    4.468      73.761
2015    9       22     2  15    5.2299   619.5    4.465      73.858
2015    9       22     2  21    5.2361   619.8    4.462      73.952
2015    9       22     2  28    5.2420   620.1    4.458      74.044
2015    9       22     2  34    5.2478   620.5    4.454      74.133
2015    9       22     2  40    5.2533   620.8    4.450      74.219
2015    9       22     2  46    5.2586   621.2    4.446      74.302
2015    9       22     2  53    5.2636   621.5    4.441      74.382
2015    9       22     2  59    5.2684   621.8    4.436      74.458
2015    9       22     3   5    5.2729   622.2    4.431      74.531
2015    9       22     3  11    5.2772   622.5    4.425      74.599
2015    9       22     3  18    5.2811   622.9    4.419      74.665
2015    9       22     3  24    5.2849   623.3    4.412      74.726
2015    9       22     3  30    5.2883   623.6    4.406      74.783
2015    9       22     3  36    5.2916   624.0    4.399      74.836
2015    9       22     3  42    5.2945   624.3    4.391      74.886
2015    9       22     3  49    5.2973   624.7    4.384      74.932
2015    9       22     3  55    5.2997   625.0    4.376      74.974
2015    9       22     4   1    5.3019   625.4    4.368      75.013
2015    9       22     4   7    5.3039   625.7    4.360      75.049
2015    9       22     4  14    5.3057   626.1    4.351      75.082
2015    9       22     4  20    5.3073   626.5    4.343      75.113
2015    9       22     4  26    5.3088   626.8    4.334      75.142
2015    9       22     4  32    5.3100   627.2    4.325      75.171
2015    9       22     4  39    5.3112   627.5    4.316      75.198
2015    9       22     4  45    5.3121   627.9    4.307      75.224
2015    9       22     4  51    5.3130   628.2    4.298      75.250
2015    9       22     4  57    5.3137   628.6    4.289      75.275
2015    9       22     5   3    5.3143   628.9    4.280      75.301
2015    9       22     5  10    5.3148   629.3    4.271      75.327
2015    9       22     5  16    5.3152   629.6    4.262      75.352
2015    9       22     5  22    5.3153   629.9    4.254      75.378
2015    9       22     5  28    5.3154   630.3    4.245      75.403
2015    9       22     5  35    5.3152   630.6    4.236      75.428
2015    9       22     5  41    5.3150   631.0    4.228      75.452
2015    9       22     5  47    5.3145   631.3    4.219      75.474
2015    9       22     5  53    5.3140   631.7    4.211      75.494
2015    9       22     5  59    5.3131   632.0    4.202      75.512
2015    9       22     6   6    5.3123   632.3    4.194      75.526
2015    9       22     6  12    5.3111   632.6    4.186      75.539
2015    9       22     6  18    5.3099   632.9    4.178      75.549
2015    9       22     6  24    5.3084   633.2    4.170      75.558
2015    9       22     6  31    5.3070   633.5    4.162      75.565
2015    9       22     6  37    5.3053   633.8    4.155      75.571
2015    9       22     6  43    5.3035   634.1    4.147      75.576
2015    9       22     6  49    5.3015   634.3    4.139      75.579
2015    9       22     6  55    5.2994   634.6    4.131      75.580
2015    9       22     7   2    5.2971   634.9    4.123      75.579
2015    9       22     7   8    5.2947   635.2    4.115      75.576
2015    9       22     7  14    5.2921   635.5    4.107      75.570
2015    9       22     7  20    5.2894   635.8    4.099      75.561
2015    9       22     7  27    5.2865   636.1    4.091      75.549
2015    9       22     7  33    5.2836   636.4    4.082      75.536
2015    9       22     7  39    5.2804   636.7    4.074      75.521
2015    9       22     7  45    5.2773   637.0    4.065      75.503
2015    9       22     7  52    5.2740   637.2    4.057      75.483
2015    9       22     7  58    5.2707   637.5    4.049      75.460
2015    9       22     8   4    5.2672   637.7    4.042      75.438
2015    9       22     8  10    5.2639   637.9    4.034      75.418
2015    9       22     8  16    5.2604   638.1    4.027      75.400
2015    9       22     8  23    5.2570   638.3    4.020      75.386
2015    9       22     8  29    5.2535   638.6    4.013      75.376
2015    9       22     8  35    5.2500   638.8    4.006      75.374
2015    9       22     8  41    5.2463   639.1    3.999      75.376
2015    9       22     8  48    5.2427   639.4    3.992      75.379
2015    9       22     8  54    5.2389   639.7    3.985      75.382
2015    9       22     9   0    5.2350   640.0    3.978      75.384
2015    9       22     9   6    5.2309   640.3    3.972      75.380
2015    9       22     9  12    5.2267   640.5    3.965      75.371
2015    9       22     9  19    5.2223   640.8    3.957      75.358
2015    9       22     9  25    5.2179   641.1    3.950      75.341
2015    9       22     9  31    5.2134   641.4    3.943      75.321
2015    9       22     9  37    5.2088   641.6    3.935      75.298
2015    9       22     9  44    5.2040   641.9    3.927      75.274
2015    9       22     9  50    5.1993   642.1    3.920      75.248
2015    9       22     9  56    5.1944   642.4    3.912      75.221
2015    9       22    10   2    5.1896   642.6    3.905      75.193
2015    9       22    10   8    5.1847   642.8    3.898      75.164
2015    9       22    10  15    5.1798   643.1    3.890      75.134
2015    9       22    10  21    5.1749   643.3    3.883      75.105
2015    9       22    10  27    5.1701   643.5    3.876      75.075
2015    9       22    10  33    5.1652   643.7    3.869      75.046
2015    9       22    10  40    5.1603   643.9    3.862      75.017
2015    9       22    10  46    5.1554   644.1    3.855      74.988
2015    9       22    10  52    5.1505   644.3    3.849      74.960
2015    9       22    10  58    5.1456   644.5    3.842      74.932
2015    9       22    11   5    5.1407   644.7    3.836      74.903
2015    9       22    11  11    5.1357   644.9    3.830      74.875
2015    9       22    11  17    5.1308   645.1    3.824      74.847
2015    9       22    11  23    5.1258   645.3    3.817      74.818
2015    9       22    11  29    5.1208   645.5    3.811      74.789
2015    9       22    11  36    5.1158   645.7    3.805      74.759
2015    9       22    11  42    5.1108   645.9    3.799      74.730
2015    9       22    11  48    5.1057   646.1    3.793      74.699
2015    9       22    11  54    5.1007   646.3    3.786      74.668
2015    9       22    12   1    5.0956   646.5    3.780      74.635
2015    9       22    12   7    5.0906   646.7    3.774      74.602
2015    9       22    12  13    5.0855   646.9    3.767      74.569
2015    9       22    12  19    5.0804   647.1    3.761      74.535
2015    9       22    12  26    5.0753   647.3    3.754      74.500
2015    9       22    12  32    5.0702   647.5    3.748      74.465
2015    9       22    12  38    5.0651   647.7    3.741      74.429
2015    9       22    12  44    5.0600   647.9    3.734      74.392
2015    9       22    12  50    5.0549   648.1    3.728      74.356
2015    9       22    12  57    5.0498   648.3    3.721      74.318
2015    9       22    13   3    5.0447   648.5    3.714      74.281
2015    9       22    13   9    5.0396   648.7    3.708      74.243
2015    9       22    13  15    5.0345   648.9    3.701      74.204
2015    9       22    13  22    5.0294   649.1    3.695      74.166
2015    9       22    13  28    5.0242   649.2    3.688      74.127
2015    9       22    13  34    5.0191   649.4    3.681      74.088
2015    9       22    13  40    5.0140   649.6    3.675      74.049
2015    9       22    13  46    5.0088   649.8    3.668      74.009
2015    9       22    13  53    5.0037   650.0    3.662      73.970
2015    9       22    13  59    4.9986   650.2    3.655      73.931
2015    9       22    14   5    4.9934   650.4    3.649      73.892
2015    9       22    14  11    4.9883   650.5    3.643      73.853
2015    9       22    14  18    4.9832   650.7    3.637      73.814
2015    9       22    14  24    4.9782   650.9    3.630      73.776
2015    9       22    14  30    4.9731   651.0    3.624      73.739
2015    9       22    14  36    4.9680   651.2    3.618      73.702
2015    9       22    14  42    4.9630   651.4    3.612      73.666
2015    9       22    14  49    4.9579   651.5    3.607      73.631
2015    9       22    14  55    4.9529   651.7    3.601      73.596
2015    9       22    15   1    4.9479   651.9    3.595      73.562
2015    9       22    15   7    4.9428   652.0    3.590      73.529
2015    9       22    15  14    4.9379   652.2    3.585      73.497
2015    9       22    15  20    4.9328   652.3    3.579      73.466
2015    9       22    15  26    4.9279   652.5    3.574      73.435
2015    9       22    15  32    4.9229   652.7    3.569      73.405
2015    9       22    15  38    4.9179   652.8    3.564      73.376
2015    9       22    15  45    4.9129   653.0    3.559      73.347
2015    9       22    15  51    4.9079   653.1    3.555      73.318
2015    9       22    15  57    4.9030   653.3    3.550      73.290
2015    9       22    16   3    4.8980   653.4    3.545      73.263
2015    9       22    16  10    4.8931   653.6    3.540      73.235
2015    9       22    16  16    4.8881   653.7    3.536      73.207
2015    9       22    16  22    4.8832   653.9    3.531      73.180
2015    9       22    16  28    4.8783   654.0    3.527      73.152
2015    9       22    16  34    4.8734   654.1    3.522      73.124
2015    9       22    16  41    4.8684   654.3    3.518      73.096
2015    9       22    16  47    4.8635   654.4    3.513      73.067
2015    9       22    16  53    4.8586   654.6    3.508      73.038
2015    9       22    16  59    4.8538   654.7    3.504      73.009
2015    9       22    17   6    4.8489   654.8    3.499      72.979
2015    9       22    17  12    4.8440   655.0    3.495      72.948
2015    9       22    17  18    4.8392   655.1    3.490      72.918
2015    9       22    17  24    4.8343   655.2    3.486      72.886
2015    9       22    17  31    4.8295   655.4    3.481      72.855
2015    9       22    17  37    4.8247   655.5    3.477      72.823
2015    9       22    17  43    4.8199   655.6    3.473      72.791
2015    9       22    17  49    4.8151   655.7    3.468      72.758
2015    9       22    17  55    4.8103   655.9    3.464      72.725
2015    9       22    18   2    4.8055   656.0    3.459      72.691
2015    9       22    18   8    4.8007   656.1    3.455      72.657
2015    9       22    18  14    4.7959   656.2    3.450      72.622
2015    9       22    18  20    4.7912   656.3    3.446      72.587
2015    9       22    18  27    4.7865   656.4    3.441      72.551
2015    9       22    18  33    4.7817   656.6    3.437      72.514
2015    9       22    18  39    4.7771   656.7    3.432      72.477
2015    9       22    18  45    4.7724   656.8    3.427      72.440
2015    9       22    18  52    4.7677   656.9    3.423      72.401
2015    9       22    18  58    4.7631   657.0    3.418      72.363
2015    9       22    19   4    4.7584   657.1    3.414      72.324
2015    9       22    19  10    4.7538   657.2    3.409      72.284
2015    9       22    19  16    4.7492   657.3    3.405      72.245
2015    9       22    19  23    4.7447   657.4    3.401      72.205
2015    9       22    19  29    4.7401   657.5    3.396      72.164
2015    9       22    19  35    4.7356   657.5    3.392      72.124
2015    9       22    19  41    4.7310   657.6    3.387      72.083
2015    9       22    19  48    4.7266   657.7    3.383      72.042
2015    9       22    19  54    4.7221   657.8    3.378      72.001
2015    9       22    20   0    4.7176   657.9    3.374      71.960
2015    9       22    20   6    4.7131   658.0    3.370      71.918
2015    9       22    20  12    4.7087   658.0    3.365      71.877
2015    9       22    20  19    4.7043   658.1    3.361      71.836
2015    9       22    20  25    4.6999   658.2    3.357      71.795
2015    9       22    20  31    4.6955   658.3    3.352      71.753
2015    9       22    20  37    4.6912   658.4    3.348      71.713
2015    9       22    20  44    4.6868   658.4    3.344      71.672
2015    9       22    20  50    4.6825   658.5    3.340      71.631
2015    9       22    20  56    4.6782   658.6    3.336      71.591
2015    9       22    21   2    4.6739   658.6    3.332      71.552
2015    9       22    21   8    4.6696   658.7    3.328      71.513
2015    9       22    21  15    4.6654   658.8    3.324      71.474
2015    9       22    21  21    4.6611   658.8    3.320      71.436
2015    9       22    21  27    4.6569   658.9    3.316      71.400
2015    9       22    21  33    4.6528   659.0    3.313      71.363
2015    9       22    21  40    4.6486   659.0    3.309      71.328
2015    9       22    21  46    4.6444   659.1    3.306      71.294
2015    9       22    21  52    4.6403   659.2    3.302      71.260
2015    9       22    21  58    4.6363   659.2    3.299      71.228
2015    9       22    22   4    4.6322   659.3    3.296      71.197
2015    9       22    22  11    4.6282   659.3    3.293      71.166
2015    9       22    22  17    4.6242   659.4    3.290      71.137
2015    9       22    22  23    4.6202   659.5    3.287      71.108
2015    9       22    22  29    4.6163   659.5    3.284      71.081
2015    9       22    22  36    4.6124   659.6    3.281      71.054
2015    9       22    22  42    4.6085   659.6    3.278      71.027
2015    9       22    22  48    4.6047   659.7    3.276      71.002
2015    9       22    22  54    4.6008   659.8    3.273      70.977
2015    9       22    23   0    4.5970   659.8    3.270      70.953
2015    9       22    23   7    4.5932   659.9    3.268      70.928
2015    9       22    23  13    4.5894   659.9    3.265      70.904
2015    9       22    23  19    4.5856   660.0    3.263      70.880
2015    9       22    23  25    4.5819   660.0    3.261      70.856
2015    9       22    23  32    4.5781   660.1    3.258      70.832
2015    9       22    23  38    4.5744   660.2    3.256      70.807
2015    9       22    23  44    4.5706   660.2    3.253      70.782
2015    9       22    23  50    4.5669   660.3    3.251      70.757
2015    9       22    23  57    4.5632   660.3    3.248      70.731
2015    9       23     0   3    4.5595   660.4    3.246      70.704
2015    9       23     0   9    4.5558   660.4    3.244      70.676
2015    9       23     0  15    4.5521   660.5    3.241      70.649
2015    9       23     0  21    4.5485   660.5    3.239      70.621
2015    9       23     0  28    4.5448   660.6    3.236      70.592
2015    9       23     0  34    4.5412   660.6    3.234      70.563
2015    9       23     0  40    4.5376   660.7    3.231      70.533
2015    9       23     0  46    4.5340   660.7    3.228      70.503
2015    9       23     0  53    4.5304   660.7    3.226      70.473
2015    9       23     0  59    4.5268   660.8    3.223      70.443
2015    9       23     1   5    4.5232   660.8    3.221      70.412
2015    9       23     1  11    4.5197   660.9    3.218      70.381
2015    9       23     1  18    4.5162   660.9    3.216      70.349
2015    9       23     1  24    4.5127   660.9    3.213      70.317
2015    9       23     1  30    4.5092   661.0    3.210      70.285
2015    9       23     1  36    4.5057   661.0    3.208      70.253
2015    9       23     1  42    4.5023   661.0    3.205      70.220
2015    9       23     1  49    4.4989   661.1    3.203      70.188
2015    9       23     1  55    4.4955   661.1    3.200      70.156
2015    9       23     2   1    4.4922   661.1    3.198      70.123
2015    9       23     2   7    4.4888   661.2    3.195      70.091
2015    9       23     2  14    4.4855   661.2    3.193      70.059
2015    9       23     2  20    4.4822   661.2    3.190      70.026
2015    9       23     2  26    4.4789   661.2    3.188      69.995
2015    9       23     2  32    4.4757   661.3    3.185      69.963
2015    9       23     2  38    4.4724   661.3    3.183      69.931
2015    9       23     2  45    4.4692   661.3    3.180      69.900
2015    9       23     2  51    4.4660   661.3    3.178      69.868
2015    9       23     2  57    4.4629   661.3    3.176      69.837
2015    9       23     3   3    4.4597   661.4    3.173      69.806
2015    9       23     3  10    4.4565   661.4    3.171      69.775
2015    9       23     3  16    4.4534   661.4    3.169      69.745
2015    9       23     3  22    4.4503   661.4    3.167      69.714
2015    9       23     3  28    4.4472   661.4    3.164      69.684
2015    9       23     3  35    4.4441   661.5    3.162      69.654
2015    9       23     3  41    4.4410   661.5    3.160      69.624
2015    9       23     3  47    4.4379   661.5    3.158      69.595
2015    9       23     3  53    4.4349   661.5    3.156      69.566
2015    9       23     3  59    4.4318   661.5    3.154      69.536
2015    9       23     4   6    4.4288   661.5    3.152      69.508
2015    9       23     4  12    4.4258   661.5    3.150      69.479
2015    9       23     4  18    4.4228   661.5    3.147      69.451
2015    9       23     4  24    4.4198   661.5    3.145      69.423
2015    9       23     4  31    4.4168   661.5    3.143      69.395
2015    9       23     4  37    4.4139   661.6    3.141      69.368
2015    9       23     4  43    4.4109   661.6    3.139      69.341
2015    9       23     4  49    4.4080   661.6    3.138      69.313
2015    9       23     4  55    4.4051   661.6    3.136      69.287
2015    9       23     5   2    4.4022   661.6    3.134      69.260
2015    9       23     5   8    4.3993   661.6    3.132      69.233
2015    9       23     5  14    4.3965   661.6    3.130      69.207
2015    9       23     5  20    4.3936   661.6    3.128      69.180
2015    9       23     5  26    4.3908   661.6    3.126      69.154
2015    9       23     5  33    4.3880   661.6    3.124      69.127
2015    9       23     5  39    4.3852   661.6    3.122      69.101
2015    9       23     5  45    4.3824   661.6    3.121      69.075
2015    9       23     5  51    4.3797   661.6    3.119      69.048
2015    9       23     5  58    4.3769   661.6    3.117      69.021
2015    9       23     6   4    4.3742   661.6    3.115      68.994
2015    9       23     6  10    4.3715   661.6    3.113      68.967
2015    9       23     6  16    4.3688   661.6    3.112      68.940
2015    9       23     6  22    4.3661   661.6    3.110      68.912
2015    9       23     6  29    4.3635   661.6    3.108      68.885
2015    9       23     6  35    4.3609   661.6    3.106      68.857
2015    9       23     6  41    4.3582   661.6    3.105      68.828
2015    9       23     6  47    4.3556   661.6    3.103      68.800
2015    9       23     6  54    4.3531   661.6    3.101      68.771
2015    9       23     7   0    4.3505   661.6    3.099      68.742
2015    9       23     7   6    4.3479   661.5    3.098      68.713
2015    9       23     7  12    4.3454   661.5    3.096      68.683
2015    9       23     7  19    4.3429   661.5    3.094      68.654
2015    9       23     7  25    4.3404   661.5    3.093      68.624
2015    9       23     7  31    4.3380   661.5    3.091      68.595
2015    9       23     7  37    4.3355   661.5    3.089      68.565
2015    9       23     7  43    4.3331   661.5    3.088      68.536
2015    9       23     7  50    4.3306   661.5    3.086      68.506
2015    9       23     7  56    4.3282   661.5    3.085      68.477
2015    9       23     8   2    4.3258   661.5    3.083      68.448
2015    9       23     8   8    4.3235   661.5    3.082      68.419
2015    9       23     8  15    4.3211   661.5    3.080      68.391
2015    9       23     8  21    4.3187   661.5    3.079      68.363
2015    9       23     8  27    4.3164   661.4    3.077      68.336
2015    9       23     8  33    4.3141   661.4    3.076      68.309
2015    9       23     8  39    4.3118   661.4    3.075      68.282
2015    9       23     8  46    4.3095   661.4    3.074      68.257
2015    9       23     8  52    4.3072   661.4    3.072      68.231
2015    9       23     8  58    4.3050   661.4    3.071      68.207
2015    9       23     9   4    4.3027   661.4    3.070      68.183
2015    9       23     9  11    4.3005   661.4    3.069      68.159
2015    9       23     9  17    4.2983   661.4    3.068      68.137
2015    9       23     9  23    4.2960   661.4    3.067      68.115
2015    9       23     9  29    4.2938   661.3    3.066      68.093
2015    9       23     9  36    4.2916   661.3    3.065      68.072
2015    9       23     9  42    4.2894   661.3    3.064      68.052
2015    9       23     9  48    4.2872   661.3    3.064      68.032
2015    9       23     9  54    4.2850   661.3    3.063      68.012
2015    9       23    10   0    4.2828   661.3    3.062      67.993
2015    9       23    10   7    4.2806   661.3    3.061      67.974
2015    9       23    10  13    4.2784   661.3    3.061      67.956
2015    9       23    10  19    4.2762   661.3    3.060      67.938
2015    9       23    10  25    4.2740   661.3    3.059      67.919
2015    9       23    10  32    4.2718   661.2    3.058      67.902
2015    9       23    10  38    4.2696   661.2    3.057      67.884
2015    9       23    10  44    4.2674   661.2    3.057      67.866
2015    9       23    10  50    4.2652   661.2    3.056      67.848
2015    9       23    10  56    4.2630   661.2    3.055      67.830
2015    9       23    11   3    4.2608   661.2    3.054      67.812
2015    9       23    11   9    4.2587   661.2    3.054      67.794
2015    9       23    11  15    4.2565   661.1    3.053      67.775
2015    9       23    11  21    4.2544   661.1    3.052      67.757
2015    9       23    11  28    4.2523   661.1    3.051      67.738
2015    9       23    11  34    4.2501   661.1    3.050      67.719
2015    9       23    11  40    4.2481   661.1    3.049      67.700
2015    9       23    11  46    4.2460   661.0    3.048      67.680
2015    9       23    11  52    4.2439   661.0    3.047      67.661
2015    9       23    11  59    4.2419   661.0    3.046      67.641
2015    9       23    12   5    4.2399   661.0    3.045      67.621
2015    9       23    12  11    4.2379   660.9    3.044      67.600
2015    9       23    12  17    4.2360   660.9    3.043      67.579
2015    9       23    12  24    4.2340   660.9    3.042      67.559
2015    9       23    12  30    4.2321   660.9    3.041      67.537
2015    9       23    12  36    4.2302   660.8    3.040      67.516
2015    9       23    12  42    4.2284   660.8    3.039      67.494
2015    9       23    12  48    4.2265   660.8    3.038      67.472
2015    9       23    12  55    4.2246   660.7    3.037      67.450
2015    9       23    13   1    4.2228   660.7    3.036      67.427
2015    9       23    13   7    4.2210   660.7    3.035      67.404
2015    9       23    13  13    4.2191   660.6    3.034      67.381
2015    9       23    13  20    4.2173   660.6    3.032      67.357
2015    9       23    13  26    4.2155   660.6    3.031      67.333
2015    9       23    13  32    4.2137   660.5    3.030      67.308
2015    9       23    13  38    4.2119   660.5    3.029      67.283
2015    9       23    13  44    4.2102   660.5    3.028      67.258
2015    9       23    13  51    4.2084   660.4    3.027      67.232
2015    9       23    13  57    4.2066   660.4    3.025      67.206
2015    9       23    14   3    4.2048   660.4    3.024      67.180
2015    9       23    14   9    4.2031   660.3    3.023      67.153
2015    9       23    14  16    4.2013   660.3    3.022      67.126
2015    9       23    14  22    4.1996   660.2    3.021      67.099
2015    9       23    14  28    4.1978   660.2    3.020      67.071
2015    9       23    14  34    4.1961   660.2    3.018      67.043
2015    9       23    14  40    4.1944   660.1    3.017      67.016
2015    9       23    14  47    4.1927   660.1    3.016      66.988
2015    9       23    14  53    4.1910   660.1    3.015      66.960
2015    9       23    14  59    4.1893   660.0    3.014      66.932
2015    9       23    15   5    4.1876   660.0    3.013      66.905
2015    9       23    15  12    4.1859   659.9    3.012      66.877
2015    9       23    15  18    4.1842   659.9    3.011      66.850
2015    9       23    15  24    4.1825   659.9    3.010      66.823
2015    9       23    15  30    4.1809   659.8    3.009      66.797
2015    9       23    15  37    4.1792   659.8    3.008      66.770
2015    9       23    15  43    4.1776   659.7    3.007      66.745
2015    9       23    15  49    4.1760   659.7    3.006      66.720
2015    9       23    15  55    4.1743   659.7    3.005      66.695
2015    9       23    16   1    4.1727   659.6    3.005      66.671
2015    9       23    16   8    4.1711   659.6    3.004      66.647
2015    9       23    16  14    4.1695   659.6    3.003      66.624
2015    9       23    16  20    4.1679   659.5    3.002      66.601
2015    9       23    16  26    4.1663   659.5    3.002      66.579
2015    9       23    16  33    4.1647   659.4    3.001      66.557
2015    9       23    16  39    4.1631   659.4    3.001      66.535
2015    9       23    16  45    4.1615   659.4    3.000      66.514
2015    9       23    16  51    4.1599   659.3    2.999      66.493
2015    9       23    16  58    4.1583   659.3    2.999      66.473
2015    9       23    17   4    4.1567   659.2    2.998      66.452
2015    9       23    17  10    4.1551   659.2    2.998      66.432
2015    9       23    17  16    4.1535   659.2    2.997      66.412
2015    9       23    17  22    4.1520   659.1    2.997      66.392
2015    9       23    17  29    4.1504   659.1    2.996      66.372
2015    9       23    17  35    4.1488   659.0    2.996      66.352
2015    9       23    17  41    4.1472   659.0    2.995      66.332
2015    9       23    17  47    4.1456   659.0    2.995      66.312
2015    9       23    17  54    4.1441   658.9    2.994      66.292
2015    9       23    18   0    4.1425   658.9    2.994      66.273
2015    9       23    18   6    4.1410   658.8    2.993      66.253
2015    9       23    18  12    4.1395   658.8    2.993      66.234
2015    9       23    18  18    4.1380   658.7    2.992      66.215
2015    9       23    18  25    4.1365   658.7    2.992      66.196
2015    9       23    18  31    4.1351   658.6    2.992      66.177
2015    9       23    18  37    4.1337   658.6    2.991      66.160
2015    9       23    18  43    4.1323   658.5    2.991      66.142
2015    9       23    18  50    4.1310   658.5    2.991      66.125
2015    9       23    18  56    4.1297   658.5    2.990      66.108
2015    9       23    19   2    4.1284   658.4    2.990      66.092
2015    9       23    19   8    4.1271   658.4    2.990      66.077
2015    9       23    19  14    4.1259   658.3    2.990      66.062
2015    9       23    19  21    4.1247   658.3    2.990      66.047
2015    9       23    19  27    4.1235   658.2    2.990      66.034
2015    9       23    19  33    4.1223   658.2    2.990      66.020
2015    9       23    19  39    4.1211   658.2    2.990      66.007
2015    9       23    19  46    4.1199   658.1    2.990      65.994
2015    9       23    19  52    4.1187   658.1    2.990      65.981
2015    9       23    19  58    4.1175   658.0    2.990      65.969
2015    9       23    20   4    4.1163   658.0    2.990      65.957
2015    9       23    20  10    4.1151   658.0    2.990      65.944
2015    9       23    20  17    4.1138   657.9    2.991      65.932
2015    9       23    20  23    4.1126   657.9    2.991      65.920
2015    9       23    20  29    4.1113   657.8    2.991      65.907
2015    9       23    20  35    4.1100   657.8    2.991      65.894
2015    9       23    20  42    4.1087   657.8    2.991      65.881
2015    9       23    20  48    4.1074   657.7    2.991      65.868
2015    9       23    20  54    4.1060   657.7    2.990      65.855
2015    9       23    21   0    4.1047   657.6    2.990      65.841
2015    9       23    21   6    4.1034   657.6    2.990      65.827
2015    9       23    21  13    4.1020   657.5    2.990      65.812
2015    9       23    21  19    4.1007   657.5    2.989      65.797
2015    9       23    21  25    4.0993   657.4    2.989      65.781
2015    9       23    21  31    4.0980   657.4    2.989      65.764
2015    9       23    21  38    4.0966   657.3    2.988      65.747
2015    9       23    21  44    4.0953   657.3    2.988      65.730
2015    9       23    21  50    4.0939   657.2    2.987      65.711
2015    9       23    21  56    4.0926   657.2    2.987      65.692
2015    9       23    22   2    4.0913   657.1    2.986      65.673
2015    9       23    22   9    4.0899   657.1    2.986      65.653
2015    9       23    22  15    4.0886   657.0    2.985      65.633
2015    9       23    22  21    4.0873   657.0    2.984      65.612
2015    9       23    22  27    4.0860   656.9    2.984      65.591
2015    9       23    22  34    4.0847   656.9    2.983      65.570
2015    9       23    22  40    4.0834   656.8    2.982      65.548
2015    9       23    22  46    4.0822   656.8    2.982      65.526
2015    9       23    22  52    4.0809   656.7    2.981      65.504
2015    9       23    22  59    4.0796   656.7    2.980      65.482
2015    9       23    23   5    4.0784   656.6    2.980      65.459
2015    9       23    23  11    4.0772   656.6    2.979      65.436
2015    9       23    23  17    4.0760   656.5    2.978      65.413
2015    9       23    23  23    4.0748   656.4    2.978      65.390
2015    9       23    23  30    4.0736   656.4    2.977      65.367
2015    9       23    23  36    4.0724   656.3    2.976      65.343
2015    9       23    23  42    4.0712   656.3    2.975      65.320
2015    9       23    23  48    4.0700   656.2    2.975      65.296
2015    9       23    23  55    4.0689   656.2    2.974      65.272
2015    9       24     0   1    4.0677   656.1    2.973      65.247
2015    9       24     0   7    4.0666   656.0    2.973      65.223
2015    9       24     0  13    4.0655   656.0    2.972      65.198
2015    9       24     0  20    4.0644   655.9    2.971      65.173
2015    9       24     0  26    4.0632   655.8    2.970      65.149
2015    9       24     0  32    4.0621   655.8    2.970      65.124
2015    9       24     0  38    4.0611   655.7    2.969      65.099
2015    9       24     0  44    4.0600   655.7    2.969      65.075
2015    9       24     0  51    4.0590   655.6    2.968      65.051
2015    9       24     0  57    4.0579   655.5    2.968      65.027
2015    9       24     1   3    4.0569   655.5    2.967      65.004
2015    9       24     1   9    4.0559   655.4    2.967      64.981
2015    9       24     1  16    4.0549   655.3    2.966      64.959
2015    9       24     1  22    4.0540   655.3    2.966      64.937
2015    9       24     1  28    4.0530   655.2    2.966      64.917
2015    9       24     1  34    4.0521   655.2    2.965      64.896
2015    9       24     1  40    4.0512   655.1    2.965      64.877
2015    9       24     1  47    4.0502   655.0    2.965      64.858
2015    9       24     1  53    4.0493   655.0    2.965      64.840
2015    9       24     1  59    4.0484   654.9    2.965      64.822
2015    9       24     2   5    4.0475   654.9    2.965      64.805
2015    9       24     2  12    4.0466   654.8    2.965      64.788
2015    9       24     2  18    4.0456   654.8    2.965      64.772
2015    9       24     2  24    4.0447   654.7    2.965      64.756
2015    9       24     2  30    4.0437   654.7    2.965      64.740
2015    9       24     2  36    4.0427   654.6    2.965      64.725
2015    9       24     2  43    4.0417   654.6    2.965      64.709
2015    9       24     2  49    4.0407   654.5    2.966      64.694
2015    9       24     2  55    4.0397   654.5    2.966      64.678
2015    9       24     3   1    4.0386   654.4    2.966      64.663
2015    9       24     3   8    4.0376   654.3    2.966      64.647
2015    9       24     3  14    4.0365   654.3    2.966      64.632
2015    9       24     3  20    4.0354   654.2    2.966      64.616
2015    9       24     3  26    4.0343   654.2    2.966      64.600
2015    9       24     3  32    4.0332   654.1    2.966      64.583
2015    9       24     3  39    4.0320   654.1    2.966      64.567
2015    9       24     3  45    4.0309   654.0    2.966      64.551
2015    9       24     3  51    4.0298   653.9    2.966      64.534
2015    9       24     3  57    4.0287   653.9    2.966      64.519
2015    9       24     4   4    4.0275   653.8    2.966      64.503
2015    9       24     4  10    4.0264   653.8    2.966      64.487
2015    9       24     4  16    4.0253   653.7    2.966      64.472
2015    9       24     4  22    4.0243   653.6    2.967      64.457
2015    9       24     4  28    4.0232   653.6    2.967      64.442
2015    9       24     4  35    4.0221   653.5    2.967      64.428
2015    9       24     4  41    4.0211   653.5    2.967      64.414
2015    9       24     4  47    4.0200   653.4    2.967      64.400
2015    9       24     4  53    4.0190   653.3    2.967      64.386
2015    9       24     5   0    4.0180   653.3    2.967      64.373
2015    9       24     5   6    4.0170   653.2    2.968      64.359
2015    9       24     5  12    4.0160   653.2    2.968      64.346
2015    9       24     5  18    4.0150   653.1    2.968      64.332
2015    9       24     5  24    4.0141   653.0    2.968      64.319
2015    9       24     5  31    4.0131   653.0    2.968      64.305
2015    9       24     5  37    4.0121   652.9    2.968      64.291
2015    9       24     5  43    4.0112   652.8    2.968      64.277
2015    9       24     5  49    4.0102   652.8    2.968      64.262
2015    9       24     5  56    4.0093   652.7    2.968      64.247
2015    9       24     6   2    4.0084   652.7    2.968      64.232
2015    9       24     6   8    4.0075   652.6    2.968      64.216
2015    9       24     6  14    4.0066   652.5    2.968      64.200
2015    9       24     6  21    4.0057   652.5    2.968      64.184
2015    9       24     6  27    4.0048   652.4    2.968      64.167
2015    9       24     6  33    4.0039   652.3    2.967      64.150
2015    9       24     6  39    4.0030   652.3    2.967      64.132
2015    9       24     6  45    4.0022   652.2    2.967      64.114
2015    9       24     6  52    4.0014   652.1    2.967      64.096
2015    9       24     6  58    4.0005   652.1    2.966      64.077
2015    9       24     7   4    3.9997   652.0    2.966      64.059
2015    9       24     7  10    3.9989   651.9    2.966      64.040
2015    9       24     7  17    3.9981   651.9    2.965      64.021
2015    9       24     7  23    3.9973   651.8    2.965      64.002
2015    9       24     7  29    3.9966   651.7    2.965      63.983
2015    9       24     7  35    3.9958   651.7    2.965      63.964
2015    9       24     7  41    3.9949   651.6    2.964      63.945
2015    9       24     7  48    3.9942   651.5    2.964      63.926
2015    9       24     7  54    3.9934   651.5    2.964      63.907
2015    9       24     8   0    3.9926   651.4    2.963      63.888
2015    9       24     8   6    3.9917   651.3    2.963      63.869
2015    9       24     8  13    3.9909   651.3    2.963      63.850
2015    9       24     8  19    3.9901   651.2    2.963      63.831
2015    9       24     8  25    3.9893   651.2    2.962      63.812
2015    9       24     8  31    3.9885   651.1    2.962      63.794
2015    9       24     8  38    3.9876   651.0    2.962      63.775
2015    9       24     8  44    3.9868   651.0    2.961      63.756
2015    9       24     8  50    3.9860   650.9    2.961      63.737
2015    9       24     8  56    3.9851   650.8    2.961      63.718
2015    9       24     9   2    3.9842   650.8    2.960      63.698
2015    9       24     9   9    3.9833   650.7    2.960      63.679
2015    9       24     9  15    3.9824   650.6    2.959      63.658
2015    9       24     9  21    3.9815   650.6    2.959      63.638
2015    9       24     9  27    3.9806   650.5    2.959      63.617
2015    9       24     9  34    3.9796   650.5    2.958      63.596
2015    9       24     9  40    3.9787   650.4    2.958      63.574
2015    9       24     9  46    3.9777   650.3    2.958      63.551
2015    9       24     9  52    3.9768   650.3    2.957      63.529
2015    9       24     9  58    3.9758   650.2    2.957      63.506
2015    9       24    10   5    3.9748   650.1    2.956      63.482
2015    9       24    10  11    3.9738   650.0    2.956      63.459
2015    9       24    10  17    3.9728   650.0    2.955      63.434
2015    9       24    10  23    3.9718   649.9    2.955      63.410
2015    9       24    10  30    3.9709   649.8    2.955      63.386
2015    9       24    10  36    3.9699   649.7    2.954      63.362
2015    9       24    10  42    3.9689   649.7    2.954      63.338
2015    9       24    10  48    3.9680   649.6    2.954      63.315
2015    9       24    10  54    3.9670   649.5    2.954      63.292
2015    9       24    11   1    3.9661   649.4    2.953      63.270
2015    9       24    11   7    3.9652   649.4    2.953      63.249
2015    9       24    11  13    3.9643   649.3    2.953      63.228
2015    9       24    11  19    3.9635   649.2    2.953      63.209
2015    9       24    11  26    3.9626   649.1    2.954      63.190
2015    9       24    11  32    3.9618   649.0    2.954      63.172
2015    9       24    11  38    3.9610   649.0    2.954      63.155
2015    9       24    11  44    3.9602   648.9    2.954      63.139
2015    9       24    11  50    3.9595   648.8    2.955      63.124
2015    9       24    11  57    3.9588   648.8    2.955      63.109
2015    9       24    12   3    3.9580   648.7    2.956      63.095
2015    9       24    12   9    3.9573   648.6    2.956      63.081
2015    9       24    12  15    3.9566   648.5    2.956      63.069
2015    9       24    12  22    3.9559   648.5    2.957      63.056
2015    9       24    12  28    3.9552   648.4    2.957      63.043
2015    9       24    12  34    3.9545   648.3    2.958      63.031
2015    9       24    12  40    3.9538   648.2    2.958      63.019
2015    9       24    12  46    3.9531   648.2    2.958      63.006
2015    9       24    12  53    3.9524   648.1    2.959      62.993
2015    9       24    12  59    3.9518   648.0    2.959      62.980
2015    9       24    13   5    3.9511   647.9    2.959      62.967
2015    9       24    13  11    3.9504   647.9    2.960      62.953
2015    9       24    13  18    3.9497   647.8    2.960      62.939
2015    9       24    13  24    3.9490   647.7    2.960      62.925
2015    9       24    13  30    3.9483   647.7    2.961      62.910
2015    9       24    13  36    3.9476   647.6    2.961      62.895
2015    9       24    13  43    3.9469   647.5    2.961      62.880
2015    9       24    13  49    3.9462   647.4    2.961      62.865
2015    9       24    13  55    3.9455   647.4    2.961      62.850
2015    9       24    14   1    3.9448   647.3    2.961      62.835
2015    9       24    14   7    3.9442   647.2    2.962      62.819
2015    9       24    14  14    3.9434   647.1    2.962      62.804
2015    9       24    14  20    3.9427   647.1    2.962      62.789
2015    9       24    14  26    3.9420   647.0    2.962      62.774
2015    9       24    14  32    3.9413   646.9    2.962      62.759
2015    9       24    14  39    3.9405   646.9    2.962      62.745
2015    9       24    14  45    3.9398   646.8    2.963      62.730
2015    9       24    14  51    3.9390   646.7    2.963      62.715
2015    9       24    14  57    3.9382   646.7    2.963      62.701
2015    9       24    15   4    3.9374   646.6    2.963      62.687
2015    9       24    15  10    3.9366   646.5    2.963      62.672
2015    9       24    15  16    3.9358   646.5    2.963      62.658
2015    9       24    15  22    3.9350   646.4    2.964      62.644
2015    9       24    15  28    3.9341   646.3    2.964      62.629
2015    9       24    15  35    3.9333   646.3    2.964      62.614
2015    9       24    15  41    3.9324   646.2    2.964      62.600
2015    9       24    15  47    3.9315   646.1    2.964      62.585
2015    9       24    15  53    3.9306   646.1    2.964      62.569
2015    9       24    16   0    3.9298   646.0    2.964      62.554
2015    9       24    16   6    3.9289   645.9    2.964      62.538
2015    9       24    16  12    3.9280   645.8    2.964      62.523
2015    9       24    16  18    3.9271   645.8    2.965      62.507
2015    9       24    16  24    3.9262   645.7    2.965      62.490
2015    9       24    16  31    3.9253   645.6    2.965      62.474
2015    9       24    16  37    3.9244   645.6    2.964      62.457
2015    9       24    16  43    3.9236   645.5    2.964      62.441
2015    9       24    16  49    3.9227   645.4    2.964      62.424
2015    9       24    16  56    3.9218   645.3    2.964      62.406
2015    9       24    17   2    3.9210   645.3    2.964      62.389
2015    9       24    17   8    3.9201   645.2    2.964      62.371
2015    9       24    17  14    3.9193   645.1    2.964      62.354
2015    9       24    17  20    3.9184   645.0    2.964      62.336
2015    9       24    17  27    3.9176   645.0    2.964      62.318
2015    9       24    17  33    3.9168   644.9    2.963      62.300
2015    9       24    17  39    3.9160   644.8    2.963      62.282
2015    9       24    17  45    3.9152   644.7    2.963      62.264
2015    9       24    17  52    3.9144   644.6    2.963      62.246
2015    9       24    17  58    3.9136   644.6    2.963      62.227
2015    9       24    18   4    3.9129   644.5    2.963      62.209
2015    9       24    18  10    3.9121   644.4    2.963      62.191
2015    9       24    18  16    3.9114   644.3    2.963      62.172
2015    9       24    18  23    3.9107   644.2    2.963      62.154
2015    9       24    18  29    3.9099   644.2    2.963      62.136
2015    9       24    18  35    3.9093   644.1    2.963      62.118
2015    9       24    18  41    3.9086   644.0    2.963      62.100
2015    9       24    18  48    3.9079   643.9    2.963      62.081
2015    9       24    18  54    3.9072   643.8    2.963      62.064
2015    9       24    19   0    3.9066   643.8    2.963      62.046
2015    9       24    19   6    3.9059   643.7    2.963      62.029
2015    9       24    19  12    3.9053   643.6    2.964      62.011
2015    9       24    19  19    3.9047   643.5    2.964      61.995
2015    9       24    19  25    3.9041   643.4    2.964      61.978
2015    9       24    19  31    3.9035   643.3    2.965      61.962
2015    9       24    19  37    3.9029   643.3    2.965      61.946
2015    9       24    19  44    3.9023   643.2    2.966      61.931
2015    9       24    19  50    3.9018   643.1    2.966      61.916
2015    9       24    19  56    3.9012   643.0    2.967      61.901
2015    9       24    20   2    3.9006   642.9    2.967      61.887
2015    9       24    20   8    3.9001   642.9    2.968      61.874
2015    9       24    20  15    3.8995   642.8    2.968      61.861
2015    9       24    20  21    3.8989   642.7    2.969      61.848
2015    9       24    20  27    3.8983   642.6    2.969      61.835
2015    9       24    20  33    3.8977   642.5    2.970      61.822
2015    9       24    20  40    3.8970   642.4    2.970      61.810
2015    9       24    20  46    3.8964   642.4    2.970      61.798
2015    9       24    20  52    3.8958   642.3    2.971      61.786
2015    9       24    20  58    3.8951   642.2    2.971      61.774
2015    9       24    21   5    3.8945   642.1    2.971      61.761
2015    9       24    21  11    3.8938   642.0    2.971      61.748
2015    9       24    21  17    3.8931   642.0    2.972      61.734
2015    9       24    21  23    3.8925   641.9    2.972      61.719
2015    9       24    21  29    3.8918   641.8    2.972      61.703
2015    9       24    21  36    3.8911   641.7    2.972      61.687
2015    9       24    21  42    3.8904   641.6    2.972      61.671
2015    9       24    21  48    3.8897   641.5    2.972      61.654
2015    9       24    21  54    3.8890   641.5    2.972      61.636
2015    9       24    22   1    3.8883   641.4    2.973      61.618
2015    9       24    22   7    3.8875   641.3    2.973      61.599
2015    9       24    22  13    3.8868   641.2    2.973      61.581
2015    9       24    22  19    3.8860   641.1    2.973      61.561
2015    9       24    22  26    3.8852   641.1    2.973      61.541
2015    9       24    22  32    3.8845   641.0    2.973      61.521
2015    9       24    22  38    3.8837   640.9    2.973      61.501
2015    9       24    22  44    3.8829   640.8    2.973      61.480
2015    9       24    22  50    3.8821   640.7    2.973      61.460
2015    9       24    22  57    3.8813   640.6    2.973      61.439
2015    9       24    23   3    3.8805   640.5    2.974      61.418
2015    9       24    23   9    3.8797   640.5    2.974      61.397
2015    9       24    23  15    3.8789   640.4    2.974      61.377
2015    9       24    23  22    3.8782   640.3    2.974      61.357
2015    9       24    23  28    3.8774   640.2    2.975      61.338
2015    9       24    23  34    3.8766   640.1    2.975      61.319
2015    9       24    23  40    3.8759   640.0    2.975      61.301
2015    9       24    23  46    3.8752   639.9    2.976      61.284
2015    9       24    23  53    3.8745   639.8    2.976      61.268
2015    9       24    23  59    3.8738   639.8    2.977      61.254
2015    9       25     0   5    3.8731   639.7    2.978      61.240
2015    9       25     0  11    3.8725   639.6    2.978      61.228
2015    9       25     0  18    3.8719   639.5    2.979      61.217
2015    9       25     0  24    3.8713   639.4    2.980      61.206
2015    9       25     0  30    3.8707   639.3    2.981      61.197
2015    9       25     0  36    3.8702   639.3    2.982      61.190
2015    9       25     0  42    3.8696   639.2    2.983      61.183
2015    9       25     0  49    3.8691   639.1    2.984      61.176
2015    9       25     0  55    3.8685   639.0    2.984      61.171
2015    9       25     1   1    3.8680   638.9    2.985      61.165
2015    9       25     1   7    3.8675   638.8    2.986      61.161
2015    9       25     1  14    3.8669   638.8    2.987      61.157
2015    9       25     1  20    3.8664   638.7    2.988      61.152
2015    9       25     1  26    3.8658   638.6    2.988      61.148
2015    9       25     1  32    3.8652   638.5    2.989      61.143
2015    9       25     1  38    3.8647   638.4    2.989      61.137
2015    9       25     1  45    3.8641   638.3    2.990      61.129
2015    9       25     1  51    3.8636   638.3    2.990      61.121
2015    9       25     1  57    3.8630   638.2    2.991      61.112
2015    9       25     2   3    3.8624   638.1    2.991      61.102
2015    9       25     2  10    3.8619   638.0    2.992      61.092
2015    9       25     2  16    3.8613   637.9    2.992      61.080
2015    9       25     2  22    3.8608   637.8    2.993      61.068
2015    9       25     2  28    3.8603   637.7    2.993      61.055
2015    9       25     2  34    3.8598   637.7    2.993      61.042
2015    9       25     2  41    3.8592   637.6    2.994      61.028
2015    9       25     2  47    3.8587   637.5    2.994      61.014
2015    9       25     2  53    3.8582   637.4    2.995      61.000
2015    9       25     2  59    3.8577   637.3    2.995      60.986
2015    9       25     3   6    3.8572   637.2    2.996      60.972
2015    9       25     3  12    3.8567   637.2    2.996      60.958
2015    9       25     3  18    3.8561   637.1    2.997      60.943
2015    9       25     3  24    3.8556   637.0    2.997      60.929
2015    9       25     3  31    3.8550   636.9    2.998      60.914
2015    9       25     3  37    3.8544   636.8    2.998      60.899
2015    9       25     3  43    3.8538   636.8    2.999      60.884
2015    9       25     3  49    3.8532   636.7    2.999      60.869
2015    9       25     3  55    3.8526   636.6    2.999      60.854
2015    9       25     4   2    3.8519   636.5    3.000      60.839
2015    9       25     4   8    3.8513   636.4    3.000      60.824
2015    9       25     4  14    3.8507   636.3    3.000      60.809
2015    9       25     4  20    3.8500   636.3    3.001      60.794
2015    9       25     4  27    3.8494   636.2    3.001      60.778
2015    9       25     4  33    3.8487   636.1    3.001      60.762
2015    9       25     4  39    3.8481   636.0    3.001      60.745
2015    9       25     4  45    3.8474   635.9    3.002      60.728
2015    9       25     4  51    3.8467   635.8    3.002      60.711
2015    9       25     4  58    3.8461   635.8    3.002      60.694
2015    9       25     5   4    3.8454   635.7    3.002      60.675
2015    9       25     5  10    3.8448   635.6    3.002      60.657
2015    9       25     5  16    3.8441   635.5    3.002      60.638
2015    9       25     5  23    3.8435   635.4    3.002      60.619
2015    9       25     5  29    3.8428   635.3    3.002      60.600
2015    9       25     5  35    3.8421   635.2    3.002      60.580
2015    9       25     5  41    3.8415   635.2    3.002      60.560
2015    9       25     5  48    3.8408   635.1    3.002      60.540
2015    9       25     5  54    3.8401   635.0    3.002      60.519
2015    9       25     6   0    3.8395   634.9    3.002      60.498
2015    9       25     6   6    3.8388   634.8    3.002      60.477
2015    9       25     6  12    3.8382   634.7    3.002      60.456
2015    9       25     6  19    3.8375   634.6    3.003      60.435
2015    9       25     6  25    3.8369   634.5    3.003      60.414
2015    9       25     6  31    3.8362   634.5    3.003      60.394
2015    9       25     6  37    3.8356   634.4    3.003      60.373
2015    9       25     6  44    3.8350   634.3    3.003      60.353
2015    9       25     6  50    3.8344   634.2    3.003      60.334
2015    9       25     6  56    3.8338   634.1    3.003      60.315
2015    9       25     7   2    3.8332   634.0    3.004      60.297
2015    9       25     7   8    3.8326   633.9    3.004      60.279
2015    9       25     7  15    3.8320   633.8    3.004      60.262
2015    9       25     7  21    3.8315   633.7    3.005      60.246
2015    9       25     7  27    3.8310   633.6    3.005      60.231
2015    9       25     7  33    3.8304   633.6    3.006      60.217
2015    9       25     7  40    3.8299   633.5    3.006      60.204
2015    9       25     7  46    3.8295   633.4    3.007      60.191
2015    9       25     7  52    3.8289   633.3    3.008      60.180
2015    9       25     7  58    3.8285   633.2    3.008      60.169
2015    9       25     8   4    3.8280   633.1    3.009      60.159
2015    9       25     8  11    3.8275   633.1    3.010      60.150
2015    9       25     8  17    3.8270   633.0    3.011      60.141
2015    9       25     8  23    3.8264   632.9    3.012      60.133
2015    9       25     8  29    3.8259   632.8    3.012      60.125
2015    9       25     8  36    3.8254   632.7    3.013      60.118
2015    9       25     8  42    3.8248   632.7    3.014      60.111
2015    9       25     8  48    3.8243   632.6    3.014      60.105
2015    9       25     8  54    3.8237   632.5    3.015      60.098
2015    9       25     9   0    3.8231   632.4    3.015      60.091
2015    9       25     9   7    3.8225   632.3    3.016      60.083
2015    9       25     9  13    3.8219   632.3    3.016      60.074
2015    9       25     9  19    3.8213   632.2    3.017      60.064
2015    9       25     9  25    3.8207   632.1    3.017      60.054
2015    9       25     9  32    3.8201   632.0    3.018      60.043
2015    9       25     9  38    3.8195   631.9    3.018      60.031
2015    9       25     9  44    3.8189   631.9    3.018      60.018
2015    9       25     9  50    3.8182   631.8    3.018      60.005
2015    9       25     9  56    3.8176   631.7    3.019      59.991
2015    9       25    10   3    3.8170   631.6    3.019      59.976
2015    9       25    10   9    3.8163   631.5    3.019      59.960
2015    9       25    10  15    3.8156   631.5    3.019      59.944
2015    9       25    10  21    3.8150   631.4    3.019      59.927
2015    9       25    10  28    3.8143   631.3    3.020      59.909
2015    9       25    10  34    3.8136   631.2    3.020      59.891
2015    9       25    10  40    3.8129   631.1    3.020      59.873
2015    9       25    10  46    3.8122   631.0    3.020      59.853
2015    9       25    10  53    3.8114   630.9    3.020      59.834
2015    9       25    10  59    3.8107   630.9    3.020      59.814
2015    9       25    11   5    3.8100   630.8    3.020      59.794
2015    9       25    11  11    3.8093   630.7    3.021      59.774
2015    9       25    11  17    3.8085   630.6    3.021      59.753
2015    9       25    11  24    3.8078   630.5    3.021      59.733
2015    9       25    11  30    3.8071   630.4    3.021      59.712
2015    9       25    11  36    3.8064   630.3    3.022      59.691
2015    9       25    11  42    3.8056   630.2    3.022      59.671
2015    9       25    11  49    3.8049   630.1    3.022      59.651
2015    9       25    11  55    3.8042   630.0    3.023      59.631
2015    9       25    12   1    3.8035   629.9    3.023      59.612
2015    9       25    12   7    3.8028   629.9    3.023      59.593
2015    9       25    12  14    3.8021   629.8    3.024      59.574
2015    9       25    12  20    3.8014   629.7    3.024      59.555
2015    9       25    12  26    3.8007   629.6    3.025      59.537
2015    9       25    12  32    3.8000   629.5    3.025      59.520
2015    9       25    12  38    3.7994   629.4    3.026      59.503
2015    9       25    12  45    3.7987   629.3    3.026      59.486
2015    9       25    12  51    3.7980   629.2    3.027      59.470
2015    9       25    12  57    3.7973   629.1    3.028      59.454
2015    9       25    13   3    3.7967   629.0    3.028      59.438
2015    9       25    13  10    3.7960   628.9    3.029      59.423
2015    9       25    13  16    3.7953   628.8    3.029      59.409
2015    9       25    13  22    3.7946   628.8    3.030      59.395
2015    9       25    13  28    3.7940   628.7    3.030      59.380
2015    9       25    13  34    3.7933   628.6    3.030      59.366
2015    9       25    13  41    3.7926   628.5    3.031      59.352
2015    9       25    13  47    3.7919   628.4    3.031      59.338
2015    9       25    13  53    3.7912   628.3    3.031      59.323
2015    9       25    13  59    3.7905   628.2    3.032      59.308
2015    9       25    14   6    3.7898   628.1    3.032      59.292
2015    9       25    14  12    3.7891   628.0    3.032      59.276
2015    9       25    14  18    3.7884   628.0    3.032      59.260
2015    9       25    14  24    3.7877   627.9    3.032      59.243
2015    9       25    14  30    3.7869   627.8    3.032      59.226
2015    9       25    14  37    3.7862   627.7    3.032      59.208
2015    9       25    14  43    3.7855   627.6    3.032      59.190
2015    9       25    14  49    3.7848   627.5    3.032      59.171
2015    9       25    14  55    3.7840   627.4    3.032      59.152
2015    9       25    15   2    3.7833   627.4    3.032      59.133
2015    9       25    15   8    3.7825   627.3    3.032      59.113
2015    9       25    15  14    3.7818   627.2    3.032      59.093
2015    9       25    15  20    3.7810   627.1    3.032      59.072
2015    9       25    15  26    3.7802   627.0    3.032      59.051
2015    9       25    15  33    3.7795   626.9    3.032      59.030
2015    9       25    15  39    3.7787   626.8    3.032      59.009
2015    9       25    15  45    3.7779   626.8    3.031      58.987
2015    9       25    15  51    3.7771   626.7    3.031      58.966
2015    9       25    15  58    3.7763   626.6    3.031      58.944
2015    9       25    16   4    3.7754   626.5    3.031      58.922
2015    9       25    16  10    3.7746   626.4    3.031      58.900
2015    9       25    16  16    3.7738   626.3    3.031      58.878
2015    9       25    16  22    3.7729   626.2    3.031      58.855
2015    9       25    16  29    3.7721   626.1    3.030      58.834
2015    9       25    16  35    3.7712   626.1    3.030      58.812
2015    9       25    16  41    3.7704   626.0    3.030      58.790
2015    9       25    16  47    3.7695   625.9    3.030      58.768
2015    9       25    16  54    3.7686   625.8    3.030      58.746
2015    9       25    17   0    3.7677   625.7    3.030      58.725
2015    9       25    17   6    3.7669   625.6    3.030      58.704
2015    9       25    17  12    3.7660   625.5    3.030      58.683
2015    9       25    17  18    3.7651   625.4    3.030      58.662
2015    9       25    17  25    3.7642   625.3    3.030      58.641
2015    9       25    17  31    3.7633   625.2    3.030      58.621
2015    9       25    17  37    3.7624   625.1    3.030      58.600
2015    9       25    17  43    3.7616   625.0    3.030      58.581
2015    9       25    17  50    3.7607   624.9    3.031      58.561
2015    9       25    17  56    3.7598   624.8    3.031      58.542
2015    9       25    18   2    3.7589   624.7    3.031      58.522
2015    9       25    18   8    3.7580   624.6    3.031      58.504
2015    9       25    18  15    3.7571   624.5    3.032      58.485
2015    9       25    18  21    3.7563   624.4    3.032      58.466
2015    9       25    18  27    3.7554   624.3    3.032      58.448
2015    9       25    18  33    3.7545   624.2    3.033      58.430
2015    9       25    18  39    3.7536   624.1    3.033      58.412
2015    9       25    18  46    3.7527   624.0    3.034      58.394
2015    9       25    18  52    3.7519   623.9    3.034      58.377
2015    9       25    18  58    3.7510   623.8    3.035      58.359
2015    9       25    19   4    3.7501   623.7    3.035      58.342
2015    9       25    19  11    3.7492   623.6    3.036      58.325
2015    9       25    19  17    3.7484   623.5    3.036      58.308
2015    9       25    19  23    3.7475   623.4    3.037      58.292
2015    9       25    19  29    3.7466   623.3    3.037      58.275
2015    9       25    19  36    3.7458   623.2    3.038      58.259
2015    9       25    19  42    3.7449   623.1    3.039      58.242
2015    9       25    19  48    3.7441   623.0    3.039      58.226
2015    9       25    19  54    3.7432   622.9    3.040      58.210
2015    9       25    20   0    3.7424   622.8    3.041      58.194
2015    9       25    20   7    3.7415   622.7    3.041      58.177
2015    9       25    20  13    3.7406   622.6    3.042      58.160
2015    9       25    20  19    3.7397   622.5    3.042      58.144
2015    9       25    20  25    3.7388   622.4    3.043      58.127
2015    9       25    20  32    3.7379   622.3    3.043      58.109
2015    9       25    20  38    3.7370   622.2    3.044      58.092
2015    9       25    20  44    3.7361   622.1    3.044      58.074
2015    9       25    20  50    3.7351   622.0    3.045      58.056
2015    9       25    20  57    3.7342   621.9    3.045      58.038
2015    9       25    21   3    3.7332   621.8    3.045      58.018
2015    9       25    21   9    3.7323   621.7    3.046      57.999
2015    9       25    21  15    3.7313   621.6    3.046      57.978
2015    9       25    21  21    3.7304   621.5    3.046      57.957
2015    9       25    21  28    3.7294   621.4    3.046      57.936
2015    9       25    21  34    3.7284   621.3    3.046      57.913
2015    9       25    21  40    3.7275   621.2    3.046      57.891
2015    9       25    21  46    3.7265   621.1    3.046      57.867
2015    9       25    21  52    3.7255   621.0    3.046      57.844
2015    9       25    21  59    3.7245   620.9    3.046      57.819
2015    9       25    22   5    3.7235   620.8    3.046      57.795
2015    9       25    22  11    3.7226   620.7    3.046      57.770
2015    9       25    22  17    3.7216   620.6    3.046      57.745
2015    9       25    22  24    3.7206   620.5    3.046      57.719
2015    9       25    22  30    3.7196   620.4    3.046      57.694
2015    9       25    22  36    3.7186   620.3    3.046      57.668
2015    9       25    22  42    3.7177   620.2    3.046      57.642
2015    9       25    22  48    3.7167   620.1    3.046      57.617
2015    9       25    22  55    3.7157   620.0    3.046      57.591
2015    9       25    23   1    3.7148   619.9    3.046      57.566
2015    9       25    23   7    3.7138   619.7    3.046      57.541
2015    9       25    23  13    3.7128   619.6    3.046      57.516
2015    9       25    23  20    3.7119   619.5    3.046      57.491
2015    9       25    23  26    3.7109   619.4    3.046      57.467
2015    9       25    23  32    3.7099   619.3    3.046      57.442
2015    9       25    23  38    3.7089   619.2    3.046      57.418
2015    9       25    23  44    3.7079   619.1    3.046      57.394
2015    9       25    23  51    3.7069   619.0    3.046      57.370
2015    9       25    23  57    3.7058   618.9    3.046      57.347
2015    9       26     0   3    3.7048   618.8    3.046      57.324
2015    9       26     0   9    3.7038   618.7    3.046      57.300
2015    9       26     0  16    3.7027   618.6    3.046      57.277
2015    9       26     0  22    3.7017   618.5    3.046      57.254
2015    9       26     0  28    3.7006   618.4    3.046      57.230
2015    9       26     0  34    3.6996   618.3    3.046      57.206
2015    9       26     0  41    3.6985   618.1    3.046      57.182
2015    9       26     0  47    3.6975   618.0    3.046      57.159
2015    9       26     0  53    3.6964   617.9    3.046      57.135
2015    9       26     0  59    3.6953   617.8    3.046      57.111
2015    9       26     1   5    3.6942   617.7    3.046      57.087
2015    9       26     1  12    3.6932   617.6    3.046      57.064
2015    9       26     1  18    3.6921   617.5    3.046      57.040
2015    9       26     1  24    3.6910   617.4    3.046      57.016
2015    9       26     1  30    3.6899   617.3    3.046      56.992
2015    9       26     1  37    3.6888   617.2    3.046      56.969
2015    9       26     1  43    3.6877   617.1    3.046      56.945
2015    9       26     1  49    3.6866   616.9    3.046      56.922
2015    9       26     1  55    3.6855   616.8    3.046      56.898
2015    9       26     2   1    3.6844   616.7    3.046      56.874
2015    9       26     2   8    3.6833   616.6    3.046      56.851
2015    9       26     2  14    3.6822   616.5    3.046      56.828
2015    9       26     2  20    3.6810   616.4    3.046      56.804
2015    9       26     2  26    3.6799   616.3    3.046      56.781
2015    9       26     2  33    3.6788   616.2    3.046      56.758
2015    9       26     2  39    3.6777   616.1    3.046      56.735
2015    9       26     2  45    3.6765   615.9    3.046      56.712
2015    9       26     2  51    3.6754   615.8    3.047      56.690
2015    9       26     2  58    3.6742   615.7    3.047      56.667
2015    9       26     3   4    3.6731   615.6    3.047      56.645
2015    9       26     3  10    3.6719   615.5    3.047      56.623
2015    9       26     3  16    3.6708   615.4    3.047      56.601
2015    9       26     3  22    3.6696   615.3    3.048      56.579
2015    9       26     3  29    3.6685   615.1    3.048      56.557
2015    9       26     3  35    3.6673   615.0    3.048      56.535
2015    9       26     3  41    3.6662   614.9    3.049      56.513
2015    9       26     3  47    3.6650   614.8    3.049      56.491
2015    9       26     3  54    3.6638   614.7    3.049      56.469
2015    9       26     4   0    3.6627   614.6    3.050      56.447
2015    9       26     4   6    3.6615   614.4    3.050      56.425
2015    9       26     4  12    3.6603   614.3    3.051      56.403
2015    9       26     4  19    3.6592   614.2    3.051      56.381
2015    9       26     4  25    3.6580   614.1    3.052      56.358
2015    9       26     4  31    3.6569   614.0    3.052      56.336
2015    9       26     4  37    3.6557   613.8    3.052      56.313
2015    9       26     4  43    3.6546   613.7    3.053      56.290
2015    9       26     4  50    3.6534   613.6    3.053      56.267
2015    9       26     4  56    3.6523   613.5    3.054      56.244
2015    9       26     5   2    3.6512   613.3    3.054      56.221
2015    9       26     5   8    3.6500   613.2    3.055      56.198
2015    9       26     5  15    3.6489   613.1    3.055      56.175
2015    9       26     5  21    3.6478   613.0    3.056      56.152
2015    9       26     5  27    3.6467   612.8    3.056      56.128
2015    9       26     5  33    3.6456   612.7    3.057      56.105
2015    9       26     5  39    3.6445   612.6    3.057      56.082
2015    9       26     5  46    3.6435   612.5    3.058      56.059
2015    9       26     5  52    3.6424   612.3    3.058      56.036
2015    9       26     5  58    3.6413   612.2    3.059      56.013
2015    9       26     6   4    3.6402   612.1    3.059      55.989
2015    9       26     6  11    3.6392   612.0    3.060      55.966
2015    9       26     6  17    3.6381   611.8    3.060      55.943
2015    9       26     6  23    3.6371   611.7    3.060      55.920
2015    9       26     6  29    3.6360   611.6    3.061      55.897
2015    9       26     6  35    3.6350   611.5    3.061      55.873
2015    9       26     6  42    3.6339   611.3    3.062      55.850
2015    9       26     6  48    3.6329   611.2    3.062      55.827
2015    9       26     6  54    3.6318   611.1    3.062      55.803
2015    9       26     7   0    3.6307   611.0    3.063      55.780
2015    9       26     7   7    3.6296   610.8    3.063      55.756
2015    9       26     7  13    3.6285   610.7    3.063      55.732
2015    9       26     7  19    3.6274   610.6    3.063      55.708
2015    9       26     7  25    3.6263   610.5    3.064      55.683
2015    9       26     7  31    3.6251   610.3    3.064      55.657
2015    9       26     7  38    3.6240   610.2    3.064      55.631
2015    9       26     7  44    3.6228   610.1    3.064      55.604
2015    9       26     7  50    3.6216   610.0    3.064      55.577
2015    9       26     7  56    3.6205   609.8    3.064      55.549
2015    9       26     8   3    3.6193   609.7    3.064      55.520
2015    9       26     8   9    3.6181   609.6    3.063      55.492
2015    9       26     8  15    3.6169   609.5    3.063      55.462
2015    9       26     8  21    3.6157   609.4    3.063      55.432
2015    9       26     8  27    3.6145   609.2    3.063      55.403
2015    9       26     8  34    3.6132   609.1    3.063      55.372
2015    9       26     8  40    3.6120   609.0    3.063      55.341
2015    9       26     8  46    3.6107   608.9    3.062      55.310
2015    9       26     8  52    3.6095   608.7    3.062      55.279
2015    9       26     8  59    3.6083   608.6    3.062      55.247
2015    9       26     9   5    3.6070   608.5    3.061      55.215
2015    9       26     9  11    3.6057   608.3    3.061      55.184
2015    9       26     9  17    3.6045   608.2    3.061      55.152
2015    9       26     9  24    3.6032   608.1    3.060      55.120
2015    9       26     9  30    3.6019   608.0    3.060      55.089
2015    9       26     9  36    3.6006   607.8    3.060      55.057
2015    9       26     9  42    3.5993   607.7    3.060      55.026
2015    9       26     9  48    3.5980   607.6    3.059      54.995
2015    9       26     9  55    3.5967   607.5    3.059      54.964
2015    9       26    10   1    3.5954   607.3    3.059      54.933
2015    9       26    10   7    3.5941   607.2    3.059      54.903
2015    9       26    10  13    3.5928   607.1    3.058      54.873
2015    9       26    10  20    3.5915   606.9    3.058      54.843
2015    9       26    10  26    3.5902   606.8    3.058      54.814
2015    9       26    10  32    3.5889   606.7    3.058      54.785
2015    9       26    10  38    3.5876   606.5    3.058      54.756
2015    9       26    10  45    3.5863   606.4    3.058      54.728
2015    9       26    10  51    3.5849   606.3    3.058      54.699
2015    9       26    10  57    3.5836   606.1    3.058      54.672
2015    9       26    11   3    3.5823   606.0    3.058      54.644
2015    9       26    11   9    3.5810   605.9    3.058      54.617
2015    9       26    11  16    3.5797   605.7    3.058      54.590
2015    9       26    11  22    3.5784   605.6    3.059      54.563
2015    9       26    11  28    3.5771   605.5    3.059      54.536
2015    9       26    11  34    3.5758   605.3    3.059      54.510
2015    9       26    11  41    3.5745   605.2    3.059      54.484
2015    9       26    11  47    3.5733   605.0    3.060      54.459
2015    9       26    11  53    3.5720   604.9    3.060      54.434
2015    9       26    11  59    3.5708   604.8    3.060      54.409
2015    9       26    12   5    3.5696   604.6    3.061      54.384
2015    9       26    12  12    3.5683   604.5    3.061      54.359
2015    9       26    12  18    3.5671   604.3    3.062      54.335
2015    9       26    12  24    3.5659   604.2    3.062      54.310
2015    9       26    12  30    3.5647   604.1    3.063      54.286
2015    9       26    12  37    3.5635   603.9    3.063      54.262
2015    9       26    12  43    3.5623   603.8    3.064      54.237
2015    9       26    12  49    3.5612   603.6    3.065      54.213
2015    9       26    12  55    3.5600   603.5    3.065      54.188
2015    9       26    13   1    3.5588   603.4    3.066      54.164
2015    9       26    13   8    3.5576   603.2    3.066      54.139
2015    9       26    13  14    3.5564   603.1    3.067      54.115
2015    9       26    13  20    3.5553   602.9    3.067      54.090
2015    9       26    13  26    3.5541   602.8    3.068      54.065
2015    9       26    13  33    3.5529   602.7    3.068      54.039
2015    9       26    13  39    3.5517   602.5    3.069      54.014
2015    9       26    13  45    3.5505   602.4    3.070      53.988
2015    9       26    13  51    3.5494   602.2    3.070      53.963
2015    9       26    13  57    3.5482   602.1    3.071      53.937
2015    9       26    14   4    3.5470   601.9    3.071      53.911
2015    9       26    14  10    3.5458   601.8    3.072      53.885
2015    9       26    14  16    3.5446   601.7    3.072      53.858
2015    9       26    14  22    3.5435   601.5    3.073      53.832
2015    9       26    14  29    3.5423   601.4    3.073      53.806
2015    9       26    14  35    3.5411   601.2    3.074      53.779
2015    9       26    14  41    3.5400   601.1    3.075      53.752
2015    9       26    14  47    3.5388   600.9    3.075      53.725
2015    9       26    14  53    3.5377   600.8    3.076      53.699
2015    9       26    15   0    3.5365   600.7    3.076      53.672
2015    9       26    15   6    3.5353   600.5    3.077      53.645
2015    9       26    15  12    3.5342   600.4    3.077      53.618
2015    9       26    15  18    3.5330   600.2    3.078      53.591
2015    9       26    15  25    3.5318   600.1    3.078      53.564
2015    9       26    15  31    3.5306   600.0    3.079      53.537
2015    9       26    15  37    3.5295   599.8    3.079      53.510
2015    9       26    15  43    3.5282   599.7    3.080      53.483
2015    9       26    15  49    3.5270   599.5    3.080      53.455
2015    9       26    15  56    3.5258   599.4    3.080      53.428
2015    9       26    16   2    3.5246   599.3    3.080      53.400
2015    9       26    16   8    3.5234   599.1    3.081      53.371
2015    9       26    16  14    3.5221   599.0    3.081      53.342
2015    9       26    16  21    3.5209   598.8    3.081      53.313
2015    9       26    16  27    3.5196   598.7    3.081      53.284
2015    9       26    16  33    3.5184   598.5    3.081      53.254
2015    9       26    16  39    3.5171   598.4    3.081      53.224
2015    9       26    16  46    3.5159   598.3    3.081      53.194
2015    9       26    16  52    3.5146   598.1    3.081      53.163
2015    9       26    16  58    3.5133   598.0    3.081      53.133
2015    9       26    17   4    3.5121   597.8    3.081      53.102
2015    9       26    17  10    3.5108   597.7    3.081      53.071
2015    9       26    17  17    3.5095   597.5    3.081      53.040
2015    9       26    17  23    3.5083   597.4    3.081      53.009
2015    9       26    17  29    3.5070   597.3    3.081      52.978
2015    9       26    17  35    3.5057   597.1    3.081      52.946
2015    9       26    17  42    3.5044   597.0    3.081      52.914
2015    9       26    17  48    3.5031   596.8    3.081      52.883
2015    9       26    17  54    3.5018   596.7    3.081      52.850
2015    9       26    18   0    3.5005   596.5    3.081      52.818
2015    9       26    18   7    3.4992   596.4    3.081      52.785
2015    9       26    18  13    3.4979   596.3    3.081      52.753
2015    9       26    18  19    3.4966   596.1    3.081      52.719
2015    9       26    18  25    3.4952   596.0    3.081      52.686
2015    9       26    18  31    3.4939   595.8    3.080      52.652
2015    9       26    18  38    3.4926   595.7    3.080      52.619
2015    9       26    18  44    3.4913   595.5    3.080      52.584
2015    9       26    18  50    3.4899   595.4    3.080      52.550
2015    9       26    18  56    3.4886   595.2    3.080      52.516
2015    9       26    19   3    3.4873   595.1    3.079      52.482
2015    9       26    19   9    3.4859   594.9    3.079      52.447
2015    9       26    19  15    3.4846   594.8    3.079      52.413
2015    9       26    19  21    3.4833   594.6    3.079      52.379
2015    9       26    19  27    3.4820   594.5    3.079      52.345
2015    9       26    19  34    3.4807   594.3    3.079      52.310
2015    9       26    19  40    3.4794   594.1    3.079      52.276
2015    9       26    19  46    3.4781   594.0    3.078      52.242
2015    9       26    19  52    3.4768   593.8    3.078      52.209
2015    9       26    19  59    3.4755   593.7    3.078      52.175
2015    9       26    20   5    3.4742   593.5    3.078      52.142
2015    9       26    20  11    3.4729   593.4    3.078      52.109
2015    9       26    20  17    3.4717   593.2    3.078      52.076
2015    9       26    20  23    3.4704   593.1    3.079      52.043
2015    9       26    20  30    3.4691   592.9    3.079      52.010
2015    9       26    20  36    3.4679   592.8    3.079      51.978
2015    9       26    20  42    3.4666   592.6    3.079      51.946
2015    9       26    20  48    3.4654   592.4    3.079      51.914
2015    9       26    20  55    3.4641   592.3    3.079      51.882
2015    9       26    21   1    3.4629   592.1    3.080      51.851
2015    9       26    21   7    3.4616   592.0    3.080      51.819
2015    9       26    21  13    3.4604   591.8    3.081      51.789
2015    9       26    21  19    3.4592   591.7    3.081      51.758
2015    9       26    21  26    3.4580   591.5    3.081      51.728
2015    9       26    21  32    3.4568   591.3    3.082      51.699
2015    9       26    21  38    3.4556   591.2    3.083      51.669
2015    9       26    21  44    3.4544   591.0    3.083      51.641
2015    9       26    21  51    3.4532   590.9    3.084      51.612
2015    9       26    21  57    3.4520   590.7    3.084      51.584
2015    9       26    22   3    3.4508   590.5    3.085      51.556
2015    9       26    22   9    3.4497   590.4    3.086      51.529
2015    9       26    22  15    3.4485   590.2    3.087      51.502
2015    9       26    22  22    3.4474   590.1    3.088      51.476
2015    9       26    22  28    3.4462   589.9    3.089      51.450
2015    9       26    22  34    3.4451   589.7    3.089      51.424
2015    9       26    22  40    3.4439   589.6    3.090      51.398
2015    9       26    22  47    3.4427   589.4    3.091      51.373
2015    9       26    22  53    3.4416   589.3    3.092      51.347
2015    9       26    22  59    3.4404   589.1    3.093      51.323
2015    9       26    23   5    3.4392   589.0    3.094      51.298
2015    9       26    23  12    3.4381   588.8    3.095      51.273
2015    9       26    23  18    3.4369   588.6    3.096      51.249
2015    9       26    23  24    3.4357   588.5    3.097      51.224
2015    9       26    23  30    3.4346   588.3    3.098      51.199
2015    9       26    23  36    3.4334   588.2    3.099      51.175
2015    9       26    23  43    3.4322   588.0    3.100      51.149
2015    9       26    23  49    3.4311   587.8    3.101      51.124
2015    9       26    23  55    3.4299   587.7    3.101      51.098
2015    9       27     0   1    3.4288   587.5    3.102      51.072
