year    month   day   hour  minute  B_enl V_enl   n_enl       T_enl
[year] [month] [day] [hour][minute] [nT]  [km/s]  [cm-3]      [kK]
2015    9       24     0   6    4.1523   631.1    3.430      63.707
2015    9       24     0  12    4.1495   631.1    3.428      63.685
2015    9       24     0  19    4.1466   631.1    3.426      63.663
2015    9       24     0  25    4.1438   631.2    3.424      63.641
2015    9       24     0  32    4.1410   631.2    3.422      63.618
2015    9       24     0  38    4.1382   631.2    3.419      63.595
2015    9       24     0  45    4.1353   631.2    3.417      63.572
2015    9       24     0  51    4.1325   631.2    3.415      63.549
2015    9       24     0  58    4.1297   631.3    3.413      63.525
2015    9       24     1   4    4.1269   631.3    3.411      63.501
2015    9       24     1  11    4.1241   631.3    3.409      63.477
2015    9       24     1  17    4.1213   631.3    3.407      63.452
2015    9       24     1  24    4.1186   631.3    3.405      63.428
2015    9       24     1  30    4.1158   631.3    3.403      63.402
2015    9       24     1  37    4.1130   631.4    3.401      63.377
2015    9       24     1  43    4.1103   631.4    3.398      63.351
2015    9       24     1  50    4.1075   631.4    3.396      63.325
2015    9       24     1  56    4.1048   631.4    3.394      63.298
2015    9       24     2   3    4.1021   631.4    3.392      63.272
2015    9       24     2   9    4.0994   631.4    3.390      63.245
2015    9       24     2  16    4.0967   631.4    3.388      63.217
2015    9       24     2  22    4.0940   631.4    3.386      63.190
2015    9       24     2  29    4.0913   631.4    3.384      63.162
2015    9       24     2  35    4.0886   631.4    3.382      63.134
2015    9       24     2  42    4.0860   631.4    3.380      63.106
2015    9       24     2  48    4.0833   631.4    3.378      63.078
2015    9       24     2  54    4.0807   631.4    3.376      63.050
2015    9       24     3   1    4.0781   631.4    3.374      63.022
2015    9       24     3   7    4.0755   631.4    3.371      62.993
2015    9       24     3  14    4.0729   631.5    3.369      62.965
2015    9       24     3  20    4.0703   631.5    3.367      62.937
2015    9       24     3  27    4.0678   631.5    3.365      62.909
2015    9       24     3  33    4.0652   631.5    3.363      62.881
2015    9       24     3  40    4.0627   631.5    3.361      62.853
2015    9       24     3  46    4.0602   631.5    3.359      62.826
2015    9       24     3  53    4.0577   631.5    3.358      62.799
2015    9       24     3  59    4.0552   631.5    3.356      62.772
2015    9       24     4   6    4.0527   631.5    3.354      62.745
2015    9       24     4  12    4.0503   631.5    3.352      62.719
2015    9       24     4  19    4.0478   631.5    3.350      62.693
2015    9       24     4  25    4.0454   631.5    3.348      62.667
2015    9       24     4  32    4.0429   631.5    3.346      62.642
2015    9       24     4  38    4.0405   631.5    3.344      62.617
2015    9       24     4  45    4.0381   631.5    3.343      62.592
2015    9       24     4  51    4.0357   631.5    3.341      62.568
2015    9       24     4  58    4.0334   631.5    3.339      62.544
2015    9       24     5   4    4.0310   631.5    3.338      62.520
2015    9       24     5  11    4.0286   631.5    3.336      62.497
2015    9       24     5  17    4.0263   631.5    3.334      62.474
2015    9       24     5  24    4.0239   631.5    3.333      62.452
2015    9       24     5  30    4.0215   631.5    3.331      62.430
2015    9       24     5  37    4.0192   631.5    3.330      62.408
2015    9       24     5  43    4.0168   631.5    3.328      62.387
2015    9       24     5  50    4.0145   631.5    3.327      62.366
2015    9       24     5  56    4.0122   631.5    3.325      62.345
2015    9       24     6   3    4.0098   631.5    3.324      62.324
2015    9       24     6   9    4.0075   631.5    3.322      62.303
2015    9       24     6  16    4.0051   631.5    3.321      62.283
2015    9       24     6  22    4.0027   631.5    3.319      62.263
2015    9       24     6  29    4.0004   631.5    3.318      62.243
2015    9       24     6  35    3.9980   631.5    3.317      62.223
2015    9       24     6  42    3.9957   631.5    3.315      62.203
2015    9       24     6  48    3.9933   631.5    3.314      62.183
2015    9       24     6  55    3.9910   631.5    3.313      62.163
2015    9       24     7   1    3.9886   631.5    3.311      62.143
2015    9       24     7   8    3.9862   631.5    3.310      62.123
2015    9       24     7  14    3.9839   631.4    3.309      62.102
2015    9       24     7  21    3.9815   631.4    3.307      62.082
2015    9       24     7  27    3.9791   631.4    3.306      62.061
2015    9       24     7  34    3.9768   631.4    3.305      62.040
2015    9       24     7  40    3.9744   631.4    3.303      62.019
2015    9       24     7  47    3.9720   631.4    3.302      61.997
2015    9       24     7  53    3.9697   631.4    3.301      61.975
2015    9       24     7  59    3.9673   631.4    3.300      61.953
2015    9       24     8   6    3.9650   631.4    3.298      61.931
2015    9       24     8  12    3.9626   631.3    3.297      61.908
2015    9       24     8  19    3.9603   631.3    3.296      61.884
2015    9       24     8  25    3.9579   631.3    3.294      61.861
2015    9       24     8  32    3.9556   631.3    3.293      61.836
2015    9       24     8  38    3.9532   631.3    3.292      61.812
2015    9       24     8  45    3.9509   631.2    3.290      61.787
2015    9       24     8  51    3.9486   631.2    3.289      61.761
2015    9       24     8  58    3.9463   631.2    3.288      61.736
2015    9       24     9   4    3.9440   631.2    3.286      61.709
2015    9       24     9  11    3.9417   631.1    3.285      61.683
2015    9       24     9  17    3.9394   631.1    3.283      61.656
2015    9       24     9  24    3.9372   631.1    3.282      61.628
2015    9       24     9  30    3.9349   631.1    3.281      61.601
2015    9       24     9  37    3.9327   631.0    3.279      61.573
2015    9       24     9  43    3.9304   631.0    3.278      61.544
2015    9       24     9  50    3.9282   631.0    3.276      61.516
2015    9       24     9  56    3.9261   630.9    3.275      61.487
2015    9       24    10   3    3.9239   630.9    3.273      61.458
2015    9       24    10   9    3.9217   630.9    3.272      61.429
2015    9       24    10  16    3.9196   630.8    3.270      61.400
2015    9       24    10  22    3.9175   630.8    3.269      61.371
2015    9       24    10  29    3.9154   630.8    3.268      61.342
2015    9       24    10  35    3.9133   630.7    3.266      61.313
2015    9       24    10  42    3.9112   630.7    3.265      61.283
2015    9       24    10  48    3.9092   630.7    3.263      61.254
2015    9       24    10  55    3.9071   630.6    3.262      61.225
2015    9       24    11   1    3.9051   630.6    3.261      61.196
2015    9       24    11   8    3.9031   630.6    3.259      61.167
2015    9       24    11  14    3.9011   630.5    3.258      61.138
2015    9       24    11  21    3.8991   630.5    3.257      61.110
2015    9       24    11  27    3.8971   630.5    3.255      61.081
2015    9       24    11  34    3.8951   630.4    3.254      61.053
2015    9       24    11  40    3.8931   630.4    3.253      61.025
2015    9       24    11  46    3.8911   630.3    3.251      60.997
2015    9       24    11  53    3.8892   630.3    3.250      60.970
2015    9       24    11  59    3.8872   630.3    3.249      60.942
2015    9       24    12   6    3.8852   630.2    3.248      60.915
2015    9       24    12  12    3.8833   630.2    3.247      60.889
2015    9       24    12  19    3.8813   630.2    3.245      60.862
2015    9       24    12  25    3.8794   630.1    3.244      60.836
2015    9       24    12  32    3.8774   630.1    3.243      60.810
2015    9       24    12  38    3.8755   630.1    3.242      60.784
2015    9       24    12  45    3.8735   630.0    3.241      60.759
2015    9       24    12  51    3.8715   630.0    3.240      60.734
2015    9       24    12  58    3.8696   629.9    3.239      60.709
2015    9       24    13   4    3.8676   629.9    3.238      60.685
2015    9       24    13  11    3.8657   629.9    3.237      60.660
2015    9       24    13  17    3.8637   629.8    3.236      60.636
2015    9       24    13  24    3.8617   629.8    3.235      60.612
2015    9       24    13  30    3.8597   629.8    3.234      60.589
2015    9       24    13  37    3.8578   629.7    3.233      60.565
2015    9       24    13  43    3.8558   629.7    3.232      60.541
2015    9       24    13  50    3.8538   629.6    3.231      60.518
2015    9       24    13  56    3.8518   629.6    3.230      60.495
2015    9       24    14   3    3.8498   629.6    3.229      60.471
2015    9       24    14   9    3.8478   629.5    3.228      60.448
2015    9       24    14  16    3.8458   629.5    3.227      60.425
2015    9       24    14  22    3.8439   629.4    3.226      60.401
2015    9       24    14  29    3.8418   629.4    3.225      60.378
2015    9       24    14  35    3.8399   629.4    3.224      60.355
2015    9       24    14  42    3.8379   629.3    3.223      60.331
2015    9       24    14  48    3.8359   629.3    3.222      60.307
2015    9       24    14  55    3.8339   629.2    3.222      60.284
2015    9       24    15   1    3.8319   629.2    3.221      60.260
2015    9       24    15   8    3.8299   629.1    3.220      60.236
2015    9       24    15  14    3.8279   629.1    3.219      60.211
2015    9       24    15  21    3.8259   629.1    3.218      60.187
2015    9       24    15  27    3.8239   629.0    3.217      60.163
2015    9       24    15  34    3.8220   629.0    3.217      60.138
2015    9       24    15  40    3.8200   628.9    3.216      60.113
2015    9       24    15  47    3.8180   628.9    3.215      60.089
2015    9       24    15  53    3.8161   628.8    3.214      60.063
2015    9       24    16   0    3.8142   628.7    3.213      60.039
2015    9       24    16   6    3.8123   628.7    3.213      60.014
2015    9       24    16  13    3.8103   628.6    3.212      59.988
2015    9       24    16  19    3.8084   628.6    3.211      59.963
2015    9       24    16  26    3.8066   628.5    3.210      59.938
2015    9       24    16  32    3.8047   628.5    3.210      59.913
2015    9       24    16  39    3.8028   628.4    3.209      59.888
2015    9       24    16  45    3.8010   628.4    3.208      59.863
2015    9       24    16  52    3.7992   628.3    3.208      59.838
2015    9       24    16  58    3.7974   628.3    3.207      59.813
2015    9       24    17   5    3.7956   628.2    3.206      59.788
2015    9       24    17  11    3.7938   628.1    3.206      59.763
2015    9       24    17  18    3.7921   628.1    3.205      59.738
2015    9       24    17  24    3.7903   628.0    3.205      59.713
2015    9       24    17  31    3.7886   628.0    3.204      59.689
2015    9       24    17  37    3.7868   627.9    3.204      59.664
2015    9       24    17  44    3.7851   627.8    3.203      59.639
2015    9       24    17  50    3.7834   627.8    3.203      59.614
2015    9       24    17  57    3.7817   627.7    3.202      59.590
2015    9       24    18   3    3.7800   627.7    3.202      59.565
2015    9       24    18   9    3.7783   627.6    3.201      59.541
2015    9       24    18  16    3.7766   627.5    3.201      59.516
2015    9       24    18  22    3.7749   627.5    3.200      59.491
2015    9       24    18  29    3.7732   627.4    3.200      59.467
2015    9       24    18  35    3.7715   627.4    3.199      59.442
2015    9       24    18  42    3.7697   627.3    3.199      59.418
2015    9       24    18  48    3.7680   627.2    3.198      59.393
2015    9       24    18  55    3.7663   627.2    3.198      59.368
2015    9       24    19   1    3.7646   627.1    3.197      59.343
2015    9       24    19   8    3.7628   627.0    3.196      59.317
2015    9       24    19  14    3.7611   627.0    3.196      59.292
2015    9       24    19  21    3.7594   626.9    3.195      59.266
2015    9       24    19  27    3.7577   626.8    3.194      59.240
2015    9       24    19  34    3.7559   626.8    3.194      59.214
2015    9       24    19  40    3.7542   626.7    3.193      59.188
2015    9       24    19  47    3.7525   626.6    3.192      59.162
2015    9       24    19  53    3.7508   626.6    3.192      59.135
2015    9       24    20   0    3.7490   626.5    3.191      59.109
2015    9       24    20   6    3.7473   626.5    3.190      59.082
2015    9       24    20  13    3.7456   626.4    3.190      59.056
2015    9       24    20  19    3.7439   626.3    3.189      59.029
2015    9       24    20  26    3.7422   626.2    3.188      59.002
2015    9       24    20  32    3.7405   626.2    3.187      58.975
2015    9       24    20  39    3.7388   626.1    3.187      58.948
2015    9       24    20  45    3.7371   626.0    3.186      58.921
2015    9       24    20  52    3.7354   626.0    3.185      58.894
2015    9       24    20  58    3.7337   625.9    3.184      58.867
2015    9       24    21   5    3.7321   625.8    3.184      58.839
2015    9       24    21  11    3.7304   625.8    3.183      58.812
2015    9       24    21  18    3.7287   625.7    3.182      58.784
2015    9       24    21  24    3.7271   625.6    3.182      58.757
2015    9       24    21  31    3.7254   625.5    3.181      58.729
2015    9       24    21  37    3.7237   625.5    3.180      58.701
2015    9       24    21  44    3.7221   625.4    3.180      58.674
2015    9       24    21  50    3.7205   625.3    3.179      58.646
2015    9       24    21  57    3.7188   625.2    3.178      58.618
2015    9       24    22   3    3.7172   625.2    3.178      58.589
2015    9       24    22  10    3.7155   625.1    3.177      58.561
2015    9       24    22  16    3.7139   625.0    3.176      58.533
2015    9       24    22  23    3.7123   624.9    3.176      58.504
2015    9       24    22  29    3.7107   624.9    3.175      58.475
2015    9       24    22  36    3.7091   624.8    3.174      58.446
2015    9       24    22  42    3.7074   624.7    3.174      58.417
2015    9       24    22  49    3.7058   624.6    3.173      58.388
2015    9       24    22  55    3.7042   624.5    3.173      58.359
2015    9       24    23   2    3.7026   624.5    3.172      58.329
2015    9       24    23   8    3.7010   624.4    3.171      58.300
2015    9       24    23  15    3.6994   624.3    3.171      58.270
2015    9       24    23  21    3.6978   624.2    3.170      58.241
2015    9       24    23  28    3.6963   624.1    3.169      58.211
2015    9       24    23  34    3.6947   624.0    3.169      58.181
2015    9       24    23  41    3.6931   624.0    3.168      58.152
2015    9       24    23  47    3.6916   623.9    3.168      58.123
2015    9       24    23  54    3.6900   623.8    3.167      58.093
2015    9       25     0   0    3.6885   623.7    3.167      58.064
2015    9       25     0   7    3.6869   623.6    3.166      58.035
2015    9       25     0  13    3.6854   623.5    3.165      58.006
2015    9       25     0  20    3.6839   623.5    3.165      57.977
2015    9       25     0  26    3.6824   623.4    3.164      57.948
2015    9       25     0  33    3.6809   623.3    3.164      57.919
2015    9       25     0  39    3.6794   623.2    3.164      57.890
2015    9       25     0  45    3.6778   623.1    3.163      57.862
2015    9       25     0  52    3.6763   623.0    3.163      57.833
2015    9       25     0  58    3.6748   623.0    3.162      57.804
2015    9       25     1   5    3.6733   622.9    3.162      57.776
2015    9       25     1  11    3.6718   622.8    3.162      57.748
2015    9       25     1  18    3.6703   622.7    3.161      57.719
2015    9       25     1  24    3.6688   622.6    3.161      57.691
2015    9       25     1  31    3.6672   622.5    3.160      57.663
2015    9       25     1  37    3.6657   622.4    3.160      57.634
2015    9       25     1  44    3.6641   622.4    3.160      57.606
2015    9       25     1  50    3.6626   622.3    3.159      57.579
2015    9       25     1  57    3.6610   622.2    3.159      57.551
2015    9       25     2   3    3.6595   622.1    3.159      57.523
2015    9       25     2  10    3.6579   622.0    3.159      57.496
2015    9       25     2  16    3.6564   621.9    3.158      57.468
2015    9       25     2  23    3.6548   621.8    3.158      57.441
2015    9       25     2  29    3.6533   621.7    3.158      57.413
2015    9       25     2  36    3.6517   621.6    3.157      57.386
2015    9       25     2  42    3.6502   621.5    3.157      57.359
2015    9       25     2  49    3.6486   621.4    3.157      57.332
2015    9       25     2  55    3.6471   621.3    3.157      57.306
2015    9       25     3   2    3.6456   621.2    3.157      57.279
2015    9       25     3   8    3.6441   621.1    3.157      57.253
2015    9       25     3  15    3.6426   621.0    3.157      57.227
2015    9       25     3  21    3.6411   620.9    3.157      57.202
2015    9       25     3  28    3.6396   620.8    3.157      57.177
2015    9       25     3  34    3.6381   620.7    3.157      57.152
2015    9       25     3  41    3.6367   620.6    3.157      57.128
2015    9       25     3  47    3.6353   620.5    3.157      57.104
2015    9       25     3  54    3.6338   620.4    3.157      57.080
2015    9       25     4   0    3.6324   620.3    3.157      57.057
2015    9       25     4   7    3.6311   620.2    3.157      57.034
2015    9       25     4  13    3.6297   620.1    3.158      57.011
2015    9       25     4  20    3.6283   620.0    3.158      56.988
2015    9       25     4  26    3.6269   619.9    3.158      56.966
2015    9       25     4  33    3.6256   619.9    3.158      56.943
2015    9       25     4  39    3.6242   619.8    3.158      56.921
2015    9       25     4  46    3.6229   619.7    3.158      56.899
2015    9       25     4  52    3.6215   619.6    3.159      56.876
2015    9       25     4  59    3.6202   619.5    3.159      56.853
2015    9       25     5   5    3.6188   619.4    3.159      56.829
2015    9       25     5  12    3.6175   619.3    3.159      56.805
2015    9       25     5  18    3.6161   619.2    3.159      56.780
2015    9       25     5  25    3.6148   619.1    3.159      56.755
2015    9       25     5  31    3.6134   619.0    3.159      56.730
2015    9       25     5  38    3.6120   618.9    3.159      56.704
2015    9       25     5  44    3.6107   618.8    3.159      56.677
2015    9       25     5  51    3.6093   618.7    3.159      56.651
2015    9       25     5  57    3.6079   618.6    3.158      56.623
2015    9       25     6   4    3.6065   618.5    3.158      56.596
2015    9       25     6  10    3.6052   618.4    3.158      56.568
2015    9       25     6  17    3.6038   618.3    3.158      56.539
2015    9       25     6  23    3.6024   618.2    3.158      56.511
2015    9       25     6  30    3.6010   618.1    3.158      56.481
2015    9       25     6  36    3.5996   618.0    3.157      56.452
2015    9       25     6  43    3.5983   617.9    3.157      56.422
2015    9       25     6  49    3.5969   617.8    3.157      56.392
2015    9       25     6  55    3.5955   617.6    3.157      56.362
2015    9       25     7   2    3.5941   617.5    3.156      56.331
2015    9       25     7   8    3.5927   617.4    3.156      56.301
2015    9       25     7  15    3.5913   617.3    3.156      56.270
2015    9       25     7  21    3.5900   617.2    3.155      56.239
2015    9       25     7  28    3.5886   617.1    3.155      56.207
2015    9       25     7  34    3.5872   617.0    3.155      56.176
2015    9       25     7  41    3.5858   616.9    3.154      56.145
2015    9       25     7  47    3.5844   616.8    3.154      56.113
2015    9       25     7  54    3.5830   616.7    3.154      56.081
2015    9       25     8   0    3.5816   616.6    3.153      56.049
2015    9       25     8   7    3.5802   616.5    3.153      56.017
2015    9       25     8  13    3.5787   616.4    3.152      55.984
2015    9       25     8  20    3.5773   616.3    3.152      55.952
2015    9       25     8  26    3.5759   616.2    3.151      55.919
2015    9       25     8  33    3.5745   616.1    3.151      55.885
2015    9       25     8  39    3.5730   615.9    3.150      55.852
2015    9       25     8  46    3.5716   615.8    3.149      55.817
2015    9       25     8  52    3.5701   615.7    3.149      55.783
2015    9       25     8  59    3.5687   615.6    3.148      55.748
2015    9       25     9   5    3.5672   615.5    3.148      55.713
2015    9       25     9  12    3.5658   615.4    3.147      55.677
2015    9       25     9  18    3.5643   615.3    3.146      55.642
2015    9       25     9  25    3.5629   615.2    3.146      55.606
2015    9       25     9  31    3.5614   615.1    3.145      55.570
2015    9       25     9  38    3.5600   614.9    3.144      55.534
2015    9       25     9  44    3.5585   614.8    3.144      55.498
2015    9       25     9  51    3.5571   614.7    3.143      55.461
2015    9       25     9  57    3.5556   614.6    3.142      55.425
2015    9       25    10   4    3.5542   614.5    3.142      55.389
2015    9       25    10  10    3.5528   614.4    3.141      55.353
2015    9       25    10  17    3.5513   614.2    3.141      55.317
2015    9       25    10  23    3.5499   614.1    3.140      55.281
2015    9       25    10  30    3.5485   614.0    3.140      55.246
2015    9       25    10  36    3.5471   613.9    3.139      55.211
2015    9       25    10  43    3.5457   613.7    3.139      55.177
2015    9       25    10  49    3.5444   613.6    3.139      55.143
2015    9       25    10  56    3.5430   613.5    3.138      55.110
2015    9       25    11   2    3.5417   613.4    3.138      55.077
2015    9       25    11   9    3.5404   613.2    3.138      55.045
2015    9       25    11  15    3.5391   613.1    3.138      55.014
2015    9       25    11  22    3.5378   613.0    3.138      54.983
2015    9       25    11  28    3.5365   612.9    3.138      54.953
2015    9       25    11  35    3.5352   612.7    3.138      54.924
2015    9       25    11  41    3.5340   612.6    3.139      54.896
2015    9       25    11  48    3.5328   612.5    3.139      54.868
2015    9       25    11  54    3.5315   612.3    3.139      54.841
2015    9       25    12   1    3.5303   612.2    3.140      54.815
2015    9       25    12   7    3.5291   612.1    3.140      54.789
2015    9       25    12  14    3.5279   612.0    3.141      54.763
2015    9       25    12  20    3.5267   611.8    3.141      54.737
2015    9       25    12  27    3.5255   611.7    3.142      54.711
2015    9       25    12  33    3.5242   611.6    3.142      54.686
2015    9       25    12  40    3.5230   611.4    3.143      54.660
2015    9       25    12  46    3.5218   611.3    3.143      54.635
2015    9       25    12  53    3.5206   611.2    3.144      54.609
2015    9       25    12  59    3.5194   611.1    3.144      54.583
2015    9       25    13   6    3.5182   610.9    3.145      54.558
2015    9       25    13  12    3.5170   610.8    3.145      54.532
2015    9       25    13  18    3.5158   610.7    3.146      54.506
2015    9       25    13  25    3.5145   610.5    3.147      54.480
2015    9       25    13  31    3.5133   610.4    3.147      54.454
2015    9       25    13  38    3.5121   610.3    3.148      54.428
2015    9       25    13  44    3.5108   610.1    3.148      54.402
2015    9       25    13  51    3.5096   610.0    3.149      54.376
2015    9       25    13  57    3.5084   609.9    3.149      54.350
2015    9       25    14   4    3.5072   609.8    3.150      54.324
2015    9       25    14  10    3.5059   609.6    3.150      54.298
2015    9       25    14  17    3.5047   609.5    3.151      54.272
2015    9       25    14  23    3.5034   609.4    3.151      54.246
2015    9       25    14  30    3.5022   609.2    3.152      54.219
2015    9       25    14  36    3.5010   609.1    3.152      54.193
2015    9       25    14  43    3.4998   609.0    3.153      54.167
2015    9       25    14  49    3.4985   608.8    3.153      54.140
2015    9       25    14  56    3.4973   608.7    3.153      54.114
2015    9       25    15   2    3.4960   608.6    3.154      54.087
2015    9       25    15   9    3.4948   608.5    3.154      54.060
2015    9       25    15  15    3.4936   608.3    3.154      54.033
2015    9       25    15  22    3.4924   608.2    3.155      54.006
2015    9       25    15  28    3.4911   608.1    3.155      53.979
2015    9       25    15  35    3.4899   607.9    3.155      53.952
2015    9       25    15  41    3.4886   607.8    3.156      53.925
2015    9       25    15  48    3.4874   607.7    3.156      53.897
2015    9       25    15  54    3.4861   607.5    3.156      53.869
2015    9       25    16   1    3.4849   607.4    3.156      53.841
2015    9       25    16   7    3.4836   607.3    3.156      53.812
2015    9       25    16  14    3.4823   607.2    3.157      53.784
2015    9       25    16  20    3.4811   607.0    3.157      53.755
2015    9       25    16  27    3.4798   606.9    3.157      53.725
2015    9       25    16  33    3.4785   606.8    3.157      53.696
2015    9       25    16  40    3.4772   606.6    3.157      53.666
2015    9       25    16  46    3.4759   606.5    3.157      53.635
2015    9       25    16  53    3.4747   606.4    3.157      53.604
2015    9       25    16  59    3.4734   606.2    3.157      53.573
2015    9       25    17   6    3.4721   606.1    3.157      53.542
2015    9       25    17  12    3.4708   606.0    3.156      53.510
2015    9       25    17  19    3.4695   605.8    3.156      53.478
2015    9       25    17  25    3.4682   605.7    3.156      53.446
2015    9       25    17  32    3.4669   605.6    3.156      53.414
2015    9       25    17  38    3.4656   605.4    3.156      53.381
2015    9       25    17  45    3.4643   605.3    3.156      53.349
2015    9       25    17  51    3.4630   605.2    3.156      53.316
2015    9       25    17  58    3.4618   605.0    3.156      53.283
2015    9       25    18   4    3.4605   604.9    3.156      53.250
2015    9       25    18  11    3.4592   604.8    3.155      53.217
2015    9       25    18  17    3.4580   604.6    3.155      53.184
2015    9       25    18  24    3.4567   604.5    3.155      53.151
2015    9       25    18  30    3.4554   604.4    3.155      53.118
2015    9       25    18  37    3.4542   604.2    3.155      53.085
2015    9       25    18  43    3.4529   604.1    3.155      53.052
2015    9       25    18  50    3.4517   603.9    3.155      53.019
2015    9       25    18  56    3.4504   603.8    3.155      52.985
2015    9       25    19   3    3.4492   603.7    3.155      52.952
2015    9       25    19   9    3.4479   603.5    3.154      52.918
2015    9       25    19  16    3.4467   603.4    3.154      52.885
2015    9       25    19  22    3.4454   603.2    3.154      52.851
2015    9       25    19  29    3.4442   603.1    3.154      52.817
2015    9       25    19  35    3.4430   602.9    3.154      52.783
2015    9       25    19  41    3.4417   602.8    3.154      52.749
2015    9       25    19  48    3.4405   602.6    3.154      52.715
2015    9       25    19  54    3.4393   602.5    3.154      52.681
2015    9       25    20   1    3.4381   602.3    3.154      52.647
2015    9       25    20   7    3.4369   602.2    3.154      52.614
2015    9       25    20  14    3.4357   602.0    3.154      52.580
2015    9       25    20  20    3.4345   601.9    3.154      52.547
2015    9       25    20  27    3.4333   601.7    3.154      52.514
2015    9       25    20  33    3.4321   601.6    3.154      52.481
2015    9       25    20  40    3.4310   601.4    3.154      52.448
2015    9       25    20  46    3.4299   601.3    3.154      52.416
2015    9       25    20  53    3.4287   601.1    3.155      52.385
2015    9       25    20  59    3.4276   601.0    3.155      52.353
2015    9       25    21   6    3.4265   600.8    3.155      52.322
2015    9       25    21  12    3.4254   600.6    3.156      52.292
2015    9       25    21  19    3.4243   600.5    3.156      52.262
2015    9       25    21  25    3.4232   600.3    3.157      52.233
2015    9       25    21  32    3.4222   600.2    3.157      52.204
2015    9       25    21  38    3.4212   600.0    3.158      52.176
2015    9       25    21  45    3.4201   599.8    3.159      52.148
2015    9       25    21  51    3.4191   599.7    3.160      52.120
2015    9       25    21  58    3.4181   599.5    3.160      52.093
2015    9       25    22   4    3.4171   599.4    3.161      52.066
2015    9       25    22  11    3.4161   599.2    3.162      52.040
2015    9       25    22  17    3.4151   599.1    3.163      52.014
2015    9       25    22  24    3.4141   598.9    3.164      51.988
2015    9       25    22  30    3.4131   598.7    3.165      51.962
2015    9       25    22  37    3.4122   598.6    3.166      51.937
2015    9       25    22  43    3.4112   598.4    3.167      51.911
2015    9       25    22  50    3.4102   598.3    3.168      51.886
2015    9       25    22  56    3.4092   598.1    3.169      51.861
2015    9       25    23   3    3.4082   597.9    3.170      51.836
2015    9       25    23   9    3.4072   597.8    3.171      51.811
2015    9       25    23  16    3.4063   597.6    3.172      51.786
2015    9       25    23  22    3.4053   597.5    3.174      51.761
2015    9       25    23  29    3.4043   597.3    3.174      51.736
2015    9       25    23  35    3.4033   597.1    3.175      51.711
2015    9       25    23  42    3.4023   597.0    3.176      51.686
2015    9       25    23  48    3.4013   596.8    3.177      51.661
2015    9       25    23  55    3.4003   596.7    3.178      51.635
2015    9       26     0   1    3.3993   596.5    3.179      51.610
2015    9       26     0   8    3.3983   596.3    3.180      51.584
2015    9       26     0  14    3.3973   596.2    3.181      51.558
2015    9       26     0  21    3.3963   596.0    3.181      51.531
2015    9       26     0  27    3.3953   595.9    3.182      51.505
2015    9       26     0  34    3.3943   595.7    3.183      51.478
2015    9       26     0  40    3.3933   595.5    3.184      51.451
2015    9       26     0  47    3.3923   595.4    3.184      51.423
2015    9       26     0  53    3.3914   595.2    3.185      51.396
2015    9       26     1   0    3.3904   595.1    3.186      51.368
2015    9       26     1   6    3.3894   594.9    3.186      51.341
2015    9       26     1  13    3.3884   594.7    3.187      51.313
2015    9       26     1  19    3.3874   594.6    3.188      51.285
2015    9       26     1  26    3.3864   594.4    3.188      51.257
2015    9       26     1  32    3.3855   594.3    3.189      51.230
2015    9       26     1  39    3.3845   594.1    3.190      51.202
2015    9       26     1  45    3.3836   593.9    3.191      51.174
2015    9       26     1  51    3.3826   593.8    3.191      51.147
2015    9       26     1  58    3.3817   593.6    3.192      51.119
2015    9       26     2   4    3.3808   593.4    3.193      51.092
2015    9       26     2  11    3.3798   593.3    3.194      51.065
2015    9       26     2  17    3.3789   593.1    3.194      51.039
2015    9       26     2  24    3.3780   593.0    3.195      51.012
2015    9       26     2  30    3.3771   592.8    3.196      50.986
2015    9       26     2  37    3.3762   592.6    3.197      50.960
2015    9       26     2  43    3.3753   592.5    3.198      50.934
2015    9       26     2  50    3.3744   592.3    3.199      50.909
2015    9       26     2  56    3.3735   592.2    3.199      50.884
2015    9       26     3   3    3.3726   592.0    3.200      50.859
2015    9       26     3   9    3.3717   591.8    3.201      50.834
2015    9       26     3  16    3.3708   591.7    3.202      50.810
2015    9       26     3  22    3.3699   591.5    3.203      50.785
2015    9       26     3  29    3.3690   591.4    3.204      50.761
2015    9       26     3  35    3.3681   591.2    3.204      50.737
2015    9       26     3  42    3.3672   591.0    3.205      50.713
2015    9       26     3  48    3.3663   590.9    3.206      50.689
2015    9       26     3  55    3.3654   590.7    3.207      50.665
2015    9       26     4   1    3.3645   590.6    3.208      50.640
2015    9       26     4   8    3.3636   590.4    3.209      50.616
2015    9       26     4  14    3.3628   590.2    3.209      50.592
2015    9       26     4  21    3.3619   590.1    3.210      50.567
2015    9       26     4  27    3.3610   589.9    3.211      50.542
2015    9       26     4  34    3.3601   589.7    3.212      50.517
2015    9       26     4  40    3.3592   589.6    3.213      50.492
2015    9       26     4  47    3.3584   589.4    3.213      50.466
2015    9       26     4  53    3.3575   589.3    3.214      50.440
2015    9       26     5   0    3.3566   589.1    3.215      50.414
2015    9       26     5   6    3.3558   588.9    3.216      50.388
2015    9       26     5  13    3.3549   588.8    3.217      50.361
2015    9       26     5  19    3.3541   588.6    3.218      50.334
2015    9       26     5  26    3.3533   588.4    3.218      50.307
2015    9       26     5  32    3.3525   588.3    3.219      50.281
2015    9       26     5  39    3.3516   588.1    3.220      50.253
2015    9       26     5  45    3.3508   587.9    3.221      50.226
2015    9       26     5  52    3.3500   587.8    3.222      50.199
2015    9       26     5  58    3.3493   587.6    3.223      50.171
2015    9       26     6   5    3.3485   587.4    3.224      50.144
2015    9       26     6  11    3.3477   587.2    3.226      50.116
2015    9       26     6  18    3.3470   587.1    3.227      50.089
2015    9       26     6  24    3.3462   586.9    3.228      50.062
2015    9       26     6  31    3.3455   586.7    3.229      50.035
2015    9       26     6  37    3.3447   586.6    3.230      50.008
2015    9       26     6  44    3.3440   586.4    3.231      49.981
2015    9       26     6  50    3.3433   586.2    3.233      49.954
2015    9       26     6  56    3.3426   586.1    3.234      49.928
2015    9       26     7   3    3.3418   585.9    3.235      49.902
2015    9       26     7   9    3.3412   585.7    3.236      49.876
2015    9       26     7  16    3.3405   585.5    3.238      49.850
2015    9       26     7  22    3.3398   585.4    3.239      49.824
2015    9       26     7  29    3.3391   585.2    3.240      49.799
2015    9       26     7  35    3.3385   585.0    3.242      49.773
2015    9       26     7  42    3.3378   584.9    3.243      49.748
2015    9       26     7  48    3.3372   584.7    3.244      49.723
2015    9       26     7  55    3.3366   584.5    3.246      49.698
2015    9       26     8   1    3.3359   584.3    3.247      49.673
2015    9       26     8   8    3.3353   584.2    3.248      49.648
2015    9       26     8  14    3.3347   584.0    3.249      49.624
2015    9       26     8  21    3.3341   583.8    3.251      49.599
2015    9       26     8  27    3.3335   583.6    3.252      49.575
2015    9       26     8  34    3.3329   583.5    3.253      49.550
2015    9       26     8  40    3.3322   583.3    3.254      49.526
2015    9       26     8  47    3.3316   583.1    3.256      49.502
2015    9       26     8  53    3.3310   583.0    3.257      49.478
2015    9       26     9   0    3.3304   582.8    3.258      49.454
2015    9       26     9   6    3.3298   582.6    3.259      49.430
2015    9       26     9  13    3.3292   582.5    3.261      49.406
2015    9       26     9  19    3.3286   582.3    3.262      49.383
2015    9       26     9  26    3.3280   582.1    3.263      49.359
2015    9       26     9  32    3.3274   581.9    3.264      49.336
2015    9       26     9  39    3.3268   581.8    3.266      49.313
2015    9       26     9  45    3.3262   581.6    3.267      49.290
2015    9       26     9  52    3.3257   581.4    3.268      49.267
2015    9       26     9  58    3.3251   581.3    3.270      49.245
2015    9       26    10   5    3.3245   581.1    3.271      49.223
2015    9       26    10  11    3.3239   580.9    3.272      49.201
2015    9       26    10  18    3.3234   580.8    3.274      49.179
2015    9       26    10  24    3.3228   580.6    3.275      49.158
2015    9       26    10  31    3.3222   580.5    3.276      49.137
2015    9       26    10  37    3.3217   580.3    3.278      49.116
2015    9       26    10  44    3.3211   580.1    3.279      49.096
2015    9       26    10  50    3.3205   580.0    3.281      49.075
2015    9       26    10  57    3.3200   579.8    3.282      49.055
2015    9       26    11   3    3.3194   579.7    3.284      49.035
2015    9       26    11  10    3.3188   579.5    3.285      49.015
2015    9       26    11  16    3.3183   579.3    3.287      48.995
2015    9       26    11  23    3.3177   579.2    3.288      48.975
2015    9       26    11  29    3.3171   579.0    3.290      48.956
2015    9       26    11  36    3.3166   578.9    3.291      48.936
2015    9       26    11  42    3.3160   578.7    3.293      48.916
2015    9       26    11  49    3.3154   578.6    3.294      48.897
2015    9       26    11  55    3.3149   578.4    3.296      48.877
2015    9       26    12   2    3.3143   578.3    3.297      48.857
2015    9       26    12   8    3.3138   578.1    3.299      48.837
2015    9       26    12  15    3.3132   577.9    3.300      48.817
2015    9       26    12  21    3.3127   577.8    3.302      48.797
2015    9       26    12  27    3.3122   577.6    3.303      48.776
2015    9       26    12  34    3.3117   577.5    3.305      48.756
2015    9       26    12  40    3.3112   577.3    3.306      48.735
2015    9       26    12  47    3.3108   577.2    3.307      48.714
2015    9       26    12  53    3.3104   577.0    3.309      48.693
2015    9       26    13   0    3.3100   576.8    3.310      48.672
2015    9       26    13   6    3.3096   576.7    3.312      48.651
2015    9       26    13  13    3.3092   576.5    3.313      48.630
2015    9       26    13  19    3.3089   576.4    3.314      48.609
2015    9       26    13  26    3.3087   576.2    3.316      48.589
2015    9       26    13  32    3.3085   576.1    3.317      48.568
2015    9       26    13  39    3.3083   575.9    3.319      48.548
2015    9       26    13  45    3.3082   575.8    3.320      48.529
2015    9       26    13  52    3.3082   575.6    3.322      48.510
2015    9       26    13  58    3.3083   575.4    3.324      48.491
2015    9       26    14   5    3.3084   575.3    3.325      48.473
2015    9       26    14  11    3.3086   575.1    3.327      48.457
2015    9       26    14  18    3.3089   575.0    3.329      48.441
2015    9       26    14  24    3.3093   574.8    3.332      48.427
2015    9       26    14  31    3.3098   574.7    3.334      48.414
2015    9       26    14  37    3.3105   574.5    3.336      48.403
2015    9       26    14  44    3.3113   574.4    3.339      48.393
2015    9       26    14  50    3.3123   574.3    3.342      48.385
2015    9       26    14  57    3.3134   574.1    3.345      48.379
2015    9       26    15   3    3.3147   574.0    3.348      48.376
2015    9       26    15  10    3.3162   573.8    3.351      48.375
2015    9       26    15  16    3.3180   573.7    3.355      48.376
2015    9       26    15  23    3.3200   573.6    3.359      48.380
2015    9       26    15  29    3.3222   573.5    3.363      48.387
2015    9       26    15  36    3.3247   573.3    3.368      48.397
2015    9       26    15  42    3.3276   573.2    3.373      48.410
2015    9       26    15  49    3.3307   573.1    3.378      48.427
2015    9       26    15  55    3.3342   573.0    3.383      48.447
2015    9       26    16   2    3.3380   572.9    3.389      48.471
2015    9       26    16   8    3.3423   572.8    3.396      48.499
2015    9       26    16  15    3.3470   572.8    3.402      48.530
2015    9       26    16  21    3.3521   572.7    3.409      48.566
2015    9       26    16  28    3.3576   572.6    3.417      48.605
2015    9       26    16  34    3.3636   572.5    3.425      48.649
2015    9       26    16  41    3.3700   572.5    3.433      48.697
2015    9       26    16  47    3.3770   572.5    3.442      48.749
2015    9       26    16  54    3.3843   572.4    3.451      48.804
2015    9       26    17   0    3.3923   572.4    3.460      48.863
2015    9       26    17   7    3.4006   572.4    3.470      48.924
2015    9       26    17  13    3.4095   572.4    3.480      48.986
2015    9       26    17  20    3.4188   572.4    3.490      49.050
2015    9       26    17  26    3.4285   572.4    3.500      49.114
2015    9       26    17  33    3.4386   572.3    3.511      49.176
2015    9       26    17  39    3.4490   572.3    3.520      49.234
2015    9       26    17  46    3.4594   572.3    3.530      49.288
2015    9       26    17  52    3.4700   572.3    3.539      49.337
2015    9       26    17  59    3.4803   572.2    3.547      49.380
2015    9       26    18   5    3.4905   572.2    3.556      49.418
2015    9       26    18  11    3.5003   572.1    3.563      49.450
2015    9       26    18  18    3.5099   572.1    3.571      49.478
2015    9       26    18  24    3.5192   572.0    3.578      49.500
2015    9       26    18  31    3.5282   571.9    3.584      49.518
2015    9       26    18  37    3.5368   571.8    3.590      49.530
2015    9       26    18  44    3.5452   571.7    3.595      49.538
2015    9       26    18  50    3.5531   571.6    3.600      49.541
2015    9       26    18  57    3.5607   571.5    3.605      49.540
2015    9       26    19   3    3.5679   571.4    3.609      49.534
2015    9       26    19  10    3.5747   571.3    3.612      49.523
2015    9       26    19  16    3.5809   571.1    3.615      49.508
2015    9       26    19  23    3.5867   571.0    3.618      49.487
2015    9       26    19  29    3.5921   570.9    3.620      49.463
2015    9       26    19  36    3.5969   570.7    3.621      49.434
2015    9       26    19  42    3.6012   570.5    3.622      49.401
2015    9       26    19  49    3.6050   570.4    3.623      49.364
2015    9       26    19  55    3.6084   570.2    3.623      49.323
2015    9       26    20   2    3.6112   570.0    3.622      49.279
2015    9       26    20   8    3.6136   569.8    3.621      49.232
2015    9       26    20  15    3.6156   569.6    3.620      49.182
2015    9       26    20  21    3.6172   569.4    3.619      49.129
2015    9       26    20  28    3.6184   569.2    3.617      49.074
2015    9       26    20  34    3.6193   569.0    3.615      49.017
2015    9       26    20  41    3.6198   568.8    3.613      48.957
2015    9       26    20  47    3.6200   568.6    3.610      48.896
2015    9       26    20  54    3.6199   568.4    3.608      48.834
2015    9       26    21   0    3.6196   568.2    3.605      48.770
2015    9       26    21   7    3.6189   567.9    3.602      48.705
2015    9       26    21  13    3.6181   567.7    3.599      48.638
2015    9       26    21  20    3.6169   567.5    3.595      48.571
2015    9       26    21  26    3.6155   567.2    3.592      48.504
2015    9       26    21  33    3.6137   567.0    3.589      48.435
2015    9       26    21  39    3.6118   566.7    3.585      48.367
2015    9       26    21  46    3.6095   566.5    3.581      48.298
2015    9       26    21  52    3.6070   566.3    3.578      48.229
2015    9       26    21  59    3.6041   566.0    3.574      48.159
2015    9       26    22   5    3.6011   565.8    3.570      48.089
2015    9       26    22  12    3.5976   565.5    3.566      48.020
2015    9       26    22  18    3.5940   565.3    3.563      47.950
2015    9       26    22  25    3.5900   565.0    3.559      47.880
2015    9       26    22  31    3.5858   564.8    3.555      47.809
2015    9       26    22  38    3.5813   564.5    3.551      47.739
2015    9       26    22  44    3.5766   564.3    3.547      47.669
2015    9       26    22  51    3.5716   564.0    3.543      47.599
2015    9       26    22  57    3.5665   563.8    3.539      47.530
2015    9       26    23   4    3.5610   563.5    3.535      47.460
2015    9       26    23  10    3.5554   563.3    3.531      47.391
2015    9       26    23  17    3.5495   563.0    3.527      47.322
2015    9       26    23  23    3.5435   562.7    3.523      47.254
2015    9       26    23  30    3.5372   562.5    3.519      47.186
2015    9       26    23  36    3.5308   562.2    3.516      47.118
2015    9       26    23  43    3.5242   562.0    3.512      47.052
2015    9       26    23  49    3.5175   561.7    3.508      46.986
2015    9       26    23  55    3.5107   561.5    3.504      46.922
2015    9       27     0   2    3.5040   561.2    3.501      46.858
2015    9       27     0   8    3.4971   561.0    3.497      46.795
2015    9       27     0  15    3.4904   560.7    3.494      46.733
2015    9       27     0  21    3.4837   560.5    3.491      46.673
2015    9       27     0  28    3.4771   560.2    3.488      46.613
2015    9       27     0  34    3.4705   560.0    3.485      46.555
2015    9       27     0  41    3.4640   559.8    3.482      46.497
2015    9       27     0  47    3.4576   559.5    3.479      46.441
2015    9       27     0  54    3.4513   559.3    3.476      46.386
2015    9       27     1   0    3.4449   559.1    3.473      46.331
2015    9       27     1   7    3.4388   558.9    3.471      46.278
2015    9       27     1  13    3.4326   558.6    3.468      46.225
2015    9       27     1  20    3.4266   558.4    3.466      46.173
2015    9       27     1  26    3.4206   558.2    3.464      46.121
2015    9       27     1  33    3.4148   558.0    3.462      46.071
2015    9       27     1  39    3.4090   557.7    3.460      46.021
2015    9       27     1  46    3.4034   557.5    3.458      45.971
2015    9       27     1  52    3.3978   557.3    3.456      45.922
2015    9       27     1  59    3.3924   557.1    3.454      45.874
2015    9       27     2   5    3.3870   556.9    3.452      45.825
2015    9       27     2  12    3.3817   556.7    3.450      45.778
2015    9       27     2  18    3.3766   556.5    3.449      45.730
2015    9       27     2  25    3.3715   556.3    3.447      45.683
2015    9       27     2  31    3.3665   556.1    3.446      45.636
2015    9       27     2  38    3.3617   555.8    3.444      45.589
2015    9       27     2  44    3.3569   555.6    3.443      45.543
2015    9       27     2  51    3.3522   555.4    3.441      45.496
2015    9       27     2  57    3.3476   555.2    3.440      45.451
2015    9       27     3   4    3.3430   555.0    3.439      45.405
2015    9       27     3  10    3.3386   554.8    3.437      45.360
2015    9       27     3  17    3.3342   554.6    3.436      45.315
2015    9       27     3  23    3.3300   554.4    3.435      45.271
2015    9       27     3  30    3.3258   554.2    3.434      45.227
2015    9       27     3  36    3.3216   554.0    3.433      45.184
2015    9       27     3  43    3.3175   553.8    3.432      45.142
2015    9       27     3  49    3.3135   553.6    3.432      45.101
2015    9       27     3  56    3.3096   553.4    3.431      45.060
2015    9       27     4   2    3.3057   553.2    3.430      45.020
2015    9       27     4   9    3.3018   553.0    3.430      44.980
2015    9       27     4  15    3.2980   552.8    3.429      44.942
2015    9       27     4  22    3.2943   552.6    3.429      44.904
2015    9       27     4  28    3.2906   552.4    3.429      44.867
2015    9       27     4  34    3.2869   552.2    3.429      44.830
2015    9       27     4  41    3.2833   552.0    3.428      44.794
2015    9       27     4  47    3.2797   551.9    3.428      44.759
2015    9       27     4  54    3.2762   551.7    3.429      44.725
2015    9       27     5   0    3.2727   551.5    3.429      44.691
2015    9       27     5   7    3.2692   551.3    3.429      44.658
2015    9       27     5  13    3.2658   551.1    3.429      44.626
2015    9       27     5  20    3.2624   550.9    3.430      44.595
2015    9       27     5  26    3.2591   550.7    3.431      44.564
2015    9       27     5  33    3.2558   550.5    3.431      44.535
2015    9       27     5  39    3.2525   550.4    3.432      44.506
2015    9       27     5  46    3.2493   550.2    3.434      44.478
2015    9       27     5  52    3.2462   550.0    3.435      44.452
2015    9       27     5  59    3.2431   549.8    3.436      44.426
2015    9       27     6   5    3.2400   549.6    3.438      44.402
2015    9       27     6  12    3.2370   549.4    3.440      44.380
2015    9       27     6  18    3.2341   549.2    3.442      44.358
2015    9       27     6  25    3.2313   549.1    3.444      44.339
2015    9       27     6  31    3.2285   548.9    3.447      44.320
2015    9       27     6  38    3.2258   548.7    3.450      44.304
2015    9       27     6  44    3.2231   548.5    3.453      44.288
2015    9       27     6  51    3.2205   548.4    3.456      44.275
2015    9       27     6  57    3.2180   548.2    3.459      44.263
2015    9       27     7   4    3.2155   548.0    3.463      44.252
2015    9       27     7  10    3.2130   547.8    3.467      44.242
2015    9       27     7  17    3.2106   547.7    3.471      44.234
2015    9       27     7  23    3.2083   547.5    3.475      44.228
2015    9       27     7  30    3.2060   547.3    3.480      44.222
2015    9       27     7  36    3.2037   547.2    3.485      44.217
2015    9       27     7  43    3.2014   547.0    3.489      44.213
2015    9       27     7  49    3.1991   546.9    3.494      44.210
2015    9       27     7  56    3.1969   546.7    3.499      44.207
2015    9       27     8   2    3.1947   546.6    3.505      44.205
2015    9       27     8   9    3.1925   546.4    3.510      44.204
2015    9       27     8  15    3.1902   546.3    3.515      44.202
2015    9       27     8  22    3.1880   546.1    3.521      44.201
2015    9       27     8  28    3.1858   545.9    3.527      44.200
2015    9       27     8  35    3.1836   545.8    3.532      44.198
2015    9       27     8  41    3.1814   545.6    3.538      44.197
2015    9       27     8  48    3.1793   545.5    3.544      44.196
2015    9       27     8  54    3.1771   545.3    3.550      44.194
2015    9       27     9   1    3.1749   545.2    3.556      44.193
2015    9       27     9   7    3.1728   545.0    3.562      44.191
2015    9       27     9  14    3.1706   544.8    3.568      44.190
2015    9       27     9  20    3.1685   544.7    3.574      44.189
2015    9       27     9  27    3.1664   544.5    3.580      44.189
2015    9       27     9  33    3.1643   544.3    3.586      44.189
2015    9       27     9  40    3.1623   544.2    3.592      44.190
2015    9       27     9  46    3.1603   544.0    3.599      44.192
2015    9       27     9  52    3.1583   543.8    3.605      44.195
2015    9       27     9  59    3.1564   543.7    3.611      44.200
2015    9       27    10   5    3.1546   543.5    3.617      44.206
2015    9       27    10  12    3.1528   543.4    3.623      44.214
2015    9       27    10  18    3.1511   543.2    3.629      44.222
2015    9       27    10  25    3.1495   543.0    3.635      44.231
2015    9       27    10  31    3.1479   542.9    3.641      44.238
2015    9       27    10  38    3.1464   542.7    3.646      44.246
2015    9       27    10  44    3.1450   542.6    3.652      44.253
2015    9       27    10  51    3.1436   542.4    3.657      44.261
2015    9       27    10  57    3.1423   542.3    3.662      44.268
2015    9       27    11   4    3.1411   542.1    3.666      44.276
2015    9       27    11  10    3.1399   542.0    3.671      44.285
2015    9       27    11  17    3.1389   541.8    3.675      44.293
2015    9       27    11  23    3.1378   541.7    3.679      44.301
2015    9       27    11  30    3.1368   541.6    3.683      44.310
2015    9       27    11  36    3.1359   541.4    3.687      44.319
2015    9       27    11  43    3.1351   541.3    3.690      44.327
2015    9       27    11  49    3.1343   541.2    3.693      44.335
2015    9       27    11  56    3.1335   541.0    3.696      44.342
2015    9       27    12   2    3.1328   540.9    3.698      44.347
2015    9       27    12   9    3.1322   540.8    3.700      44.350
2015    9       27    12  15    3.1315   540.7    3.702      44.352
2015    9       27    12  22    3.1309   540.6    3.704      44.351
2015    9       27    12  28    3.1304   540.4    3.705      44.349
2015    9       27    12  35    3.1299   540.3    3.707      44.344
2015    9       27    12  41    3.1294   540.2    3.707      44.338
2015    9       27    12  48    3.1289   540.1    3.708      44.330
2015    9       27    12  54    3.1285   540.0    3.709      44.321
2015    9       27    13   1    3.1281   539.9    3.709      44.310
2015    9       27    13   7    3.1276   539.8    3.709      44.297
2015    9       27    13  14    3.1272   539.7    3.709      44.282
2015    9       27    13  20    3.1268   539.6    3.708      44.266
2015    9       27    13  27    3.1264   539.5    3.707      44.249
2015    9       27    13  33    3.1261   539.4    3.707      44.230
2015    9       27    13  40    3.1257   539.3    3.706      44.210
2015    9       27    13  46    3.1254   539.2    3.705      44.188
2015    9       27    13  53    3.1251   539.1    3.703      44.166
2015    9       27    13  59    3.1249   539.0    3.702      44.142
2015    9       27    14   6    3.1246   538.9    3.700      44.118
2015    9       27    14  12    3.1244   538.8    3.699      44.092
2015    9       27    14  19    3.1242   538.7    3.697      44.066
2015    9       27    14  25    3.1241   538.6    3.695      44.038
2015    9       27    14  32    3.1239   538.5    3.693      44.010
2015    9       27    14  38    3.1239   538.4    3.691      43.981
2015    9       27    14  45    3.1238   538.3    3.688      43.951
2015    9       27    14  51    3.1237   538.2    3.686      43.919
2015    9       27    14  58    3.1237   538.1    3.684      43.886
2015    9       27    15   4    3.1237   538.0    3.681      43.853
2015    9       27    15  10    3.1236   537.9    3.678      43.818
2015    9       27    15  17    3.1235   537.8    3.676      43.782
2015    9       27    15  23    3.1235   537.7    3.673      43.745
2015    9       27    15  30    3.1234   537.6    3.670      43.707
2015    9       27    15  36    3.1233   537.5    3.667      43.668
2015    9       27    15  43    3.1232   537.4    3.664      43.627
2015    9       27    15  49    3.1230   537.3    3.661      43.586
2015    9       27    15  56    3.1229   537.2    3.658      43.544
2015    9       27    16   2    3.1227   537.1    3.655      43.501
2015    9       27    16   9    3.1224   537.0    3.652      43.456
2015    9       27    16  15    3.1222   536.9    3.649      43.411
2015    9       27    16  22    3.1219   536.8    3.645      43.365
2015    9       27    16  28    3.1215   536.7    3.642      43.318
2015    9       27    16  35    3.1212   536.6    3.639      43.270
2015    9       27    16  41    3.1208   536.5    3.635      43.221
2015    9       27    16  48    3.1203   536.4    3.632      43.172
2015    9       27    16  54    3.1199   536.3    3.628      43.122
2015    9       27    17   1    3.1194   536.2    3.625      43.071
2015    9       27    17   7    3.1188   536.1    3.621      43.019
2015    9       27    17  14    3.1182   536.0    3.618      42.966
2015    9       27    17  20    3.1176   535.8    3.614      42.913
2015    9       27    17  27    3.1170   535.7    3.611      42.859
2015    9       27    17  33    3.1163   535.6    3.607      42.805
2015    9       27    17  40    3.1156   535.5    3.603      42.750
2015    9       27    17  46    3.1149   535.4    3.600      42.694
2015    9       27    17  53    3.1141   535.3    3.596      42.638
2015    9       27    17  59    3.1133   535.1    3.593      42.582
2015    9       27    18   6    3.1124   535.0    3.589      42.525
2015    9       27    18  12    3.1116   534.9    3.586      42.468
2015    9       27    18  19    3.1107   534.7    3.583      42.411
2015    9       27    18  25    3.1098   534.6    3.579      42.353
2015    9       27    18  32    3.1089   534.5    3.576      42.296
2015    9       27    18  38    3.1079   534.3    3.573      42.238
2015    9       27    18  45    3.1069   534.2    3.570      42.180
2015    9       27    18  51    3.1059   534.1    3.567      42.123
2015    9       27    18  58    3.1049   533.9    3.564      42.065
2015    9       27    19   4    3.1039   533.8    3.561      42.008
2015    9       27    19  11    3.1028   533.6    3.559      41.951
2015    9       27    19  17    3.1018   533.5    3.556      41.894
2015    9       27    19  24    3.1007   533.3    3.554      41.838
2015    9       27    19  30    3.0996   533.2    3.552      41.783
2015    9       27    19  36    3.0985   533.0    3.550      41.728
2015    9       27    19  43    3.0974   532.9    3.548      41.674
2015    9       27    19  49    3.0963   532.7    3.547      41.621
2015    9       27    19  56    3.0952   532.5    3.546      41.569
2015    9       27    20   2    3.0941   532.4    3.545      41.517
2015    9       27    20   9    3.0931   532.2    3.544      41.468
2015    9       27    20  15    3.0920   532.0    3.543      41.420
2015    9       27    20  22    3.0910   531.9    3.543      41.373
2015    9       27    20  28    3.0899   531.7    3.543      41.328
2015    9       27    20  35    3.0890   531.5    3.543      41.285
2015    9       27    20  41    3.0880   531.4    3.544      41.243
2015    9       27    20  48    3.0870   531.2    3.544      41.204
2015    9       27    20  54    3.0861   531.0    3.545      41.166
2015    9       27    21   1    3.0852   530.9    3.547      41.130
2015    9       27    21   7    3.0844   530.7    3.548      41.096
2015    9       27    21  14    3.0836   530.5    3.550      41.065
2015    9       27    21  20    3.0828   530.4    3.551      41.035
2015    9       27    21  27    3.0820   530.2    3.553      41.007
2015    9       27    21  33    3.0812   530.0    3.555      40.980
2015    9       27    21  40    3.0805   529.9    3.557      40.955
2015    9       27    21  46    3.0798   529.7    3.559      40.931
2015    9       27    21  53    3.0791   529.5    3.562      40.909
2015    9       27    21  59    3.0785   529.4    3.564      40.888
2015    9       27    22   6    3.0778   529.2    3.566      40.867
2015    9       27    22  12    3.0771   529.0    3.568      40.847
2015    9       27    22  19    3.0764   528.8    3.569      40.826
2015    9       27    22  25    3.0756   528.7    3.571      40.803
2015    9       27    22  32    3.0749   528.5    3.572      40.780
2015    9       27    22  38    3.0741   528.3    3.574      40.756
2015    9       27    22  45    3.0733   528.2    3.575      40.731
2015    9       27    22  51    3.0726   528.0    3.576      40.705
2015    9       27    22  58    3.0718   527.8    3.577      40.678
2015    9       27    23   4    3.0710   527.6    3.579      40.651
2015    9       27    23  11    3.0702   527.5    3.580      40.623
2015    9       27    23  17    3.0694   527.3    3.581      40.595
2015    9       27    23  24    3.0686   527.1    3.582      40.566
2015    9       27    23  30    3.0678   527.0    3.583      40.537
2015    9       27    23  37    3.0671   526.8    3.584      40.507
2015    9       27    23  43    3.0663   526.6    3.584      40.478
2015    9       27    23  50    3.0656   526.4    3.585      40.448
2015    9       27    23  56    3.0649   526.3    3.586      40.418
2015    9       28     0   3    3.0641   526.1    3.587      40.388
2015    9       28     0   9    3.0634   525.9    3.588      40.359
2015    9       28     0  16    3.0627   525.7    3.589      40.330
2015    9       28     0  22    3.0621   525.5    3.591      40.301
2015    9       28     0  28    3.0614   525.4    3.592      40.272
2015    9       28     0  35    3.0607   525.2    3.593      40.244
2015    9       28     0  41    3.0601   525.0    3.594      40.216
2015    9       28     0  48    3.0594   524.9    3.595      40.188
2015    9       28     0  54    3.0588   524.7    3.596      40.162
2015    9       28     1   1    3.0581   524.5    3.597      40.135
2015    9       28     1   7    3.0574   524.3    3.598      40.109
2015    9       28     1  14    3.0568   524.2    3.599      40.083
2015    9       28     1  20    3.0560   524.0    3.600      40.056
2015    9       28     1  27    3.0553   523.9    3.601      40.029
2015    9       28     1  33    3.0546   523.7    3.601      40.001
2015    9       28     1  40    3.0538   523.5    3.602      39.973
2015    9       28     1  46    3.0530   523.4    3.602      39.944
2015    9       28     1  53    3.0522   523.2    3.602      39.914
2015    9       28     1  59    3.0514   523.1    3.603      39.883
2015    9       28     2   6    3.0506   522.9    3.603      39.852
2015    9       28     2  12    3.0498   522.8    3.603      39.820
2015    9       28     2  19    3.0489   522.6    3.603      39.787
2015    9       28     2  25    3.0481   522.5    3.603      39.754
2015    9       28     2  32    3.0472   522.3    3.603      39.720
2015    9       28     2  38    3.0464   522.1    3.603      39.686
2015    9       28     2  45    3.0455   522.0    3.602      39.651
2015    9       28     2  51    3.0446   521.8    3.602      39.616
2015    9       28     2  58    3.0438   521.7    3.602      39.580
2015    9       28     3   4    3.0429   521.5    3.602      39.544
2015    9       28     3  11    3.0420   521.4    3.602      39.508
2015    9       28     3  17    3.0412   521.2    3.601      39.471
2015    9       28     3  24    3.0403   521.0    3.601      39.434
2015    9       28     3  30    3.0394   520.9    3.601      39.398
2015    9       28     3  37    3.0386   520.7    3.601      39.361
2015    9       28     3  43    3.0377   520.6    3.600      39.324
2015    9       28     3  50    3.0369   520.4    3.600      39.288
2015    9       28     3  56    3.0361   520.2    3.600      39.252
2015    9       28     4   3    3.0353   520.1    3.600      39.217
2015    9       28     4   9    3.0345   519.9    3.601      39.182
2015    9       28     4  16    3.0337   519.8    3.601      39.148
2015    9       28     4  22    3.0330   519.6    3.601      39.115
2015    9       28     4  29    3.0322   519.4    3.601      39.082
2015    9       28     4  35    3.0315   519.3    3.602      39.050
2015    9       28     4  42    3.0308   519.1    3.603      39.019
2015    9       28     4  48    3.0302   519.0    3.603      38.988
2015    9       28     4  55    3.0295   518.8    3.604      38.958
2015    9       28     5   1    3.0289   518.6    3.605      38.929
2015    9       28     5   8    3.0283   518.5    3.606      38.901
2015    9       28     5  14    3.0277   518.3    3.607      38.873
2015    9       28     5  21    3.0271   518.1    3.608      38.846
2015    9       28     5  27    3.0266   517.9    3.609      38.820
2015    9       28     5  33    3.0260   517.8    3.611      38.794
2015    9       28     5  40    3.0255   517.6    3.612      38.769
2015    9       28     5  46    3.0250   517.4    3.614      38.745
2015    9       28     5  53    3.0246   517.3    3.615      38.721
2015    9       28     5  59    3.0241   517.1    3.617      38.698
2015    9       28     6   6    3.0237   516.9    3.618      38.675
2015    9       28     6  12    3.0233   516.7    3.620      38.654
2015    9       28     6  19    3.0230   516.5    3.622      38.633
2015    9       28     6  25    3.0226   516.4    3.623      38.612
2015    9       28     6  32    3.0223   516.2    3.625      38.592
2015    9       28     6  38    3.0220   516.0    3.627      38.572
2015    9       28     6  45    3.0217   515.8    3.629      38.552
2015    9       28     6  51    3.0214   515.6    3.631      38.533
2015    9       28     6  58    3.0212   515.5    3.633      38.515
2015    9       28     7   4    3.0210   515.3    3.635      38.497
2015    9       28     7  11    3.0207   515.1    3.637      38.480
2015    9       28     7  17    3.0205   515.0    3.639      38.463
2015    9       28     7  24    3.0203   514.8    3.641      38.446
2015    9       28     7  30    3.0200   514.6    3.643      38.430
2015    9       28     7  37    3.0198   514.5    3.646      38.414
2015    9       28     7  43    3.0196   514.3    3.648      38.399
2015    9       28     7  50    3.0193   514.1    3.650      38.383
2015    9       28     7  56    3.0191   514.0    3.652      38.368
2015    9       28     8   3    3.0188   513.8    3.654      38.352
2015    9       28     8   9    3.0185   513.6    3.657      38.337
2015    9       28     8  16    3.0182   513.5    3.659      38.322
2015    9       28     8  22    3.0178   513.3    3.661      38.306
2015    9       28     8  29    3.0175   513.1    3.663      38.291
2015    9       28     8  35    3.0171   513.0    3.665      38.275
2015    9       28     8  42    3.0168   512.8    3.667      38.259
2015    9       28     8  48    3.0164   512.6    3.669      38.242
2015    9       28     8  55    3.0160   512.5    3.671      38.225
2015    9       28     9   1    3.0156   512.3    3.672      38.208
2015    9       28     9   8    3.0152   512.1    3.674      38.191
2015    9       28     9  14    3.0149   512.0    3.676      38.173
2015    9       28     9  21    3.0144   511.8    3.678      38.155
2015    9       28     9  27    3.0140   511.7    3.679      38.136
2015    9       28     9  33    3.0136   511.5    3.681      38.118
2015    9       28     9  40    3.0131   511.3    3.683      38.099
2015    9       28     9  46    3.0127   511.2    3.684      38.080
2015    9       28     9  53    3.0122   511.0    3.686      38.060
2015    9       28     9  59    3.0118   510.9    3.687      38.040
2015    9       28    10   6    3.0113   510.7    3.689      38.020
2015    9       28    10  12    3.0108   510.5    3.690      38.000
2015    9       28    10  19    3.0103   510.4    3.691      37.980
2015    9       28    10  25    3.0099   510.2    3.693      37.959
2015    9       28    10  32    3.0094   510.1    3.694      37.938
2015    9       28    10  38    3.0089   509.9    3.695      37.917
2015    9       28    10  45    3.0084   509.8    3.696      37.895
2015    9       28    10  51    3.0079   509.6    3.698      37.874
2015    9       28    10  58    3.0074   509.4    3.699      37.853
2015    9       28    11   4    3.0068   509.3    3.700      37.831
2015    9       28    11  11    3.0063   509.1    3.701      37.810
2015    9       28    11  17    3.0058   509.0    3.703      37.788
2015    9       28    11  24    3.0053   508.8    3.704      37.767
2015    9       28    11  30    3.0048   508.6    3.705      37.745
2015    9       28    11  37    3.0042   508.5    3.707      37.724
2015    9       28    11  43    3.0037   508.3    3.708      37.703
2015    9       28    11  50    3.0032   508.2    3.709      37.682
2015    9       28    11  56    3.0026   508.0    3.710      37.661
2015    9       28    12   3    3.0021   507.9    3.712      37.641
2015    9       28    12   9    3.0016   507.7    3.713      37.620
2015    9       28    12  16    3.0011   507.5    3.715      37.600
2015    9       28    12  22    3.0006   507.4    3.716      37.581
2015    9       28    12  29    3.0000   507.2    3.717      37.561
2015    9       28    12  35    2.9995   507.1    3.719      37.541
2015    9       28    12  42    2.9990   506.9    3.720      37.522
2015    9       28    12  48    2.9985   506.7    3.722      37.503
2015    9       28    12  55    2.9980   506.6    3.723      37.484
2015    9       28    13   1    2.9975   506.4    3.725      37.465
2015    9       28    13   8    2.9970   506.3    3.726      37.446
2015    9       28    13  14    2.9964   506.1    3.728      37.427
2015    9       28    13  21    2.9959   505.9    3.729      37.408
2015    9       28    13  27    2.9954   505.8    3.731      37.389
2015    9       28    13  34    2.9949   505.6    3.732      37.370
2015    9       28    13  40    2.9944   505.5    3.734      37.351
2015    9       28    13  47    2.9939   505.3    3.735      37.332
2015    9       28    13  53    2.9934   505.1    3.736      37.313
2015    9       28    14   0    2.9929   505.0    3.738      37.294
2015    9       28    14   6    2.9924   504.8    3.739      37.275
2015    9       28    14  13    2.9920   504.7    3.741      37.256
2015    9       28    14  19    2.9915   504.5    3.742      37.237
2015    9       28    14  26    2.9910   504.3    3.744      37.218
2015    9       28    14  32    2.9905   504.2    3.745      37.199
2015    9       28    14  38    2.9901   504.0    3.747      37.180
2015    9       28    14  45    2.9897   503.8    3.748      37.162
2015    9       28    14  51    2.9892   503.7    3.750      37.143
2015    9       28    14  58    2.9888   503.5    3.751      37.125
2015    9       28    15   4    2.9884   503.4    3.753      37.106
2015    9       28    15  11    2.9880   503.2    3.754      37.089
2015    9       28    15  17    2.9877   503.0    3.756      37.071
2015    9       28    15  24    2.9873   502.9    3.758      37.053
2015    9       28    15  30    2.9870   502.7    3.759      37.036
2015    9       28    15  37    2.9866   502.6    3.761      37.019
2015    9       28    15  43    2.9863   502.4    3.763      37.002
2015    9       28    15  50    2.9860   502.2    3.765      36.986
2015    9       28    15  56    2.9857   502.1    3.767      36.969
2015    9       28    16   3    2.9854   501.9    3.768      36.953
2015    9       28    16   9    2.9851   501.8    3.770      36.938
2015    9       28    16  16    2.9848   501.6    3.772      36.922
2015    9       28    16  22    2.9846   501.5    3.774      36.907
2015    9       28    16  29    2.9843   501.3    3.776      36.891
2015    9       28    16  35    2.9840   501.1    3.778      36.876
2015    9       28    16  42    2.9837   501.0    3.780      36.861
2015    9       28    16  48    2.9834   500.8    3.782      36.846
2015    9       28    16  55    2.9831   500.7    3.784      36.831
2015    9       28    17   1    2.9828   500.5    3.786      36.816
2015    9       28    17   8    2.9825   500.4    3.788      36.802
2015    9       28    17  14    2.9821   500.2    3.789      36.787
2015    9       28    17  21    2.9818   500.1    3.791      36.772
2015    9       28    17  27    2.9815   499.9    3.793      36.757
2015    9       28    17  34    2.9811   499.7    3.795      36.742
2015    9       28    17  40    2.9808   499.6    3.797      36.727
2015    9       28    17  47    2.9805   499.4    3.798      36.712
2015    9       28    17  53    2.9801   499.3    3.800      36.698
2015    9       28    18   0    2.9798   499.1    3.802      36.683
2015    9       28    18   6    2.9794   499.0    3.804      36.668
2015    9       28    18  13    2.9791   498.8    3.805      36.653
2015    9       28    18  19    2.9787   498.6    3.807      36.638
2015    9       28    18  26    2.9784   498.5    3.809      36.623
2015    9       28    18  32    2.9781   498.3    3.810      36.608
2015    9       28    18  39    2.9777   498.2    3.812      36.594
2015    9       28    18  45    2.9774   498.0    3.813      36.579
2015    9       28    18  52    2.9771   497.9    3.815      36.564
2015    9       28    18  58    2.9767   497.7    3.817      36.550
2015    9       28    19   5    2.9764   497.6    3.818      36.535
2015    9       28    19  11    2.9761   497.4    3.820      36.521
2015    9       28    19  17    2.9758   497.3    3.822      36.507
2015    9       28    19  24    2.9754   497.1    3.823      36.493
2015    9       28    19  30    2.9751   496.9    3.825      36.478
2015    9       28    19  37    2.9748   496.8    3.827      36.464
2015    9       28    19  43    2.9745   496.6    3.828      36.450
2015    9       28    19  50    2.9743   496.5    3.830      36.437
2015    9       28    19  56    2.9740   496.3    3.832      36.423
2015    9       28    20   3    2.9737   496.2    3.833      36.409
2015    9       28    20   9    2.9734   496.0    3.835      36.396
2015    9       28    20  16    2.9732   495.9    3.837      36.382
2015    9       28    20  22    2.9729   495.7    3.839      36.369
2015    9       28    20  29    2.9727   495.6    3.841      36.356
2015    9       28    20  35    2.9724   495.4    3.842      36.343
2015    9       28    20  42    2.9722   495.3    3.844      36.330
2015    9       28    20  48    2.9720   495.1    3.846      36.316
2015    9       28    20  55    2.9718   495.0    3.848      36.304
2015    9       28    21   1    2.9715   494.8    3.850      36.291
2015    9       28    21   8    2.9713   494.7    3.852      36.278
2015    9       28    21  14    2.9711   494.5    3.854      36.266
2015    9       28    21  21    2.9710   494.4    3.857      36.253
2015    9       28    21  27    2.9708   494.2    3.859      36.240
2015    9       28    21  34    2.9706   494.1    3.861      36.228
2015    9       28    21  40    2.9704   493.9    3.863      36.216
2015    9       28    21  47    2.9702   493.8    3.865      36.204
2015    9       28    21  53    2.9701   493.6    3.868      36.191
2015    9       28    22   0    2.9699   493.5    3.870      36.179
2015    9       28    22   6    2.9697   493.3    3.872      36.167
2015    9       28    22  13    2.9696   493.2    3.874      36.155
2015    9       28    22  19    2.9694   493.0    3.877      36.143
2015    9       28    22  26    2.9693   492.9    3.879      36.131
2015    9       28    22  32    2.9691   492.7    3.881      36.119
2015    9       28    22  39    2.9689   492.6    3.883      36.106
2015    9       28    22  45    2.9687   492.4    3.886      36.094
2015    9       28    22  52    2.9685   492.3    3.888      36.082
2015    9       28    22  58    2.9683   492.1    3.890      36.069
2015    9       28    23   5    2.9681   492.0    3.892      36.056
2015    9       28    23  11    2.9679   491.8    3.894      36.044
2015    9       28    23  17    2.9677   491.7    3.896      36.031
2015    9       28    23  24    2.9675   491.5    3.898      36.017
2015    9       28    23  30    2.9673   491.4    3.900      36.004
2015    9       28    23  37    2.9671   491.3    3.902      35.991
2015    9       28    23  43    2.9669   491.1    3.904      35.978
2015    9       28    23  50    2.9667   491.0    3.906      35.964
2015    9       28    23  56    2.9665   490.8    3.908      35.951
2015    9       29     0   3    2.9663   490.7    3.909      35.937
2015    9       29     0   9    2.9661   490.5    3.911      35.923
2015    9       29     0  16    2.9659   490.4    3.913      35.910
2015    9       29     0  22    2.9657   490.2    3.915      35.896
2015    9       29     0  29    2.9655   490.1    3.916      35.882
2015    9       29     0  35    2.9654   489.9    3.918      35.868
2015    9       29     0  42    2.9652   489.8    3.920      35.854
2015    9       29     0  48    2.9650   489.6    3.921      35.840
2015    9       29     0  55    2.9648   489.5    3.923      35.827
2015    9       29     1   1    2.9646   489.3    3.925      35.813
2015    9       29     1   8    2.9644   489.2    3.926      35.799
2015    9       29     1  14    2.9642   489.0    3.928      35.785
2015    9       29     1  21    2.9640   488.9    3.929      35.771
2015    9       29     1  27    2.9638   488.7    3.931      35.757
2015    9       29     1  34    2.9636   488.6    3.932      35.742
2015    9       29     1  40    2.9634   488.5    3.934      35.728
2015    9       29     1  47    2.9632   488.3    3.936      35.714
2015    9       29     1  53    2.9630   488.2    3.937      35.700
2015    9       29     2   0    2.9628   488.0    3.939      35.686
2015    9       29     2   6    2.9626   487.9    3.940      35.672
2015    9       29     2  13    2.9624   487.7    3.942      35.658
2015    9       29     2  19    2.9622   487.6    3.944      35.644
2015    9       29     2  26    2.9620   487.4    3.945      35.631
2015    9       29     2  32    2.9619   487.3    3.947      35.617
2015    9       29     2  39    2.9617   487.1    3.949      35.603
2015    9       29     2  45    2.9615   487.0    3.950      35.590
2015    9       29     2  52    2.9613   486.8    3.952      35.577
2015    9       29     2  58    2.9611   486.7    3.954      35.563
2015    9       29     3   5    2.9610   486.5    3.956      35.550
2015    9       29     3  11    2.9609   486.4    3.958      35.537
2015    9       29     3  18    2.9607   486.3    3.960      35.525
2015    9       29     3  24    2.9606   486.1    3.962      35.512
2015    9       29     3  31    2.9604   486.0    3.964      35.500
2015    9       29     3  37    2.9603   485.8    3.966      35.487
2015    9       29     3  44    2.9602   485.7    3.968      35.476
2015    9       29     3  50    2.9601   485.5    3.970      35.464
2015    9       29     3  57    2.9600   485.4    3.972      35.452
2015    9       29     4   3    2.9600   485.2    3.975      35.441
2015    9       29     4   9    2.9599   485.1    3.977      35.429
2015    9       29     4  16    2.9598   484.9    3.979      35.418
2015    9       29     4  22    2.9598   484.8    3.982      35.407
2015    9       29     4  29    2.9597   484.7    3.984      35.397
2015    9       29     4  35    2.9597   484.5    3.986      35.386
2015    9       29     4  42    2.9596   484.4    3.989      35.375
2015    9       29     4  48    2.9596   484.2    3.991      35.365
2015    9       29     4  55    2.9595   484.1    3.994      35.354
2015    9       29     5   1    2.9594   484.0    3.996      35.344
2015    9       29     5   8    2.9594   483.8    3.998      35.333
2015    9       29     5  14    2.9593   483.7    4.001      35.323
2015    9       29     5  21    2.9592   483.5    4.003      35.312
2015    9       29     5  27    2.9591   483.4    4.006      35.302
2015    9       29     5  34    2.9590   483.2    4.008      35.291
2015    9       29     5  40    2.9589   483.1    4.010      35.281
2015    9       29     5  47    2.9588   483.0    4.013      35.270
2015    9       29     5  53    2.9586   482.8    4.015      35.259
2015    9       29     6   0    2.9585   482.7    4.017      35.248
2015    9       29     6   6    2.9584   482.5    4.019      35.237
2015    9       29     6  13    2.9583   482.4    4.022      35.226
2015    9       29     6  19    2.9581   482.3    4.024      35.215
2015    9       29     6  26    2.9580   482.1    4.026      35.203
2015    9       29     6  32    2.9578   482.0    4.028      35.192
2015    9       29     6  39    2.9577   481.8    4.030      35.180
2015    9       29     6  45    2.9575   481.7    4.032      35.169
2015    9       29     6  52    2.9574   481.5    4.034      35.157
2015    9       29     6  58    2.9572   481.4    4.036      35.145
2015    9       29     7   5    2.9571   481.3    4.038      35.133
2015    9       29     7  11    2.9569   481.1    4.040      35.121
2015    9       29     7  18    2.9568   481.0    4.042      35.110
2015    9       29     7  24    2.9566   480.8    4.044      35.098
2015    9       29     7  31    2.9565   480.7    4.046      35.086
2015    9       29     7  37    2.9563   480.5    4.048      35.074
2015    9       29     7  44    2.9562   480.4    4.050      35.062
2015    9       29     7  50    2.9560   480.2    4.052      35.050
2015    9       29     7  56    2.9559   480.1    4.053      35.039
2015    9       29     8   3    2.9558   480.0    4.055      35.027
2015    9       29     8   9    2.9556   479.8    4.057      35.016
2015    9       29     8  16    2.9555   479.7    4.059      35.004
2015    9       29     8  22    2.9554   479.5    4.061      34.993
2015    9       29     8  29    2.9553   479.4    4.063      34.982
2015    9       29     8  35    2.9552   479.2    4.066      34.971
2015    9       29     8  42    2.9551   479.1    4.068      34.960
2015    9       29     8  48    2.9550   478.9    4.070      34.949
2015    9       29     8  55    2.9549   478.8    4.072      34.939
2015    9       29     9   1    2.9548   478.6    4.074      34.929
2015    9       29     9   8    2.9548   478.5    4.076      34.919
2015    9       29     9  14    2.9547   478.4    4.079      34.909
2015    9       29     9  21    2.9547   478.2    4.081      34.899
2015    9       29     9  27    2.9547   478.1    4.084      34.890
2015    9       29     9  34    2.9547   477.9    4.086      34.881
2015    9       29     9  40    2.9547   477.8    4.089      34.872
2015    9       29     9  47    2.9547   477.6    4.091      34.863
2015    9       29     9  53    2.9547   477.5    4.094      34.855
2015    9       29    10   0    2.9547   477.4    4.096      34.846
2015    9       29    10   6    2.9548   477.2    4.099      34.838
2015    9       29    10  13    2.9548   477.1    4.102      34.830
2015    9       29    10  19    2.9549   476.9    4.104      34.822
2015    9       29    10  26    2.9549   476.8    4.107      34.814
2015    9       29    10  32    2.9550   476.7    4.110      34.807
2015    9       29    10  39    2.9550   476.5    4.113      34.799
2015    9       29    10  45    2.9551   476.4    4.116      34.791
2015    9       29    10  52    2.9551   476.2    4.118      34.784
2015    9       29    10  58    2.9552   476.1    4.121      34.776
2015    9       29    11   5    2.9552   476.0    4.124      34.769
2015    9       29    11  11    2.9552   475.8    4.127      34.761
2015    9       29    11  18    2.9552   475.7    4.129      34.753
2015    9       29    11  24    2.9552   475.6    4.132      34.745
2015    9       29    11  31    2.9552   475.4    4.135      34.737
2015    9       29    11  37    2.9551   475.3    4.138      34.728
2015    9       29    11  44    2.9551   475.2    4.140      34.720
2015    9       29    11  50    2.9550   475.0    4.143      34.712
2015    9       29    11  57    2.9550   474.9    4.145      34.703
2015    9       29    12   3    2.9549   474.7    4.148      34.694
2015    9       29    12  10    2.9549   474.6    4.150      34.685
2015    9       29    12  16    2.9548   474.5    4.153      34.675
2015    9       29    12  23    2.9547   474.3    4.155      34.666
2015    9       29    12  29    2.9546   474.2    4.158      34.656
2015    9       29    12  35    2.9545   474.1    4.160      34.646
2015    9       29    12  42    2.9545   473.9    4.162      34.636
2015    9       29    12  48    2.9543   473.8    4.165      34.626
2015    9       29    12  55    2.9542   473.7    4.167      34.615
2015    9       29    13   1    2.9541   473.5    4.169      34.605
2015    9       29    13   8    2.9540   473.4    4.171      34.594
2015    9       29    13  14    2.9539   473.2    4.174      34.583
2015    9       29    13  21    2.9537   473.1    4.176      34.572
2015    9       29    13  27    2.9536   473.0    4.178      34.561
2015    9       29    13  34    2.9534   472.8    4.180      34.550
2015    9       29    13  40    2.9533   472.7    4.182      34.538
2015    9       29    13  47    2.9531   472.6    4.184      34.527
2015    9       29    13  53    2.9529   472.4    4.186      34.515
2015    9       29    14   0    2.9528   472.3    4.188      34.504
2015    9       29    14   6    2.9526   472.2    4.190      34.492
2015    9       29    14  13    2.9524   472.0    4.192      34.480
2015    9       29    14  19    2.9522   471.9    4.194      34.468
2015    9       29    14  26    2.9520   471.8    4.196      34.456
2015    9       29    14  32    2.9518   471.6    4.198      34.444
2015    9       29    14  39    2.9516   471.5    4.199      34.432
2015    9       29    14  45    2.9514   471.3    4.201      34.420
2015    9       29    14  52    2.9512   471.2    4.203      34.408
2015    9       29    14  58    2.9510   471.1    4.205      34.396
2015    9       29    15   5    2.9508   470.9    4.207      34.384
2015    9       29    15  11    2.9506   470.8    4.209      34.372
2015    9       29    15  18    2.9504   470.6    4.211      34.361
2015    9       29    15  24    2.9502   470.5    4.213      34.349
2015    9       29    15  31    2.9499   470.4    4.215      34.338
2015    9       29    15  37    2.9497   470.2    4.217      34.326
2015    9       29    15  44    2.9495   470.1    4.219      34.315
2015    9       29    15  50    2.9493   469.9    4.221      34.304
2015    9       29    15  57    2.9492   469.8    4.223      34.293
2015    9       29    16   3    2.9490   469.6    4.225      34.283
2015    9       29    16  10    2.9488   469.5    4.227      34.273
2015    9       29    16  16    2.9486   469.4    4.230      34.262
2015    9       29    16  23    2.9484   469.2    4.232      34.253
2015    9       29    16  29    2.9483   469.1    4.234      34.243
2015    9       29    16  36    2.9482   468.9    4.237      34.234
2015    9       29    16  42    2.9480   468.8    4.239      34.225
2015    9       29    16  48    2.9479   468.7    4.241      34.216
2015    9       29    16  55    2.9478   468.5    4.244      34.208
2015    9       29    17   1    2.9477   468.4    4.247      34.199
2015    9       29    17   8    2.9476   468.2    4.249      34.192
2015    9       29    17  14    2.9475   468.1    4.252      34.184
2015    9       29    17  21    2.9474   467.9    4.255      34.177
2015    9       29    17  27    2.9473   467.8    4.258      34.169
2015    9       29    17  34    2.9472   467.7    4.261      34.163
2015    9       29    17  40    2.9472   467.5    4.263      34.156
2015    9       29    17  47    2.9471   467.4    4.266      34.149
2015    9       29    17  53    2.9471   467.2    4.269      34.143
2015    9       29    18   0    2.9470   467.1    4.272      34.136
2015    9       29    18   6    2.9469   467.0    4.275      34.130
2015    9       29    18  13    2.9469   466.8    4.278      34.124
2015    9       29    18  19    2.9468   466.7    4.281      34.117
2015    9       29    18  26    2.9467   466.6    4.285      34.111
2015    9       29    18  32    2.9466   466.4    4.288      34.105
2015    9       29    18  39    2.9465   466.3    4.291      34.099
2015    9       29    18  45    2.9464   466.1    4.294      34.092
2015    9       29    18  52    2.9463   466.0    4.297      34.085
2015    9       29    18  58    2.9462   465.9    4.300      34.079
2015    9       29    19   5    2.9461   465.7    4.303      34.072
2015    9       29    19  11    2.9460   465.6    4.306      34.065
2015    9       29    19  18    2.9459   465.5    4.309      34.057
2015    9       29    19  24    2.9457   465.3    4.311      34.050
2015    9       29    19  31    2.9456   465.2    4.314      34.043
2015    9       29    19  37    2.9455   465.1    4.317      34.035
2015    9       29    19  44    2.9453   464.9    4.320      34.027
2015    9       29    19  50    2.9452   464.8    4.323      34.019
2015    9       29    19  57    2.9450   464.7    4.326      34.011
2015    9       29    20   3    2.9449   464.5    4.328      34.003
2015    9       29    20  10    2.9447   464.4    4.331      33.995
2015    9       29    20  16    2.9445   464.3    4.334      33.986
2015    9       29    20  23    2.9444   464.1    4.336      33.977
2015    9       29    20  29    2.9442   464.0    4.339      33.969
2015    9       29    20  35    2.9440   463.9    4.342      33.960
2015    9       29    20  42    2.9438   463.7    4.344      33.951
2015    9       29    20  48    2.9436   463.6    4.347      33.942
2015    9       29    20  55    2.9435   463.5    4.349      33.933
2015    9       29    21   1    2.9433   463.3    4.352      33.923
2015    9       29    21   8    2.9430   463.2    4.354      33.914
2015    9       29    21  14    2.9428   463.1    4.357      33.904
2015    9       29    21  21    2.9426   462.9    4.359      33.895
2015    9       29    21  27    2.9424   462.8    4.362      33.885
2015    9       29    21  34    2.9421   462.7    4.364      33.875
2015    9       29    21  40    2.9419   462.5    4.367      33.866
2015    9       29    21  47    2.9417   462.4    4.369      33.856
2015    9       29    21  53    2.9414   462.3    4.371      33.846
2015    9       29    22   0    2.9411   462.1    4.374      33.835
2015    9       29    22   6    2.9408   462.0    4.376      33.825
2015    9       29    22  13    2.9406   461.9    4.378      33.815
2015    9       29    22  19    2.9403   461.7    4.380      33.804
2015    9       29    22  26    2.9400   461.6    4.383      33.793
2015    9       29    22  32    2.9396   461.5    4.385      33.783
2015    9       29    22  39    2.9393   461.3    4.387      33.772
2015    9       29    22  45    2.9390   461.2    4.389      33.761
2015    9       29    22  52    2.9387   461.0    4.391      33.750
2015    9       29    22  58    2.9383   460.9    4.393      33.739
2015    9       29    23   5    2.9380   460.8    4.395      33.727
2015    9       29    23  11    2.9376   460.6    4.398      33.716
2015    9       29    23  18    2.9373   460.5    4.400      33.704
2015    9       29    23  24    2.9369   460.4    4.402      33.693
2015    9       29    23  31    2.9365   460.2    4.404      33.681
2015    9       29    23  37    2.9362   460.1    4.406      33.669
2015    9       29    23  44    2.9358   460.0    4.408      33.657
2015    9       29    23  50    2.9354   459.8    4.410      33.645
2015    9       29    23  57    2.9350   459.7    4.412      33.633
2015    9       30     0   3    2.9346   459.5    4.413      33.621
2015    9       30     0  10    2.9342   459.4    4.415      33.609
2015    9       30     0  16    2.9338   459.3    4.417      33.596
2015    9       30     0  23    2.9334   459.1    4.419      33.584
2015    9       30     0  29    2.9330   459.0    4.421      33.572
2015    9       30     0  36    2.9326   458.8    4.423      33.559
2015    9       30     0  42    2.9322   458.7    4.425      33.547
2015    9       30     0  49    2.9318   458.6    4.427      33.535
2015    9       30     0  55    2.9314   458.4    4.429      33.522
2015    9       30     1   2    2.9310   458.3    4.431      33.510
2015    9       30     1   8    2.9306   458.1    4.433      33.498
2015    9       30     1  15    2.9302   458.0    4.435      33.485
2015    9       30     1  21    2.9299   457.9    4.437      33.473
2015    9       30     1  27    2.9295   457.7    4.439      33.461
2015    9       30     1  34    2.9291   457.6    4.441      33.449
2015    9       30     1  40    2.9287   457.4    4.443      33.437
2015    9       30     1  47    2.9283   457.3    4.445      33.425
2015    9       30     1  53    2.9279   457.2    4.447      33.413
2015    9       30     2   0    2.9275   457.0    4.450      33.401
2015    9       30     2   6    2.9272   456.9    4.452      33.389
2015    9       30     2  13    2.9268   456.7    4.454      33.378
2015    9       30     2  19    2.9264   456.6    4.456      33.366
2015    9       30     2  26    2.9261   456.5    4.459      33.355
2015    9       30     2  32    2.9257   456.3    4.461      33.343
2015    9       30     2  39    2.9253   456.2    4.463      33.332
2015    9       30     2  45    2.9250   456.0    4.466      33.321
2015    9       30     2  52    2.9246   455.9    4.468      33.310
2015    9       30     2  58    2.9243   455.7    4.471      33.300
2015    9       30     3   5    2.9240   455.6    4.473      33.289
2015    9       30     3  11    2.9236   455.5    4.476      33.279
2015    9       30     3  18    2.9233   455.3    4.478      33.268
2015    9       30     3  24    2.9230   455.2    4.481      33.258
2015    9       30     3  31    2.9226   455.0    4.484      33.248
2015    9       30     3  37    2.9223   454.9    4.486      33.237
2015    9       30     3  44    2.9220   454.8    4.489      33.227
2015    9       30     3  50    2.9217   454.6    4.492      33.217
2015    9       30     3  57    2.9214   454.5    4.494      33.207
2015    9       30     4   3    2.9211   454.3    4.497      33.197
2015    9       30     4  10    2.9207   454.2    4.500      33.188
2015    9       30     4  16    2.9204   454.1    4.503      33.178
2015    9       30     4  23    2.9201   453.9    4.505      33.168
2015    9       30     4  29    2.9198   453.8    4.508      33.158
2015    9       30     4  36    2.9195   453.6    4.511      33.148
2015    9       30     4  42    2.9191   453.5    4.514      33.139
2015    9       30     4  48    2.9188   453.4    4.516      33.129
2015    9       30     4  55    2.9185   453.2    4.519      33.119
2015    9       30     5   1    2.9181   453.1    4.522      33.109
2015    9       30     5   8    2.9178   453.0    4.525      33.099
2015    9       30     5  14    2.9174   452.8    4.527      33.089
2015    9       30     5  21    2.9171   452.7    4.530      33.079
2015    9       30     5  27    2.9167   452.5    4.533      33.069
2015    9       30     5  34    2.9163   452.4    4.536      33.059
2015    9       30     5  40    2.9160   452.3    4.538      33.048
2015    9       30     5  47    2.9156   452.1    4.541      33.038
2015    9       30     5  53    2.9152   452.0    4.544      33.028
2015    9       30     6   0    2.9148   451.8    4.546      33.017
2015    9       30     6   6    2.9144   451.7    4.549      33.007
2015    9       30     6  13    2.9140   451.6    4.551      32.996
2015    9       30     6  19    2.9136   451.4    4.554      32.986
2015    9       30     6  26    2.9132   451.3    4.557      32.975
2015    9       30     6  32    2.9127   451.2    4.559      32.964
2015    9       30     6  39    2.9123   451.0    4.562      32.953
2015    9       30     6  45    2.9119   450.9    4.564      32.942
2015    9       30     6  52    2.9115   450.7    4.567      32.931
2015    9       30     6  58    2.9110   450.6    4.569      32.919
2015    9       30     7   5    2.9106   450.5    4.571      32.908
2015    9       30     7  11    2.9101   450.3    4.574      32.896
2015    9       30     7  18    2.9097   450.2    4.576      32.885
2015    9       30     7  24    2.9092   450.0    4.579      32.873
2015    9       30     7  31    2.9088   449.9    4.581      32.861
2015    9       30     7  37    2.9083   449.8    4.583      32.849
2015    9       30     7  44    2.9078   449.6    4.585      32.837
2015    9       30     7  50    2.9074   449.5    4.588      32.824
2015    9       30     7  57    2.9069   449.3    4.590      32.812
2015    9       30     8   3    2.9064   449.2    4.592      32.799
2015    9       30     8  10    2.9059   449.1    4.594      32.787
2015    9       30     8  16    2.9054   448.9    4.596      32.774
2015    9       30     8  23    2.9049   448.8    4.598      32.761
2015    9       30     8  29    2.9044   448.6    4.600      32.748
2015    9       30     8  36    2.9039   448.5    4.602      32.734
2015    9       30     8  42    2.9034   448.4    4.604      32.721
2015    9       30     8  49    2.9028   448.2    4.606      32.708
2015    9       30     8  55    2.9023   448.1    4.608      32.694
2015    9       30     9   2    2.9017   447.9    4.610      32.681
2015    9       30     9   8    2.9012   447.8    4.612      32.667
2015    9       30     9  15    2.9007   447.6    4.614      32.653
2015    9       30     9  21    2.9001   447.5    4.616      32.639
2015    9       30     9  28    2.8996   447.4    4.618      32.625
2015    9       30     9  34    2.8990   447.2    4.620      32.611
2015    9       30     9  40    2.8985   447.1    4.622      32.597
2015    9       30     9  47    2.8979   446.9    4.623      32.583
2015    9       30     9  53    2.8973   446.8    4.625      32.569
2015    9       30    10   0    2.8968   446.6    4.627      32.555
2015    9       30    10   6    2.8962   446.5    4.629      32.541
2015    9       30    10  13    2.8957   446.3    4.631      32.526
2015    9       30    10  19    2.8951   446.2    4.633      32.512
2015    9       30    10  26    2.8946   446.1    4.634      32.498
2015    9       30    10  32    2.8940   445.9    4.636      32.483
2015    9       30    10  39    2.8934   445.8    4.638      32.469
2015    9       30    10  45    2.8929   445.6    4.640      32.454
2015    9       30    10  52    2.8923   445.5    4.642      32.440
2015    9       30    10  58    2.8918   445.3    4.644      32.425
2015    9       30    11   5    2.8912   445.2    4.645      32.411
2015    9       30    11  11    2.8907   445.0    4.647      32.396
2015    9       30    11  18    2.8901   444.9    4.649      32.382
2015    9       30    11  24    2.8895   444.7    4.651      32.367
2015    9       30    11  31    2.8890   444.6    4.653      32.352
2015    9       30    11  37    2.8884   444.5    4.655      32.338
2015    9       30    11  44    2.8879   444.3    4.657      32.323
2015    9       30    11  50    2.8873   444.2    4.659      32.309
2015    9       30    11  57    2.8868   444.0    4.661      32.294
2015    9       30    12   3    2.8862   443.9    4.663      32.279
2015    9       30    12  10    2.8857   443.7    4.665      32.265
2015    9       30    12  16    2.8851   443.6    4.667      32.250
2015    9       30    12  23    2.8846   443.4    4.669      32.235
2015    9       30    12  29    2.8840   443.3    4.671      32.221
2015    9       30    12  36    2.8835   443.1    4.673      32.206
2015    9       30    12  42    2.8829   443.0    4.675      32.192
2015    9       30    12  49    2.8824   442.8    4.677      32.177
2015    9       30    12  55    2.8818   442.7    4.680      32.163
2015    9       30    13   2    2.8813   442.6    4.682      32.148
2015    9       30    13   8    2.8807   442.4    4.684      32.134
2015    9       30    13  15    2.8802   442.3    4.686      32.119
2015    9       30    13  21    2.8797   442.1    4.689      32.105
2015    9       30    13  27    2.8792   442.0    4.691      32.091
2015    9       30    13  34    2.8786   441.8    4.693      32.077
2015    9       30    13  40    2.8781   441.7    4.696      32.063
2015    9       30    13  47    2.8776   441.5    4.698      32.049
2015    9       30    13  53    2.8771   441.4    4.700      32.035
2015    9       30    14   0    2.8766   441.2    4.703      32.021
2015    9       30    14   6    2.8761   441.1    4.705      32.008
2015    9       30    14  13    2.8756   440.9    4.708      31.994
2015    9       30    14  19    2.8750   440.8    4.710      31.980
2015    9       30    14  26    2.8746   440.6    4.713      31.967
2015    9       30    14  32    2.8741   440.5    4.715      31.954
2015    9       30    14  39    2.8736   440.3    4.718      31.941
2015    9       30    14  45    2.8731   440.2    4.721      31.928
2015    9       30    14  52    2.8726   440.0    4.723      31.915
2015    9       30    14  58    2.8722   439.9    4.726      31.902
2015    9       30    15   5    2.8717   439.8    4.729      31.889
2015    9       30    15  11    2.8712   439.6    4.731      31.877
2015    9       30    15  18    2.8708   439.5    4.734      31.864
2015    9       30    15  24    2.8703   439.3    4.737      31.851
2015    9       30    15  31    2.8698   439.2    4.740      31.839
2015    9       30    15  37    2.8694   439.0    4.743      31.827
2015    9       30    15  44    2.8689   438.9    4.745      31.814
2015    9       30    15  50    2.8684   438.7    4.748      31.802
2015    9       30    15  57    2.8680   438.6    4.751      31.790
2015    9       30    16   3    2.8675   438.4    4.754      31.778
2015    9       30    16  10    2.8670   438.3    4.756      31.766
2015    9       30    16  16    2.8665   438.1    4.759      31.754
2015    9       30    16  23    2.8660   438.0    4.762      31.741
2015    9       30    16  29    2.8655   437.8    4.765      31.729
2015    9       30    16  36    2.8651   437.7    4.767      31.717
2015    9       30    16  42    2.8646   437.5    4.770      31.705
2015    9       30    16  49    2.8641   437.4    4.773      31.693
2015    9       30    16  55    2.8635   437.3    4.775      31.680
2015    9       30    17   2    2.8630   437.1    4.778      31.668
2015    9       30    17   8    2.8625   437.0    4.781      31.655
2015    9       30    17  15    2.8619   436.8    4.783      31.642
2015    9       30    17  21    2.8614   436.7    4.786      31.630
2015    9       30    17  28    2.8608   436.5    4.788      31.617
2015    9       30    17  34    2.8603   436.4    4.791      31.604
2015    9       30    17  41    2.8597   436.2    4.793      31.590
2015    9       30    17  47    2.8591   436.1    4.795      31.577
2015    9       30    17  53    2.8585   435.9    4.798      31.563
2015    9       30    18   0    2.8579   435.8    4.800      31.549
2015    9       30    18   6    2.8573   435.6    4.802      31.535
2015    9       30    18  13    2.8567   435.5    4.804      31.521
2015    9       30    18  19    2.8561   435.3    4.807      31.507
2015    9       30    18  26    2.8555   435.2    4.809      31.492
2015    9       30    18  32    2.8549   435.0    4.811      31.478
2015    9       30    18  39    2.8542   434.9    4.813      31.463
2015    9       30    18  45    2.8536   434.7    4.815      31.448
2015    9       30    18  52    2.8530   434.6    4.817      31.433
2015    9       30    18  58    2.8524   434.4    4.819      31.417
2015    9       30    19   5    2.8517   434.3    4.821      31.402
2015    9       30    19  11    2.8511   434.1    4.822      31.386
2015    9       30    19  18    2.8504   434.0    4.824      31.370
2015    9       30    19  24    2.8498   433.8    4.826      31.355
2015    9       30    19  31    2.8491   433.7    4.828      31.338
2015    9       30    19  37    2.8485   433.5    4.830      31.322
2015    9       30    19  44    2.8479   433.4    4.832      31.306
2015    9       30    19  50    2.8472   433.2    4.833      31.290
2015    9       30    19  57    2.8466   433.1    4.835      31.274
2015    9       30    20   3    2.8459   432.9    4.837      31.257
2015    9       30    20  10    2.8453   432.8    4.839      31.241
2015    9       30    20  16    2.8446   432.6    4.840      31.224
2015    9       30    20  23    2.8440   432.5    4.842      31.207
2015    9       30    20  29    2.8433   432.3    4.844      31.190
2015    9       30    20  36    2.8427   432.2    4.846      31.174
2015    9       30    20  42    2.8421   432.0    4.848      31.157
2015    9       30    20  49    2.8414   431.9    4.849      31.140
2015    9       30    20  55    2.8408   431.7    4.851      31.123
2015    9       30    21   2    2.8402   431.5    4.853      31.106
2015    9       30    21   8    2.8396   431.4    4.855      31.089
2015    9       30    21  15    2.8390   431.2    4.857      31.072
2015    9       30    21  21    2.8384   431.1    4.859      31.055
2015    9       30    21  28    2.8378   430.9    4.861      31.038
2015    9       30    21  34    2.8371   430.8    4.863      31.022
2015    9       30    21  41    2.8365   430.6    4.865      31.005
2015    9       30    21  47    2.8360   430.5    4.867      30.988
2015    9       30    21  54    2.8354   430.3    4.869      30.971
2015    9       30    22   0    2.8348   430.2    4.871      30.955
2015    9       30    22   7    2.8342   430.0    4.873      30.938
2015    9       30    22  13    2.8337   429.9    4.875      30.922
2015    9       30    22  20    2.8331   429.7    4.877      30.906
2015    9       30    22  26    2.8325   429.5    4.880      30.889
2015    9       30    22  32    2.8320   429.4    4.882      30.873
2015    9       30    22  39    2.8315   429.2    4.884      30.857
2015    9       30    22  45    2.8309   429.1    4.887      30.841
2015    9       30    22  52    2.8304   428.9    4.889      30.825
2015    9       30    22  58    2.8299   428.8    4.892      30.809
2015    9       30    23   5    2.8293   428.6    4.894      30.794
2015    9       30    23  11    2.8288   428.5    4.897      30.778
2015    9       30    23  18    2.8283   428.3    4.899      30.762
2015    9       30    23  24    2.8278   428.2    4.902      30.747
2015    9       30    23  31    2.8273   428.0    4.904      30.732
2015    9       30    23  37    2.8268   427.9    4.907      30.716
2015    9       30    23  44    2.8262   427.7    4.910      30.701
2015    9       30    23  50    2.8257   427.6    4.913      30.686
2015    9       30    23  57    2.8252   427.4    4.915      30.671
2015   10        1     0   3    2.8247   427.2    4.918      30.656
2015   10        1     0  10    2.8242   427.1    4.921      30.641
2015   10        1     0  16    2.8237   426.9    4.923      30.626
2015   10        1     0  23    2.8231   426.8    4.926      30.611
2015   10        1     0  29    2.8226   426.6    4.929      30.596
2015   10        1     0  36    2.8221   426.5    4.932      30.581
2015   10        1     0  42    2.8215   426.3    4.935      30.566
2015   10        1     0  49    2.8210   426.2    4.937      30.552
2015   10        1     0  55    2.8205   426.0    4.940      30.537
2015   10        1     1   2    2.8199   425.9    4.943      30.522
2015   10        1     1   8    2.8194   425.7    4.946      30.507
2015   10        1     1  15    2.8188   425.5    4.948      30.493
2015   10        1     1  21    2.8183   425.4    4.951      30.478
2015   10        1     1  28    2.8178   425.2    4.954      30.463
2015   10        1     1  34    2.8172   425.1    4.957      30.449
2015   10        1     1  41    2.8167   424.9    4.959      30.434
2015   10        1     1  47    2.8161   424.8    4.962      30.419
2015   10        1     1  54    2.8156   424.6    4.965      30.405
2015   10        1     2   0    2.8151   424.5    4.968      30.390
2015   10        1     2   6    2.8145   424.3    4.970      30.375
2015   10        1     2  13    2.8140   424.1    4.973      30.361
2015   10        1     2  19    2.8135   424.0    4.976      30.346
2015   10        1     2  26    2.8129   423.8    4.978      30.332
2015   10        1     2  32    2.8124   423.7    4.981      30.317
2015   10        1     2  39    2.8119   423.5    4.984      30.302
2015   10        1     2  45    2.8113   423.4    4.986      30.288
2015   10        1     2  52    2.8108   423.2    4.989      30.273
2015   10        1     2  58    2.8103   423.0    4.992      30.258
2015   10        1     3   5    2.8098   422.9    4.994      30.243
2015   10        1     3  11    2.8092   422.7    4.997      30.228
2015   10        1     3  18    2.8087   422.6    5.000      30.213
2015   10        1     3  24    2.8082   422.4    5.002      30.198
2015   10        1     3  31    2.8077   422.3    5.005      30.183
2015   10        1     3  37    2.8071   422.1    5.008      30.168
2015   10        1     3  44    2.8066   422.0    5.010      30.153
2015   10        1     3  50    2.8061   421.8    5.013      30.137
2015   10        1     3  57    2.8056   421.6    5.015      30.122
2015   10        1     4   3    2.8050   421.5    5.018      30.106
2015   10        1     4  10    2.8045   421.3    5.020      30.091
2015   10        1     4  16    2.8040   421.2    5.023      30.075
2015   10        1     4  23    2.8034   421.0    5.025      30.059
2015   10        1     4  29    2.8029   420.9    5.028      30.043
2015   10        1     4  36    2.8024   420.7    5.030      30.027
2015   10        1     4  42    2.8018   420.5    5.033      30.011
2015   10        1     4  49    2.8013   420.4    5.035      29.995
2015   10        1     4  55    2.8007   420.2    5.038      29.978
2015   10        1     5   2    2.8002   420.1    5.040      29.962
2015   10        1     5   8    2.7996   419.9    5.043      29.945
2015   10        1     5  15    2.7990   419.8    5.045      29.929
2015   10        1     5  21    2.7985   419.6    5.047      29.912
2015   10        1     5  28    2.7979   419.4    5.050      29.895
2015   10        1     5  34    2.7974   419.3    5.052      29.878
2015   10        1     5  41    2.7968   419.1    5.055      29.861
2015   10        1     5  47    2.7963   419.0    5.057      29.844
2015   10        1     5  54    2.7957   418.8    5.059      29.827
2015   10        1     6   0    2.7952   418.6    5.062      29.809
2015   10        1     6   7    2.7946   418.5    5.064      29.792
2015   10        1     6  13    2.7940   418.3    5.067      29.774
2015   10        1     6  20    2.7935   418.2    5.069      29.757
2015   10        1     6  26    2.7929   418.0    5.071      29.739
2015   10        1     6  33    2.7924   417.9    5.074      29.722
2015   10        1     6  39    2.7918   417.7    5.076      29.704
2015   10        1     6  46    2.7913   417.5    5.079      29.686
2015   10        1     6  52    2.7907   417.4    5.081      29.668
2015   10        1     6  58    2.7902   417.2    5.083      29.650
2015   10        1     7   5    2.7896   417.1    5.086      29.632
2015   10        1     7  11    2.7891   416.9    5.088      29.614
2015   10        1     7  18    2.7885   416.7    5.091      29.596
2015   10        1     7  24    2.7880   416.6    5.093      29.578
2015   10        1     7  31    2.7874   416.4    5.095      29.560
2015   10        1     7  37    2.7869   416.2    5.098      29.542
2015   10        1     7  44    2.7864   416.1    5.100      29.524
2015   10        1     7  50    2.7859   415.9    5.103      29.506
2015   10        1     7  57    2.7853   415.8    5.105      29.488
2015   10        1     8   3    2.7848   415.6    5.108      29.470
2015   10        1     8  10    2.7843   415.4    5.111      29.452
2015   10        1     8  16    2.7838   415.3    5.113      29.434
2015   10        1     8  23    2.7833   415.1    5.116      29.417
2015   10        1     8  29    2.7828   415.0    5.119      29.399
2015   10        1     8  36    2.7823   414.8    5.121      29.381
2015   10        1     8  42    2.7819   414.6    5.124      29.364
2015   10        1     8  49    2.7814   414.5    5.127      29.346
2015   10        1     8  55    2.7809   414.3    5.130      29.329
2015   10        1     9   2    2.7805   414.1    5.133      29.312
2015   10        1     9   8    2.7801   414.0    5.135      29.295
2015   10        1     9  15    2.7796   413.8    5.138      29.278
2015   10        1     9  21    2.7792   413.7    5.141      29.261
2015   10        1     9  28    2.7788   413.5    5.144      29.244
2015   10        1     9  34    2.7784   413.3    5.148      29.227
2015   10        1     9  41    2.7780   413.2    5.151      29.210
2015   10        1     9  47    2.7776   413.0    5.154      29.194
2015   10        1     9  54    2.7772   412.8    5.157      29.177
2015   10        1    10   0    2.7768   412.7    5.160      29.161
2015   10        1    10   7    2.7764   412.5    5.163      29.144
2015   10        1    10  13    2.7761   412.3    5.167      29.128
2015   10        1    10  20    2.7757   412.2    5.170      29.112
2015   10        1    10  26    2.7753   412.0    5.174      29.095
2015   10        1    10  32    2.7750   411.9    5.177      29.079
2015   10        1    10  39    2.7747   411.7    5.180      29.063
2015   10        1    10  45    2.7743   411.5    5.184      29.047
2015   10        1    10  52    2.7740   411.4    5.187      29.031
2015   10        1    10  58    2.7737   411.2    5.191      29.015
2015   10        1    11   5    2.7733   411.0    5.194      28.999
2015   10        1    11  11    2.7730   410.9    5.198      28.983
2015   10        1    11  18    2.7727   410.7    5.202      28.967
2015   10        1    11  24    2.7724   410.5    5.205      28.951
2015   10        1    11  31    2.7721   410.4    5.209      28.935
2015   10        1    11  37    2.7717   410.2    5.212      28.919
2015   10        1    11  44    2.7714   410.0    5.216      28.902
2015   10        1    11  50    2.7711   409.9    5.220      28.886
2015   10        1    11  57    2.7708   409.7    5.223      28.870
2015   10        1    12   3    2.7705   409.6    5.227      28.854
2015   10        1    12  10    2.7701   409.4    5.230      28.837
2015   10        1    12  16    2.7698   409.2    5.234      28.821
2015   10        1    12  23    2.7695   409.1    5.238      28.805
2015   10        1    12  29    2.7692   408.9    5.241      28.788
2015   10        1    12  36    2.7688   408.7    5.245      28.772
2015   10        1    12  42    2.7685   408.6    5.248      28.755
2015   10        1    12  49    2.7682   408.4    5.252      28.738
2015   10        1    12  55    2.7678   408.2    5.255      28.722
2015   10        1    13   2    2.7675   408.1    5.259      28.705
2015   10        1    13   8    2.7672   407.9    5.262      28.688
2015   10        1    13  15    2.7668   407.7    5.266      28.671
2015   10        1    13  21    2.7665   407.6    5.269      28.653
2015   10        1    13  28    2.7661   407.4    5.273      28.636
2015   10        1    13  34    2.7658   407.2    5.276      28.619
2015   10        1    13  41    2.7655   407.1    5.280      28.601
2015   10        1    13  47    2.7651   406.9    5.283      28.584
2015   10        1    13  54    2.7648   406.7    5.287      28.566
2015   10        1    14   0    2.7645   406.6    5.290      28.548
2015   10        1    14   7    2.7641   406.4    5.293      28.530
2015   10        1    14  13    2.7638   406.2    5.297      28.513
2015   10        1    14  20    2.7635   406.1    5.300      28.495
2015   10        1    14  26    2.7631   405.9    5.303      28.477
2015   10        1    14  33    2.7628   405.7    5.307      28.459
2015   10        1    14  39    2.7625   405.5    5.310      28.441
2015   10        1    14  46    2.7622   405.4    5.314      28.422
2015   10        1    14  52    2.7619   405.2    5.317      28.404
2015   10        1    14  59    2.7616   405.0    5.320      28.386
2015   10        1    15   5    2.7613   404.9    5.324      28.368
2015   10        1    15  11    2.7610   404.7    5.327      28.350
2015   10        1    15  18    2.7607   404.5    5.331      28.331
2015   10        1    15  24    2.7605   404.4    5.334      28.313
2015   10        1    15  31    2.7602   404.2    5.338      28.295
2015   10        1    15  37    2.7600   404.0    5.341      28.277
2015   10        1    15  44    2.7598   403.8    5.345      28.259
2015   10        1    15  50    2.7595   403.7    5.348      28.241
2015   10        1    15  57    2.7593   403.5    5.352      28.223
2015   10        1    16   3    2.7592   403.3    5.356      28.205
2015   10        1    16  10    2.7590   403.2    5.359      28.187
2015   10        1    16  16    2.7588   403.0    5.363      28.169
2015   10        1    16  23    2.7587   402.8    5.367      28.151
2015   10        1    16  29    2.7585   402.6    5.371      28.134
2015   10        1    16  36    2.7584   402.5    5.375      28.116
2015   10        1    16  42    2.7583   402.3    5.379      28.098
2015   10        1    16  49    2.7582   402.1    5.383      28.081
2015   10        1    16  55    2.7582   402.0    5.387      28.064
2015   10        1    17   2    2.7581   401.8    5.391      28.046
2015   10        1    17   8    2.7580   401.6    5.395      28.029
2015   10        1    17  15    2.7580   401.5    5.399      28.012
2015   10        1    17  21    2.7580   401.3    5.403      27.995
2015   10        1    17  28    2.7580   401.1    5.408      27.978
2015   10        1    17  34    2.7580   400.9    5.412      27.961
2015   10        1    17  41    2.7580   400.8    5.417      27.944
2015   10        1    17  47    2.7580   400.6    5.421      27.927
2015   10        1    17  54    2.7580   400.4    5.425      27.911
2015   10        1    18   0    2.7581   400.3    5.430      27.894
2015   10        1    18   7    2.7581   400.1    5.435      27.877
2015   10        1    18  13    2.7582   399.9    5.439      27.860
2015   10        1    18  20    2.7583   399.7    5.444      27.844
2015   10        1    18  26    2.7584   399.6    5.448      27.827
2015   10        1    18  33    2.7584   399.4    5.453      27.811
2015   10        1    18  39    2.7585   399.2    5.458      27.794
2015   10        1    18  46    2.7586   399.1    5.463      27.778
2015   10        1    18  52    2.7587   398.9    5.467      27.761
2015   10        1    18  59    2.7588   398.7    5.472      27.744
2015   10        1    19   5    2.7589   398.6    5.477      27.728
2015   10        1    19  12    2.7590   398.4    5.482      27.711
2015   10        1    19  18    2.7591   398.2    5.487      27.694
2015   10        1    19  25    2.7593   398.0    5.492      27.678
2015   10        1    19  31    2.7594   397.9    5.496      27.661
2015   10        1    19  37    2.7595   397.7    5.501      27.644
2015   10        1    19  44    2.7596   397.5    5.506      27.627
2015   10        1    19  50    2.7597   397.4    5.511      27.610
2015   10        1    19  57    2.7599   397.2    5.516      27.593
2015   10        1    20   3    2.7600   397.0    5.521      27.576
2015   10        1    20  10    2.7601   396.9    5.526      27.559
2015   10        1    20  16    2.7603   396.7    5.531      27.542
2015   10        1    20  23    2.7604   396.5    5.535      27.525
2015   10        1    20  29    2.7605   396.3    5.540      27.507
2015   10        1    20  36    2.7607   396.2    5.545      27.490
2015   10        1    20  42    2.7608   396.0    5.550      27.473
2015   10        1    20  49    2.7610   395.8    5.555      27.455
2015   10        1    20  55    2.7611   395.7    5.560      27.438
2015   10        1    21   2    2.7613   395.5    5.565      27.420
2015   10        1    21   8    2.7614   395.3    5.570      27.403
2015   10        1    21  15    2.7616   395.1    5.575      27.385
2015   10        1    21  21    2.7618   395.0    5.580      27.368
2015   10        1    21  28    2.7620   394.8    5.584      27.350
2015   10        1    21  34    2.7622   394.6    5.589      27.332
2015   10        1    21  41    2.7624   394.5    5.594      27.315
2015   10        1    21  47    2.7626   394.3    5.599      27.297
2015   10        1    21  54    2.7628   394.1    5.604      27.279
2015   10        1    22   0    2.7630   393.9    5.609      27.262
2015   10        1    22   7    2.7633   393.8    5.614      27.244
2015   10        1    22  13    2.7635   393.6    5.619      27.227
2015   10        1    22  20    2.7638   393.4    5.624      27.209
2015   10        1    22  26    2.7641   393.2    5.629      27.192
2015   10        1    22  33    2.7643   393.1    5.634      27.174
2015   10        1    22  39    2.7647   392.9    5.639      27.157
2015   10        1    22  46    2.7650   392.7    5.645      27.140
2015   10        1    22  52    2.7653   392.5    5.650      27.122
2015   10        1    22  59    2.7657   392.4    5.655      27.105
2015   10        1    23   5    2.7660   392.2    5.660      27.088
2015   10        1    23  12    2.7664   392.0    5.666      27.071
2015   10        1    23  18    2.7668   391.8    5.671      27.055
2015   10        1    23  24    2.7673   391.7    5.676      27.038
2015   10        1    23  31    2.7677   391.5    5.682      27.021
2015   10        1    23  37    2.7681   391.3    5.687      27.005
2015   10        1    23  44    2.7686   391.1    5.693      26.988
2015   10        1    23  50    2.7691   391.0    5.698      26.972
2015   10        1    23  57    2.7696   390.8    5.704      26.956
2015   10        2     0   3    2.7702   390.6    5.710      26.940
2015   10        2     0  10    2.7707   390.4    5.715      26.924
2015   10        2     0  16    2.7713   390.3    5.721      26.909
2015   10        2     0  23    2.7719   390.1    5.727      26.893
2015   10        2     0  29    2.7725   389.9    5.733      26.877
2015   10        2     0  36    2.7732   389.7    5.739      26.862
2015   10        2     0  42    2.7738   389.6    5.745      26.847
2015   10        2     0  49    2.7745   389.4    5.751      26.832
2015   10        2     0  55    2.7752   389.2    5.757      26.817
2015   10        2     1   2    2.7759   389.0    5.763      26.802
2015   10        2     1   8    2.7766   388.9    5.769      26.787
2015   10        2     1  15    2.7773   388.7    5.776      26.772
2015   10        2     1  21    2.7781   388.5    5.782      26.757
2015   10        2     1  28    2.7789   388.4    5.788      26.743
2015   10        2     1  34    2.7797   388.2    5.795      26.728
2015   10        2     1  41    2.7805   388.0    5.801      26.713
2015   10        2     1  47    2.7813   387.8    5.808      26.699
2015   10        2     1  54    2.7821   387.7    5.814      26.684
2015   10        2     2   0    2.7829   387.5    5.821      26.670
2015   10        2     2   7    2.7838   387.3    5.828      26.656
2015   10        2     2  13    2.7847   387.1    5.834      26.641
2015   10        2     2  20    2.7856   387.0    5.841      26.627
2015   10        2     2  26    2.7864   386.8    5.848      26.613
2015   10        2     2  33    2.7873   386.6    5.855      26.599
2015   10        2     2  39    2.7883   386.4    5.861      26.584
2015   10        2     2  46    2.7892   386.3    5.868      26.570
2015   10        2     2  52    2.7901   386.1    5.875      26.556
2015   10        2     2  59    2.7911   385.9    5.882      26.541
2015   10        2     3   5    2.7920   385.8    5.889      26.527
2015   10        2     3  12    2.7930   385.6    5.896      26.513
2015   10        2     3  18    2.7940   385.4    5.903      26.499
2015   10        2     3  25    2.7950   385.2    5.910      26.485
2015   10        2     3  31    2.7960   385.1    5.917      26.470
2015   10        2     3  38    2.7970   384.9    5.924      26.456
2015   10        2     3  44    2.7980   384.7    5.932      26.442
2015   10        2     3  51    2.7991   384.6    5.939      26.428
2015   10        2     3  57    2.8001   384.4    5.946      26.414
2015   10        2     4   4    2.8012   384.2    5.953      26.400
2015   10        2     4  10    2.8023   384.0    5.961      26.386
2015   10        2     4  16    2.8034   383.9    5.968      26.372
2015   10        2     4  23    2.8045   383.7    5.976      26.358
2015   10        2     4  29    2.8057   383.5    5.983      26.344
2015   10        2     4  36    2.8068   383.4    5.991      26.331
2015   10        2     4  42    2.8080   383.2    5.998      26.317
2015   10        2     4  49    2.8092   383.0    6.006      26.304
2015   10        2     4  55    2.8104   382.9    6.014      26.290
2015   10        2     5   2    2.8116   382.7    6.021      26.277
2015   10        2     5   8    2.8129   382.5    6.029      26.264
2015   10        2     5  15    2.8141   382.3    6.037      26.251
2015   10        2     5  21    2.8154   382.2    6.045      26.238
2015   10        2     5  28    2.8167   382.0    6.053      26.225
2015   10        2     5  34    2.8180   381.8    6.061      26.213
2015   10        2     5  41    2.8194   381.7    6.069      26.200
2015   10        2     5  47    2.8208   381.5    6.077      26.188
2015   10        2     5  54    2.8222   381.3    6.086      26.176
2015   10        2     6   0    2.8236   381.1    6.094      26.164
2015   10        2     6   7    2.8250   381.0    6.103      26.153
2015   10        2     6  13    2.8265   380.8    6.111      26.141
2015   10        2     6  20    2.8280   380.6    6.120      26.130
2015   10        2     6  26    2.8295   380.5    6.128      26.119
2015   10        2     6  33    2.8311   380.3    6.137      26.108
2015   10        2     6  39    2.8327   380.1    6.146      26.098
2015   10        2     6  46    2.8343   380.0    6.155      26.088
2015   10        2     6  52    2.8359   379.8    6.164      26.078
2015   10        2     6  59    2.8376   379.6    6.173      26.068
2015   10        2     7   5    2.8392   379.5    6.182      26.058
2015   10        2     7  12    2.8409   379.3    6.191      26.049
2015   10        2     7  18    2.8427   379.1    6.200      26.040
2015   10        2     7  25    2.8444   379.0    6.209      26.031
2015   10        2     7  31    2.8462   378.8    6.219      26.022
2015   10        2     7  37    2.8480   378.6    6.228      26.014
2015   10        2     7  44    2.8499   378.5    6.238      26.005
2015   10        2     7  50    2.8517   378.3    6.247      25.997
2015   10        2     7  57    2.8536   378.1    6.257      25.989
2015   10        2     8   3    2.8555   378.0    6.266      25.982
2015   10        2     8  10    2.8574   377.8    6.276      25.974
2015   10        2     8  16    2.8594   377.7    6.286      25.967
2015   10        2     8  23    2.8613   377.5    6.296      25.960
2015   10        2     8  29    2.8633   377.3    6.305      25.953
2015   10        2     8  36    2.8653   377.2    6.315      25.946
2015   10        2     8  42    2.8673   377.0    6.325      25.939
2015   10        2     8  49    2.8694   376.8    6.335      25.933
2015   10        2     8  55    2.8714   376.7    6.345      25.926
2015   10        2     9   2    2.8735   376.5    6.355      25.920
2015   10        2     9   8    2.8756   376.4    6.365      25.913
2015   10        2     9  15    2.8778   376.2    6.376      25.907
2015   10        2     9  21    2.8799   376.0    6.386      25.901
2015   10        2     9  28    2.8821   375.9    6.396      25.895
2015   10        2     9  34    2.8842   375.7    6.406      25.890
2015   10        2     9  41    2.8864   375.6    6.417      25.884
2015   10        2     9  47    2.8886   375.4    6.427      25.878
2015   10        2     9  54    2.8909   375.2    6.437      25.873
2015   10        2    10   0    2.8931   375.1    6.448      25.867
2015   10        2    10   7    2.8954   374.9    6.458      25.862
2015   10        2    10  13    2.8977   374.8    6.468      25.857
2015   10        2    10  20    2.9000   374.6    6.479      25.852
2015   10        2    10  26    2.9023   374.4    6.489      25.847
2015   10        2    10  33    2.9047   374.3    6.500      25.842
2015   10        2    10  39    2.9070   374.1    6.511      25.837
2015   10        2    10  46    2.9094   374.0    6.521      25.832
2015   10        2    10  52    2.9118   373.8    6.532      25.827
2015   10        2    10  59    2.9143   373.6    6.543      25.823
2015   10        2    11   5    2.9168   373.5    6.554      25.818
2015   10        2    11  12    2.9193   373.3    6.565      25.814
2015   10        2    11  18    2.9218   373.2    6.575      25.810
2015   10        2    11  25    2.9244   373.0    6.587      25.806
2015   10        2    11  31    2.9269   372.9    6.598      25.802
2015   10        2    11  38    2.9295   372.7    6.609      25.798
2015   10        2    11  44    2.9322   372.6    6.620      25.795
2015   10        2    11  51    2.9349   372.4    6.631      25.791
2015   10        2    11  57    2.9376   372.2    6.643      25.788
2015   10        2    12   4    2.9403   372.1    6.654      25.785
2015   10        2    12  10    2.9431   371.9    6.666      25.782
2015   10        2    12  17    2.9459   371.8    6.677      25.779
2015   10        2    12  23    2.9488   371.6    6.689      25.777
2015   10        2    12  29    2.9517   371.5    6.701      25.775
2015   10        2    12  36    2.9546   371.3    6.713      25.773
2015   10        2    12  42    2.9576   371.2    6.725      25.771
2015   10        2    12  49    2.9606   371.0    6.737      25.770
2015   10        2    12  55    2.9636   370.9    6.749      25.768
2015   10        2    13   2    2.9667   370.7    6.761      25.767
2015   10        2    13   8    2.9699   370.6    6.774      25.767
2015   10        2    13  15    2.9730   370.4    6.786      25.766
2015   10        2    13  21    2.9762   370.3    6.799      25.766
2015   10        2    13  28    2.9795   370.1    6.811      25.766
2015   10        2    13  34    2.9828   370.0    6.824      25.767
2015   10        2    13  41    2.9861   369.8    6.837      25.768
2015   10        2    13  47    2.9895   369.7    6.850      25.769
2015   10        2    13  54    2.9930   369.5    6.863      25.770
2015   10        2    14   0    2.9964   369.4    6.876      25.771
2015   10        2    14   7    2.9999   369.3    6.889      25.773
2015   10        2    14  13    3.0035   369.1    6.903      25.776
2015   10        2    14  20    3.0071   369.0    6.916      25.778
2015   10        2    14  26    3.0107   368.8    6.930      25.781
2015   10        2    14  33    3.0144   368.7    6.943      25.784
2015   10        2    14  39    3.0181   368.5    6.957      25.787
2015   10        2    14  46    3.0218   368.4    6.971      25.791
2015   10        2    14  52    3.0255   368.3    6.984      25.794
2015   10        2    14  59    3.0293   368.1    6.998      25.799
2015   10        2    15   5    3.0332   368.0    7.012      25.803
2015   10        2    15  12    3.0370   367.9    7.026      25.808
2015   10        2    15  18    3.0409   367.7    7.040      25.812
2015   10        2    15  25    3.0448   367.6    7.054      25.817
2015   10        2    15  31    3.0487   367.4    7.068      25.823
2015   10        2    15  38    3.0527   367.3    7.083      25.828
2015   10        2    15  44    3.0567   367.2    7.097      25.834
2015   10        2    15  51    3.0607   367.0    7.111      25.840
2015   10        2    15  57    3.0647   366.9    7.126      25.846
2015   10        2    16   4    3.0688   366.8    7.140      25.852
2015   10        2    16  10    3.0729   366.6    7.154      25.858
2015   10        2    16  17    3.0770   366.5    7.169      25.865
2015   10        2    16  23    3.0811   366.4    7.183      25.871
2015   10        2    16  29    3.0853   366.2    7.198      25.878
2015   10        2    16  36    3.0895   366.1    7.212      25.885
2015   10        2    16  42    3.0937   366.0    7.227      25.892
2015   10        2    16  49    3.0980   365.8    7.242      25.900
2015   10        2    16  55    3.1023   365.7    7.256      25.907
2015   10        2    17   2    3.1066   365.6    7.271      25.915
2015   10        2    17   8    3.1109   365.4    7.286      25.922
2015   10        2    17  15    3.1153   365.3    7.301      25.930
2015   10        2    17  21    3.1197   365.2    7.316      25.938
2015   10        2    17  28    3.1242   365.0    7.331      25.946
2015   10        2    17  34    3.1287   364.9    7.346      25.954
2015   10        2    17  41    3.1333   364.8    7.361      25.962
2015   10        2    17  47    3.1378   364.7    7.376      25.971
2015   10        2    17  54    3.1425   364.5    7.391      25.980
2015   10        2    18   0    3.1472   364.4    7.407      25.988
2015   10        2    18   7    3.1520   364.3    7.422      25.997
2015   10        2    18  13    3.1568   364.1    7.438      26.007
2015   10        2    18  20    3.1616   364.0    7.454      26.016
2015   10        2    18  26    3.1666   363.9    7.469      26.026
2015   10        2    18  33    3.1716   363.7    7.485      26.035
2015   10        2    18  39    3.1766   363.6    7.501      26.046
2015   10        2    18  46    3.1818   363.5    7.518      26.056
2015   10        2    18  52    3.1869   363.4    7.534      26.067
2015   10        2    18  59    3.1922   363.2    7.551      26.078
2015   10        2    19   5    3.1975   363.1    7.568      26.090
2015   10        2    19  12    3.2029   363.0    7.585      26.102
2015   10        2    19  18    3.2084   362.9    7.602      26.114
2015   10        2    19  25    3.2140   362.7    7.619      26.127
2015   10        2    19  31    3.2196   362.6    7.636      26.140
2015   10        2    19  38    3.2253   362.5    7.654      26.154
2015   10        2    19  44    3.2311   362.4    7.672      26.169
2015   10        2    19  51    3.2370   362.2    7.690      26.184
2015   10        2    19  57    3.2429   362.1    7.708      26.200
2015   10        2    20   4    3.2489   362.0    7.726      26.216
2015   10        2    20  10    3.2550   361.9    7.745      26.234
2015   10        2    20  17    3.2612   361.8    7.764      26.252
2015   10        2    20  23    3.2675   361.6    7.783      26.270
2015   10        2    20  30    3.2738   361.5    7.802      26.289
2015   10        2    20  36    3.2802   361.4    7.822      26.309
2015   10        2    20  43    3.2866   361.3    7.841      26.330
2015   10        2    20  49    3.2931   361.2    7.861      26.352
2015   10        2    20  55    3.2997   361.1    7.881      26.374
2015   10        2    21   2    3.3062   361.0    7.901      26.397
2015   10        2    21   8    3.3128   360.9    7.922      26.421
2015   10        2    21  15    3.3194   360.8    7.942      26.445
2015   10        2    21  21    3.3260   360.7    7.962      26.470
2015   10        2    21  28    3.3326   360.6    7.983      26.496
2015   10        2    21  34    3.3393   360.5    8.003      26.523
2015   10        2    21  41    3.3459   360.4    8.023      26.550
2015   10        2    21  47    3.3525   360.3    8.044      26.579
2015   10        2    21  54    3.3592   360.2    8.064      26.608
2015   10        2    22   0    3.3659   360.1    8.084      26.637
2015   10        2    22   7    3.3726   360.0    8.104      26.667
2015   10        2    22  13    3.3793   359.9    8.123      26.698
2015   10        2    22  20    3.3860   359.9    8.143      26.728
2015   10        2    22  26    3.3928   359.8    8.163      26.759
2015   10        2    22  33    3.3995   359.7    8.183      26.790
2015   10        2    22  39    3.4063   359.6    8.202      26.820
2015   10        2    22  46    3.4132   359.5    8.222      26.850
2015   10        2    22  52    3.4200   359.4    8.242      26.880
2015   10        2    22  59    3.4269   359.3    8.262      26.910
2015   10        2    23   5    3.4339   359.2    8.282      26.940
2015   10        2    23  12    3.4409   359.2    8.301      26.970
2015   10        2    23  18    3.4479   359.1    8.322      26.999
2015   10        2    23  25    3.4550   359.0    8.342      27.028
2015   10        2    23  31    3.4622   358.9    8.362      27.057
2015   10        2    23  38    3.4694   358.8    8.382      27.086
2015   10        2    23  44    3.4767   358.7    8.403      27.115
2015   10        2    23  51    3.4840   358.6    8.423      27.144
2015   10        2    23  57    3.4915   358.6    8.444      27.173
2015   10        3     0   4    3.4990   358.5    8.466      27.201
2015   10        3     0  10    3.5066   358.4    8.487      27.230
2015   10        3     0  17    3.5143   358.3    8.509      27.259
2015   10        3     0  23    3.5221   358.2    8.531      27.289
2015   10        3     0  30    3.5301   358.2    8.553      27.318
2015   10        3     0  36    3.5382   358.1    8.576      27.348
2015   10        3     0  43    3.5463   358.0    8.600      27.379
2015   10        3     0  49    3.5547   357.9    8.623      27.410
2015   10        3     0  56    3.5631   357.9    8.648      27.441
2015   10        3     1   2    3.5718   357.8    8.672      27.474
2015   10        3     1   9    3.5805   357.7    8.698      27.507
2015   10        3     1  15    3.5894   357.6    8.723      27.541
2015   10        3     1  21    3.5985   357.6    8.750      27.576
2015   10        3     1  28    3.6077   357.5    8.776      27.613
2015   10        3     1  34    3.6171   357.5    8.804      27.650
2015   10        3     1  41    3.6267   357.4    8.832      27.689
2015   10        3     1  47    3.6364   357.3    8.861      27.728
2015   10        3     1  54    3.6463   357.3    8.890      27.769
2015   10        3     2   0    3.6563   357.2    8.920      27.811
2015   10        3     2   7    3.6665   357.2    8.950      27.855
2015   10        3     2  13    3.6769   357.2    8.981      27.900
2015   10        3     2  20    3.6875   357.1    9.013      27.947
2015   10        3     2  26    3.6982   357.1    9.046      27.995
2015   10        3     2  33    3.7091   357.0    9.078      28.044
2015   10        3     2  39    3.7199   357.0    9.111      28.095
2015   10        3     2  46    3.7310   357.0    9.145      28.149
2015   10        3     2  52    3.7420   357.0    9.178      28.206
2015   10        3     2  59    3.7530   357.0    9.211      28.266
2015   10        3     3   5    3.7640   357.0    9.243      28.329
2015   10        3     3  12    3.7750   357.0    9.275      28.395
2015   10        3     3  18    3.7858   357.0    9.306      28.463
2015   10        3     3  25    3.7967   357.0    9.337      28.533
2015   10        3     3  31    3.8075   357.0    9.367      28.604
2015   10        3     3  38    3.8183   357.0    9.396      28.674
2015   10        3     3  44    3.8290   357.1    9.425      28.743
2015   10        3     3  51    3.8396   357.1    9.453      28.811
2015   10        3     3  57    3.8501   357.1    9.481      28.878
2015   10        3     4   4    3.8605   357.1    9.508      28.944
2015   10        3     4  10    3.8709   357.1    9.534      29.009
2015   10        3     4  17    3.8812   357.1    9.560      29.074
2015   10        3     4  23    3.8913   357.1    9.586      29.138
2015   10        3     4  30    3.9015   357.1    9.611      29.201
2015   10        3     4  36    3.9115   357.1    9.636      29.264
2015   10        3     4  43    3.9215   357.2    9.660      29.327
2015   10        3     4  49    3.9314   357.2    9.684      29.389
2015   10        3     4  56    3.9413   357.2    9.707      29.451
2015   10        3     5   2    3.9511   357.2    9.730      29.513
2015   10        3     5   8    3.9609   357.2    9.753      29.574
2015   10        3     5  15    3.9706   357.2    9.775      29.636
2015   10        3     5  21    3.9804   357.2    9.797      29.697
2015   10        3     5  28    3.9900   357.3    9.819      29.758
2015   10        3     5  34    3.9998   357.3    9.840      29.818
2015   10        3     5  41    4.0095   357.3    9.861      29.878
2015   10        3     5  47    4.0192   357.3    9.882      29.938
2015   10        3     5  54    4.0289   357.3    9.903      29.997
2015   10        3     6   0    4.0386   357.3    9.924      30.056
2015   10        3     6   7    4.0483   357.3    9.945      30.114
2015   10        3     6  13    4.0581   357.3    9.966      30.172
2015   10        3     6  20    4.0679   357.4    9.987      30.229
2015   10        3     6  26    4.0778   357.4   10.007      30.286
2015   10        3     6  33    4.0877   357.4   10.028      30.343
2015   10        3     6  39    4.0976   357.4   10.049      30.399
2015   10        3     6  46    4.1076   357.4   10.071      30.455
2015   10        3     6  52    4.1177   357.4   10.092      30.511
2015   10        3     6  59    4.1278   357.4   10.114      30.566
2015   10        3     7   5    4.1380   357.5   10.136      30.622
2015   10        3     7  12    4.1483   357.5   10.158      30.677
2015   10        3     7  18    4.1587   357.5   10.181      30.733
2015   10        3     7  25    4.1692   357.5   10.204      30.788
2015   10        3     7  31    4.1798   357.5   10.227      30.845
2015   10        3     7  38    4.1905   357.6   10.251      30.901
2015   10        3     7  44    4.2013   357.6   10.276      30.958
2015   10        3     7  51    4.2122   357.6   10.301      31.015
2015   10        3     7  57    4.2233   357.6   10.327      31.073
2015   10        3     8   4    4.2345   357.7   10.354      31.133
2015   10        3     8  10    4.2459   357.7   10.381      31.193
2015   10        3     8  17    4.2575   357.8   10.409      31.254
2015   10        3     8  23    4.2692   357.8   10.439      31.317
2015   10        3     8  30    4.2810   357.8   10.469      31.382
2015   10        3     8  36    4.2931   357.9   10.500      31.448
2015   10        3     8  43    4.3053   357.9   10.532      31.516
2015   10        3     8  49    4.3177   358.0   10.565      31.586
2015   10        3     8  56    4.3303   358.1   10.599      31.658
2015   10        3     9   2    4.3431   358.1   10.635      31.732
2015   10        3     9   9    4.3560   358.2   10.671      31.808
2015   10        3     9  15    4.3692   358.3   10.708      31.887
2015   10        3     9  22    4.3825   358.4   10.747      31.969
2015   10        3     9  28    4.3960   358.5   10.786      32.054
2015   10        3     9  35    4.4098   358.5   10.827      32.140
2015   10        3     9  41    4.4236   358.6   10.869      32.228
2015   10        3     9  47    4.4377   358.7   10.912      32.319
2015   10        3     9  54    4.4519   358.8   10.955      32.412
2015   10        3    10   0    4.4661   359.0   11.000      32.509
2015   10        3    10   7    4.4805   359.1   11.045      32.610
2015   10        3    10  13    4.4950   359.2   11.090      32.715
2015   10        3    10  20    4.5094   359.4   11.136      32.825
2015   10        3    10  26    4.5238   359.5   11.181      32.939
2015   10        3    10  33    4.5382   359.7   11.226      33.057
2015   10        3    10  39    4.5526   359.9   11.271      33.179
2015   10        3    10  46    4.5669   360.0   11.314      33.307
2015   10        3    10  52    4.5811   360.2   11.357      33.439
2015   10        3    10  59    4.5952   360.4   11.398      33.574
2015   10        3    11   5    4.6092   360.6   11.437      33.711
2015   10        3    11  12    4.6229   360.8   11.475      33.852
2015   10        3    11  18    4.6364   361.0   11.510      33.993
2015   10        3    11  25    4.6497   361.2   11.544      34.135
2015   10        3    11  31    4.6626   361.4   11.576      34.276
2015   10        3    11  38    4.6754   361.6   11.606      34.413
2015   10        3    11  44    4.6879   361.8   11.635      34.547
2015   10        3    11  51    4.7002   362.0   11.661      34.678
2015   10        3    11  57    4.7122   362.2   11.686      34.807
2015   10        3    12   4    4.7241   362.3   11.710      34.933
2015   10        3    12  10    4.7357   362.5   11.732      35.056
2015   10        3    12  17    4.7472   362.7   11.752      35.176
2015   10        3    12  23    4.7585   362.9   11.772      35.294
2015   10        3    12  30    4.7696   363.1   11.790      35.409
2015   10        3    12  36    4.7806   363.3   11.807      35.522
2015   10        3    12  43    4.7915   363.4   11.823      35.632
2015   10        3    12  49    4.8022   363.6   11.838      35.740
2015   10        3    12  56    4.8127   363.8   11.851      35.845
2015   10        3    13   2    4.8232   364.0   11.864      35.948
2015   10        3    13   9    4.8335   364.1   11.877      36.048
2015   10        3    13  15    4.8436   364.3   11.888      36.147
2015   10        3    13  22    4.8537   364.5   11.898      36.243
2015   10        3    13  28    4.8636   364.6   11.908      36.336
2015   10        3    13  34    4.8735   364.8   11.917      36.428
2015   10        3    13  41    4.8832   365.0   11.925      36.517
2015   10        3    13  47    4.8928   365.1   11.933      36.605
2015   10        3    13  54    4.9023   365.3   11.940      36.690
2015   10        3    14   0    4.9117   365.5   11.947      36.773
2015   10        3    14   7    4.9211   365.6   11.954      36.855
2015   10        3    14  13    4.9303   365.8   11.960      36.935
2015   10        3    14  20    4.9395   366.0   11.965      37.013
2015   10        3    14  26    4.9486   366.1   11.971      37.090
2015   10        3    14  33    4.9576   366.3   11.976      37.165
2015   10        3    14  39    4.9666   366.5   11.981      37.239
2015   10        3    14  46    4.9755   366.6   11.985      37.311
2015   10        3    14  52    4.9844   366.8   11.990      37.383
2015   10        3    14  59    4.9932   367.0   11.995      37.453
2015   10        3    15   5    5.0020   367.1   12.000      37.523
2015   10        3    15  12    5.0108   367.3   12.004      37.592
2015   10        3    15  18    5.0195   367.4   12.010      37.661
2015   10        3    15  25    5.0283   367.6   12.015      37.729
2015   10        3    15  31    5.0370   367.8   12.021      37.798
2015   10        3    15  38    5.0458   367.9   12.027      37.866
2015   10        3    15  44    5.0546   368.1   12.033      37.934
2015   10        3    15  51    5.0634   368.3   12.040      38.002
2015   10        3    15  57    5.0722   368.4   12.048      38.071
2015   10        3    16   4    5.0811   368.6   12.056      38.140
2015   10        3    16  10    5.0900   368.8   12.064      38.210
2015   10        3    16  17    5.0990   369.0   12.074      38.281
2015   10        3    16  23    5.1081   369.1   12.084      38.353
2015   10        3    16  30    5.1171   369.3   12.094      38.426
2015   10        3    16  36    5.1263   369.5   12.106      38.501
2015   10        3    16  43    5.1355   369.7   12.118      38.577
2015   10        3    16  49    5.1447   369.8   12.131      38.654
2015   10        3    16  56    5.1541   370.0   12.145      38.733
2015   10        3    17   2    5.1635   370.2   12.160      38.812
2015   10        3    17   9    5.1730   370.4   12.176      38.893
2015   10        3    17  15    5.1826   370.6   12.193      38.976
2015   10        3    17  22    5.1924   370.8   12.211      39.061
2015   10        3    17  28    5.2021   370.9   12.231      39.149
2015   10        3    17  35    5.2121   371.1   12.251      39.238
2015   10        3    17  41    5.2221   371.3   12.273      39.331
2015   10        3    17  48    5.2324   371.5   12.295      39.426
2015   10        3    17  54    5.2426   371.7   12.318      39.523
2015   10        3    18   1    5.2531   372.0   12.343      39.626
2015   10        3    18   7    5.2636   372.2   12.367      39.734
2015   10        3    18  13    5.2742   372.4   12.392      39.848
2015   10        3    18  20    5.2848   372.7   12.417      39.968
2015   10        3    18  26    5.2955   372.9   12.441      40.093
2015   10        3    18  33    5.3061   373.2   12.466      40.223
2015   10        3    18  39    5.3167   373.4   12.489      40.357
2015   10        3    18  46    5.3272   373.7   12.513      40.494
2015   10        3    18  52    5.3376   374.0   12.536      40.629
2015   10        3    18  59    5.3479   374.2   12.559      40.765
2015   10        3    19   5    5.3582   374.5   12.582      40.901
2015   10        3    19  12    5.3684   374.8   12.604      41.039
2015   10        3    19  18    5.3786   375.0   12.626      41.178
2015   10        3    19  25    5.3886   375.3   12.648      41.319
2015   10        3    19  31    5.3986   375.6   12.670      41.459
2015   10        3    19  38    5.4086   375.9   12.691      41.600
2015   10        3    19  44    5.4186   376.1   12.712      41.740
2015   10        3    19  51    5.4286   376.4   12.733      41.884
2015   10        3    19  57    5.4384   376.7   12.753      42.030
2015   10        3    20   4    5.4482   377.0   12.772      42.178
2015   10        3    20  10    5.4578   377.4   12.790      42.327
2015   10        3    20  17    5.4672   377.7   12.806      42.477
2015   10        3    20  23    5.4763   378.0   12.820      42.630
2015   10        3    20  30    5.4851   378.4   12.832      42.783
2015   10        3    20  36    5.4936   378.7   12.841      42.933
2015   10        3    20  43    5.5017   379.0   12.849      43.078
2015   10        3    20  49    5.5094   379.4   12.854      43.219
2015   10        3    20  56    5.5168   379.7   12.857      43.356
2015   10        3    21   2    5.5238   380.0   12.859      43.489
2015   10        3    21   9    5.5305   380.3   12.858      43.617
2015   10        3    21  15    5.5368   380.7   12.855      43.742
2015   10        3    21  22    5.5429   381.0   12.851      43.864
2015   10        3    21  28    5.5487   381.3   12.844      43.981
2015   10        3    21  35    5.5542   381.7   12.837      44.096
2015   10        3    21  41    5.5595   382.0   12.828      44.207
2015   10        3    21  48    5.5645   382.3   12.818      44.316
2015   10        3    21  54    5.5694   382.7   12.806      44.421
2015   10        3    22   1    5.5740   383.0   12.794      44.525
2015   10        3    22   7    5.5785   383.3   12.780      44.626
2015   10        3    22  14    5.5829   383.6   12.766      44.724
2015   10        3    22  20    5.5871   384.0   12.751      44.821
2015   10        3    22  27    5.5911   384.3   12.736      44.916
2015   10        3    22  33    5.5950   384.6   12.720      45.009
2015   10        3    22  39    5.5989   384.9   12.703      45.100
2015   10        3    22  46    5.6026   385.3   12.686      45.190
2015   10        3    22  52    5.6062   385.6   12.669      45.278
2015   10        3    22  59    5.6097   385.9   12.651      45.365
2015   10        3    23   5    5.6132   386.2   12.633      45.450
2015   10        3    23  12    5.6166   386.5   12.615      45.535
2015   10        3    23  18    5.6199   386.9   12.597      45.618
2015   10        3    23  25    5.6232   387.2   12.579      45.701
2015   10        3    23  31    5.6265   387.5   12.561      45.783
2015   10        3    23  38    5.6297   387.8   12.543      45.865
2015   10        3    23  44    5.6328   388.1   12.525      45.946
2015   10        3    23  51    5.6360   388.4   12.507      46.027
2015   10        3    23  57    5.6390   388.7   12.489      46.107
2015   10        4     0   4    5.6421   389.1   12.472      46.188
