year    month   day   hour  minute  B_enl V_enl   n_enl       T_enl
[year] [month] [day] [hour][minute] [nT]  [km/s]  [cm-3]      [kK]
2015    9        3     0   5    2.7017   437.6    5.116      28.893
2015    9        3     0  12    2.7078   437.4    5.129      28.902
2015    9        3     0  20    2.7139   437.2    5.142      28.911
2015    9        3     0  27    2.7201   437.0    5.155      28.920
2015    9        3     0  34    2.7263   436.9    5.169      28.929
2015    9        3     0  42    2.7326   436.7    5.182      28.939
2015    9        3     0  49    2.7389   436.5    5.195      28.949
2015    9        3     0  56    2.7453   436.3    5.209      28.960
2015    9        3     1   4    2.7517   436.2    5.222      28.971
2015    9        3     1  11    2.7582   436.0    5.236      28.982
2015    9        3     1  18    2.7647   435.8    5.250      28.994
2015    9        3     1  26    2.7713   435.7    5.264      29.007
2015    9        3     1  33    2.7779   435.5    5.278      29.020
2015    9        3     1  41    2.7847   435.3    5.293      29.034
2015    9        3     1  48    2.7914   435.2    5.307      29.049
2015    9        3     1  55    2.7983   435.0    5.322      29.065
2015    9        3     2   3    2.8052   434.9    5.337      29.081
2015    9        3     2  10    2.8122   434.7    5.352      29.098
2015    9        3     2  17    2.8192   434.6    5.367      29.116
2015    9        3     2  25    2.8264   434.4    5.383      29.135
2015    9        3     2  32    2.8335   434.3    5.398      29.155
2015    9        3     2  39    2.8408   434.1    5.414      29.175
2015    9        3     2  47    2.8481   434.0    5.430      29.197
2015    9        3     2  54    2.8556   433.9    5.447      29.219
2015    9        3     3   1    2.8631   433.7    5.463      29.242
2015    9        3     3   9    2.8707   433.6    5.480      29.266
2015    9        3     3  16    2.8783   433.5    5.498      29.290
2015    9        3     3  24    2.8861   433.3    5.515      29.316
2015    9        3     3  31    2.8939   433.2    5.533      29.343
2015    9        3     3  38    2.9019   433.1    5.551      29.370
2015    9        3     3  46    2.9099   432.9    5.569      29.398
2015    9        3     3  53    2.9181   432.8    5.588      29.428
2015    9        3     4   0    2.9263   432.7    5.607      29.458
2015    9        3     4   8    2.9347   432.6    5.627      29.490
2015    9        3     4  15    2.9431   432.4    5.646      29.522
2015    9        3     4  22    2.9518   432.3    5.667      29.555
2015    9        3     4  30    2.9604   432.2    5.687      29.590
2015    9        3     4  37    2.9693   432.1    5.708      29.627
2015    9        3     4  45    2.9782   432.0    5.729      29.665
2015    9        3     4  52    2.9872   431.9    5.750      29.706
2015    9        3     4  59    2.9962   431.8    5.771      29.750
2015    9        3     5   7    3.0053   431.7    5.792      29.799
2015    9        3     5  14    3.0143   431.6    5.812      29.850
2015    9        3     5  21    3.0234   431.6    5.832      29.904
2015    9        3     5  29    3.0323   431.5    5.851      29.960
2015    9        3     5  36    3.0413   431.4    5.870      30.017
2015    9        3     5  43    3.0502   431.3    5.889      30.073
2015    9        3     5  51    3.0592   431.3    5.907      30.130
2015    9        3     5  58    3.0680   431.2    5.925      30.186
2015    9        3     6   5    3.0769   431.1    5.943      30.242
2015    9        3     6  13    3.0857   431.0    5.960      30.296
2015    9        3     6  20    3.0945   431.0    5.977      30.350
2015    9        3     6  28    3.1032   430.9    5.993      30.402
2015    9        3     6  35    3.1120   430.9    6.009      30.453
2015    9        3     6  42    3.1206   430.8    6.025      30.503
2015    9        3     6  50    3.1294   430.7    6.041      30.552
2015    9        3     6  57    3.1379   430.7    6.056      30.599
2015    9        3     7   4    3.1466   430.6    6.071      30.646
2015    9        3     7  12    3.1551   430.6    6.085      30.692
2015    9        3     7  19    3.1636   430.5    6.100      30.736
2015    9        3     7  26    3.1721   430.5    6.114      30.780
2015    9        3     7  34    3.1806   430.5    6.128      30.824
2015    9        3     7  41    3.1890   430.4    6.142      30.866
2015    9        3     7  49    3.1974   430.4    6.155      30.908
2015    9        3     7  56    3.2058   430.3    6.169      30.950
2015    9        3     8   3    3.2142   430.3    6.182      30.991
2015    9        3     8  11    3.2225   430.3    6.195      31.032
2015    9        3     8  18    3.2308   430.3    6.208      31.073
2015    9        3     8  25    3.2391   430.2    6.221      31.114
2015    9        3     8  33    3.2474   430.2    6.234      31.154
2015    9        3     8  40    3.2557   430.2    6.247      31.195
2015    9        3     8  47    3.2640   430.2    6.260      31.236
2015    9        3     8  55    3.2722   430.2    6.273      31.276
2015    9        3     9   2    3.2805   430.2    6.286      31.317
2015    9        3     9   9    3.2887   430.2    6.299      31.358
2015    9        3     9  17    3.2970   430.1    6.312      31.399
2015    9        3     9  24    3.3053   430.1    6.324      31.441
2015    9        3     9  32    3.3136   430.1    6.338      31.482
2015    9        3     9  39    3.3218   430.1    6.351      31.524
2015    9        3     9  46    3.3301   430.1    6.364      31.567
2015    9        3     9  54    3.3384   430.1    6.377      31.609
2015    9        3    10   1    3.3467   430.1    6.391      31.652
2015    9        3    10   8    3.3550   430.2    6.404      31.696
2015    9        3    10  16    3.3633   430.2    6.418      31.740
2015    9        3    10  23    3.3716   430.2    6.432      31.785
2015    9        3    10  30    3.3800   430.2    6.446      31.831
2015    9        3    10  38    3.3884   430.2    6.461      31.877
2015    9        3    10  45    3.3968   430.2    6.475      31.925
2015    9        3    10  52    3.4052   430.3    6.490      31.973
2015    9        3    11   0    3.4137   430.3    6.506      32.023
2015    9        3    11   7    3.4222   430.3    6.521      32.074
2015    9        3    11  15    3.4308   430.3    6.537      32.126
2015    9        3    11  22    3.4394   430.4    6.553      32.179
2015    9        3    11  29    3.4482   430.4    6.570      32.234
2015    9        3    11  37    3.4569   430.4    6.588      32.290
2015    9        3    11  44    3.4659   430.5    6.606      32.348
2015    9        3    11  51    3.4749   430.5    6.625      32.407
2015    9        3    11  59    3.4840   430.5    6.644      32.469
2015    9        3    12   6    3.4932   430.6    6.664      32.533
2015    9        3    12  13    3.5026   430.6    6.685      32.600
2015    9        3    12  21    3.5121   430.7    6.707      32.670
2015    9        3    12  28    3.5217   430.8    6.728      32.746
2015    9        3    12  35    3.5313   430.8    6.750      32.827
2015    9        3    12  43    3.5409   430.9    6.772      32.914
2015    9        3    12  50    3.5505   431.0    6.793      33.005
2015    9        3    12  58    3.5601   431.1    6.815      33.101
2015    9        3    13   5    3.5696   431.2    6.835      33.199
2015    9        3    13  12    3.5790   431.3    6.856      33.298
2015    9        3    13  20    3.5882   431.4    6.875      33.397
2015    9        3    13  27    3.5973   431.5    6.893      33.495
2015    9        3    13  34    3.6062   431.6    6.911      33.592
2015    9        3    13  42    3.6150   431.7    6.928      33.687
2015    9        3    13  49    3.6235   431.8    6.943      33.780
2015    9        3    13  56    3.6319   431.9    6.958      33.871
2015    9        3    14   4    3.6402   432.0    6.972      33.958
2015    9        3    14  11    3.6482   432.1    6.985      34.044
2015    9        3    14  18    3.6561   432.2    6.997      34.126
2015    9        3    14  26    3.6639   432.3    7.008      34.207
2015    9        3    14  33    3.6715   432.5    7.019      34.285
2015    9        3    14  41    3.6790   432.6    7.029      34.361
2015    9        3    14  48    3.6863   432.7    7.038      34.435
2015    9        3    14  55    3.6935   432.8    7.046      34.507
2015    9        3    15   3    3.7006   432.9    7.054      34.577
2015    9        3    15  10    3.7076   433.0    7.062      34.645
2015    9        3    15  17    3.7144   433.2    7.068      34.711
2015    9        3    15  25    3.7212   433.3    7.074      34.776
2015    9        3    15  32    3.7278   433.4    7.080      34.839
2015    9        3    15  39    3.7344   433.5    7.086      34.901
2015    9        3    15  47    3.7408   433.6    7.090      34.961
2015    9        3    15  54    3.7473   433.8    7.095      35.020
2015    9        3    16   1    3.7535   433.9    7.099      35.077
2015    9        3    16   9    3.7598   434.0    7.103      35.133
2015    9        3    16  16    3.7660   434.1    7.107      35.188
2015    9        3    16  24    3.7721   434.3    7.110      35.242
2015    9        3    16  31    3.7782   434.4    7.114      35.295
2015    9        3    16  38    3.7842   434.5    7.117      35.347
2015    9        3    16  46    3.7902   434.6    7.120      35.398
2015    9        3    16  53    3.7962   434.8    7.122      35.449
2015    9        3    17   0    3.8021   434.9    7.125      35.498
2015    9        3    17   8    3.8080   435.0    7.128      35.548
2015    9        3    17  15    3.8139   435.1    7.130      35.596
2015    9        3    17  22    3.8197   435.3    7.133      35.644
2015    9        3    17  30    3.8256   435.4    7.135      35.692
2015    9        3    17  37    3.8314   435.5    7.138      35.740
2015    9        3    17  45    3.8372   435.6    7.141      35.788
2015    9        3    17  52    3.8431   435.8    7.143      35.836
2015    9        3    17  59    3.8489   435.9    7.146      35.883
2015    9        3    18   7    3.8547   436.0    7.149      35.932
2015    9        3    18  14    3.8606   436.2    7.152      35.980
2015    9        3    18  21    3.8665   436.3    7.155      36.029
2015    9        3    18  29    3.8724   436.4    7.159      36.078
2015    9        3    18  36    3.8783   436.6    7.163      36.128
2015    9        3    18  43    3.8843   436.7    7.167      36.178
2015    9        3    18  51    3.8903   436.8    7.172      36.229
2015    9        3    18  58    3.8964   437.0    7.177      36.280
2015    9        3    19   5    3.9026   437.1    7.183      36.333
2015    9        3    19  13    3.9088   437.3    7.189      36.386
2015    9        3    19  20    3.9151   437.4    7.196      36.442
2015    9        3    19  28    3.9215   437.5    7.204      36.497
2015    9        3    19  35    3.9280   437.7    7.213      36.554
2015    9        3    19  42    3.9346   437.8    7.223      36.611
2015    9        3    19  50    3.9413   438.0    7.233      36.674
2015    9        3    19  57    3.9481   438.1    7.244      36.740
2015    9        3    20   4    3.9549   438.3    7.255      36.810
2015    9        3    20  12    3.9617   438.5    7.267      36.884
2015    9        3    20  19    3.9684   438.7    7.279      36.962
2015    9        3    20  26    3.9752   438.9    7.290      37.042
2015    9        3    20  34    3.9818   439.0    7.302      37.124
2015    9        3    20  41    3.9883   439.2    7.314      37.206
2015    9        3    20  49    3.9946   439.4    7.326      37.289
2015    9        3    20  56    4.0009   439.6    7.337      37.373
2015    9        3    21   3    4.0070   439.8    7.348      37.458
2015    9        3    21  11    4.0130   440.0    7.360      37.543
2015    9        3    21  18    4.0189   440.1    7.371      37.627
2015    9        3    21  25    4.0247   440.3    7.382      37.710
2015    9        3    21  33    4.0304   440.5    7.394      37.797
2015    9        3    21  40    4.0359   440.7    7.405      37.886
2015    9        3    21  47    4.0414   440.9    7.416      37.978
2015    9        3    21  55    4.0466   441.1    7.426      38.071
2015    9        3    22   2    4.0518   441.3    7.436      38.166
2015    9        3    22   9    4.0568   441.5    7.445      38.264
2015    9        3    22  17    4.0617   441.7    7.453      38.361
2015    9        3    22  24    4.0665   441.9    7.460      38.456
2015    9        3    22  32    4.0711   442.1    7.467      38.551
2015    9        3    22  39    4.0756   442.4    7.472      38.644
2015    9        3    22  46    4.0799   442.6    7.477      38.736
2015    9        3    22  54    4.0842   442.8    7.481      38.824
2015    9        3    23   1    4.0883   443.0    7.484      38.910
2015    9        3    23   8    4.0923   443.2    7.486      38.993
2015    9        3    23  16    4.0962   443.5    7.487      39.073
2015    9        3    23  23    4.1000   443.7    7.487      39.150
2015    9        3    23  30    4.1037   443.9    7.487      39.225
2015    9        3    23  38    4.1074   444.2    7.486      39.297
2015    9        3    23  45    4.1110   444.4    7.485      39.367
2015    9        3    23  52    4.1146   444.6    7.483      39.435
2015    9        4     0   0    4.1181   444.9    7.481      39.501
2015    9        4     0   7    4.1215   445.1    7.478      39.565
2015    9        4     0  15    4.1249   445.3    7.475      39.628
2015    9        4     0  22    4.1283   445.6    7.471      39.688
2015    9        4     0  29    4.1317   445.8    7.467      39.748
2015    9        4     0  37    4.1350   446.1    7.463      39.806
2015    9        4     0  44    4.1383   446.3    7.459      39.863
2015    9        4     0  51    4.1416   446.6    7.455      39.919
2015    9        4     0  59    4.1449   446.8    7.450      39.974
2015    9        4     1   6    4.1482   447.0    7.445      40.028
2015    9        4     1  13    4.1515   447.3    7.441      40.082
2015    9        4     1  21    4.1547   447.5    7.436      40.135
2015    9        4     1  28    4.1580   447.8    7.431      40.188
2015    9        4     1  35    4.1613   448.0    7.426      40.239
2015    9        4     1  43    4.1645   448.3    7.421      40.291
2015    9        4     1  50    4.1678   448.5    7.417      40.342
2015    9        4     1  58    4.1711   448.8    7.412      40.393
2015    9        4     2   5    4.1744   449.0    7.408      40.444
2015    9        4     2  12    4.1778   449.2    7.403      40.495
2015    9        4     2  20    4.1812   449.5    7.399      40.545
2015    9        4     2  27    4.1847   449.7    7.395      40.596
2015    9        4     2  34    4.1881   450.0    7.392      40.648
2015    9        4     2  42    4.1917   450.2    7.389      40.700
2015    9        4     2  49    4.1952   450.5    7.386      40.754
2015    9        4     2  56    4.1988   450.7    7.385      40.808
2015    9        4     3   4    4.2023   451.0    7.383      40.863
2015    9        4     3  11    4.2058   451.2    7.383      40.922
2015    9        4     3  19    4.2092   451.5    7.382      40.984
2015    9        4     3  26    4.2126   451.8    7.382      41.050
2015    9        4     3  33    4.2159   452.0    7.382      41.118
2015    9        4     3  41    4.2191   452.3    7.383      41.189
2015    9        4     3  48    4.2222   452.6    7.383      41.260
2015    9        4     3  55    4.2251   452.8    7.383      41.330
2015    9        4     4   3    4.2280   453.1    7.383      41.399
2015    9        4     4  10    4.2307   453.4    7.384      41.467
2015    9        4     4  17    4.2334   453.6    7.384      41.536
2015    9        4     4  25    4.2360   453.9    7.385      41.604
2015    9        4     4  32    4.2385   454.2    7.386      41.672
2015    9        4     4  39    4.2409   454.4    7.388      41.739
2015    9        4     4  47    4.2433   454.7    7.390      41.808
2015    9        4     4  54    4.2456   454.9    7.393      41.882
2015    9        4     5   2    4.2479   455.2    7.396      41.958
2015    9        4     5   9    4.2500   455.4    7.399      42.038
2015    9        4     5  16    4.2521   455.7    7.401      42.121
2015    9        4     5  24    4.2541   456.0    7.404      42.209
2015    9        4     5  31    4.2561   456.3    7.406      42.298
2015    9        4     5  38    4.2579   456.6    7.408      42.388
2015    9        4     5  46    4.2596   456.9    7.409      42.477
2015    9        4     5  53    4.2612   457.2    7.409      42.567
2015    9        4     6   0    4.2627   457.5    7.409      42.656
2015    9        4     6   8    4.2640   457.8    7.408      42.743
2015    9        4     6  15    4.2652   458.1    7.406      42.827
2015    9        4     6  22    4.2663   458.4    7.403      42.908
2015    9        4     6  30    4.2673   458.8    7.399      42.986
2015    9        4     6  37    4.2681   459.1    7.394      43.061
2015    9        4     6  45    4.2688   459.4    7.389      43.133
2015    9        4     6  52    4.2693   459.8    7.382      43.201
2015    9        4     6  59    4.2696   460.1    7.375      43.265
2015    9        4     7   7    4.2698   460.4    7.368      43.327
2015    9        4     7  14    4.2698   460.7    7.360      43.386
2015    9        4     7  21    4.2697   461.1    7.351      43.442
2015    9        4     7  29    4.2695   461.4    7.342      43.496
2015    9        4     7  36    4.2690   461.7    7.332      43.547
2015    9        4     7  43    4.2685   462.0    7.322      43.597
2015    9        4     7  51    4.2678   462.4    7.311      43.645
2015    9        4     7  58    4.2670   462.7    7.301      43.691
2015    9        4     8   5    4.2660   463.0    7.290      43.736
2015    9        4     8  13    4.2649   463.3    7.278      43.779
2015    9        4     8  20    4.2637   463.6    7.267      43.821
2015    9        4     8  28    4.2624   463.9    7.256      43.862
2015    9        4     8  35    4.2610   464.3    7.244      43.903
2015    9        4     8  42    4.2596   464.6    7.232      43.942
2015    9        4     8  50    4.2580   464.9    7.220      43.981
2015    9        4     8  57    4.2565   465.2    7.208      44.020
2015    9        4     9   4    4.2548   465.5    7.197      44.058
2015    9        4     9  12    4.2531   465.8    7.185      44.096
2015    9        4     9  19    4.2514   466.1    7.173      44.133
2015    9        4     9  26    4.2496   466.4    7.161      44.170
2015    9        4     9  34    4.2478   466.7    7.149      44.207
2015    9        4     9  41    4.2461   467.0    7.137      44.243
2015    9        4     9  49    4.2443   467.3    7.126      44.280
2015    9        4     9  56    4.2425   467.6    7.114      44.316
2015    9        4    10   3    4.2406   467.9    7.103      44.354
2015    9        4    10  11    4.2387   468.2    7.092      44.391
2015    9        4    10  18    4.2367   468.5    7.082      44.428
2015    9        4    10  25    4.2347   468.8    7.071      44.467
2015    9        4    10  33    4.2325   469.1    7.061      44.508
2015    9        4    10  40    4.2303   469.5    7.051      44.552
2015    9        4    10  47    4.2279   469.8    7.041      44.598
2015    9        4    10  55    4.2254   470.1    7.031      44.646
2015    9        4    11   2    4.2227   470.4    7.020      44.694
2015    9        4    11   9    4.2200   470.7    7.009      44.740
2015    9        4    11  17    4.2170   471.1    6.997      44.784
2015    9        4    11  24    4.2140   471.4    6.985      44.827
2015    9        4    11  32    4.2107   471.7    6.973      44.867
2015    9        4    11  39    4.2074   472.0    6.960      44.904
2015    9        4    11  46    4.2039   472.4    6.947      44.940
2015    9        4    11  54    4.2004   472.7    6.934      44.974
2015    9        4    12   1    4.1966   473.0    6.920      45.007
2015    9        4    12   8    4.1928   473.3    6.906      45.039
2015    9        4    12  16    4.1889   473.7    6.892      45.071
2015    9        4    12  23    4.1849   474.0    6.878      45.103
2015    9        4    12  30    4.1807   474.4    6.864      45.135
2015    9        4    12  38    4.1764   474.7    6.849      45.167
2015    9        4    12  45    4.1718   475.1    6.834      45.198
2015    9        4    12  52    4.1671   475.4    6.818      45.229
2015    9        4    13   0    4.1621   475.8    6.802      45.258
2015    9        4    13   7    4.1569   476.2    6.785      45.283
2015    9        4    13  15    4.1513   476.6    6.767      45.305
2015    9        4    13  22    4.1456   476.9    6.749      45.325
2015    9        4    13  29    4.1396   477.3    6.730      45.341
2015    9        4    13  37    4.1335   477.6    6.711      45.354
2015    9        4    13  44    4.1271   477.9    6.693      45.365
2015    9        4    13  51    4.1208   478.3    6.674      45.376
2015    9        4    13  59    4.1142   478.6    6.654      45.384
2015    9        4    14   6    4.1075   479.0    6.635      45.391
2015    9        4    14  13    4.1006   479.3    6.616      45.396
2015    9        4    14  21    4.0938   479.6    6.597      45.399
2015    9        4    14  28    4.0866   479.9    6.577      45.401
2015    9        4    14  35    4.0795   480.2    6.558      45.403
2015    9        4    14  43    4.0722   480.5    6.539      45.403
2015    9        4    14  50    4.0648   480.8    6.520      45.402
2015    9        4    14  58    4.0573   481.1    6.500      45.401
2015    9        4    15   5    4.0497   481.4    6.481      45.398
2015    9        4    15  12    4.0418   481.7    6.461      45.394
2015    9        4    15  20    4.0340   482.0    6.441      45.390
2015    9        4    15  27    4.0258   482.3    6.422      45.383
2015    9        4    15  34    4.0176   482.6    6.402      45.375
2015    9        4    15  42    4.0093   482.9    6.382      45.364
2015    9        4    15  49    4.0009   483.1    6.362      45.350
2015    9        4    15  56    3.9924   483.4    6.342      45.335
2015    9        4    16   4    3.9839   483.6    6.322      45.317
2015    9        4    16  11    3.9753   483.9    6.302      45.298
2015    9        4    16  18    3.9668   484.1    6.283      45.279
2015    9        4    16  26    3.9582   484.4    6.263      45.258
2015    9        4    16  33    3.9497   484.6    6.244      45.238
2015    9        4    16  41    3.9410   484.9    6.224      45.217
2015    9        4    16  48    3.9324   485.1    6.205      45.195
2015    9        4    16  55    3.9238   485.4    6.186      45.173
2015    9        4    17   3    3.9152   485.6    6.166      45.150
2015    9        4    17  10    3.9065   485.9    6.147      45.125
2015    9        4    17  17    3.8979   486.1    6.128      45.100
2015    9        4    17  25    3.8892   486.3    6.109      45.072
2015    9        4    17  32    3.8806   486.5    6.091      45.045
2015    9        4    17  39    3.8719   486.7    6.072      45.016
2015    9        4    17  47    3.8633   487.0    6.054      44.986
2015    9        4    17  54    3.8546   487.2    6.036      44.956
2015    9        4    18   2    3.8460   487.4    6.018      44.926
2015    9        4    18   9    3.8373   487.6    6.000      44.895
2015    9        4    18  16    3.8287   487.8    5.983      44.864
2015    9        4    18  24    3.8201   488.0    5.966      44.831
2015    9        4    18  31    3.8115   488.1    5.949      44.798
2015    9        4    18  38    3.8028   488.3    5.932      44.765
2015    9        4    18  46    3.7943   488.5    5.915      44.731
2015    9        4    18  53    3.7856   488.7    5.898      44.695
2015    9        4    19   0    3.7770   488.9    5.882      44.659
2015    9        4    19   8    3.7683   489.1    5.865      44.622
2015    9        4    19  15    3.7596   489.3    5.849      44.584
2015    9        4    19  23    3.7508   489.5    5.833      44.544
2015    9        4    19  30    3.7421   489.7    5.816      44.505
2015    9        4    19  37    3.7332   489.9    5.800      44.465
2015    9        4    19  45    3.7243   490.1    5.783      44.425
2015    9        4    19  52    3.7152   490.3    5.767      44.383
2015    9        4    19  59    3.7060   490.5    5.750      44.340
2015    9        4    20   7    3.6966   490.8    5.732      44.293
2015    9        4    20  14    3.6870   491.0    5.714      44.246
2015    9        4    20  21    3.6772   491.2    5.695      44.194
2015    9        4    20  29    3.6673   491.5    5.676      44.138
2015    9        4    20  36    3.6571   491.7    5.657      44.078
2015    9        4    20  43    3.6469   491.9    5.637      44.017
2015    9        4    20  51    3.6365   492.0    5.618      43.952
2015    9        4    20  58    3.6262   492.2    5.599      43.887
2015    9        4    21   6    3.6157   492.4    5.580      43.821
2015    9        4    21  13    3.6054   492.5    5.562      43.755
2015    9        4    21  20    3.5951   492.7    5.543      43.689
2015    9        4    21  28    3.5849   492.8    5.525      43.623
2015    9        4    21  35    3.5747   492.9    5.508      43.556
2015    9        4    21  42    3.5646   493.0    5.491      43.490
2015    9        4    21  50    3.5545   493.1    5.475      43.425
2015    9        4    21  57    3.5445   493.2    5.459      43.362
2015    9        4    22   4    3.5346   493.4    5.443      43.298
2015    9        4    22  12    3.5248   493.5    5.428      43.236
2015    9        4    22  19    3.5149   493.6    5.414      43.177
2015    9        4    22  26    3.5052   493.7    5.399      43.120
2015    9        4    22  34    3.4954   493.8    5.385      43.064
2015    9        4    22  41    3.4857   493.9    5.371      43.010
2015    9        4    22  49    3.4760   494.0    5.356      42.955
2015    9        4    22  56    3.4663   494.1    5.342      42.900
2015    9        4    23   3    3.4565   494.1    5.328      42.842
2015    9        4    23  11    3.4469   494.2    5.314      42.783
2015    9        4    23  18    3.4373   494.3    5.300      42.722
2015    9        4    23  25    3.4278   494.4    5.286      42.661
2015    9        4    23  33    3.4183   494.5    5.272      42.600
2015    9        4    23  40    3.4088   494.5    5.258      42.538
2015    9        4    23  47    3.3994   494.6    5.243      42.474
2015    9        4    23  55    3.3902   494.7    5.229      42.410
2015    9        5     0   2    3.3809   494.8    5.215      42.345
2015    9        5     0   9    3.3717   494.8    5.201      42.280
2015    9        5     0  17    3.3626   494.9    5.187      42.214
2015    9        5     0  24    3.3535   495.0    5.173      42.147
2015    9        5     0  32    3.3444   495.0    5.159      42.078
2015    9        5     0  39    3.3355   495.1    5.145      42.008
2015    9        5     0  46    3.3266   495.1    5.132      41.938
2015    9        5     0  54    3.3177   495.1    5.118      41.868
2015    9        5     1   1    3.3090   495.2    5.105      41.797
2015    9        5     1   8    3.3003   495.2    5.092      41.727
2015    9        5     1  16    3.2916   495.2    5.079      41.657
2015    9        5     1  23    3.2831   495.3    5.066      41.588
2015    9        5     1  30    3.2746   495.3    5.054      41.519
2015    9        5     1  38    3.2662   495.3    5.042      41.451
2015    9        5     1  45    3.2578   495.3    5.030      41.382
2015    9        5     1  52    3.2495   495.3    5.018      41.315
2015    9        5     2   0    3.2412   495.3    5.006      41.248
2015    9        5     2   7    3.2330   495.3    4.995      41.182
2015    9        5     2  15    3.2249   495.3    4.983      41.115
2015    9        5     2  22    3.2168   495.3    4.972      41.049
2015    9        5     2  29    3.2087   495.3    4.961      40.983
2015    9        5     2  37    3.2006   495.3    4.950      40.916
2015    9        5     2  44    3.1926   495.3    4.939      40.849
2015    9        5     2  51    3.1847   495.3    4.929      40.782
2015    9        5     2  59    3.1767   495.3    4.918      40.714
2015    9        5     3   6    3.1688   495.3    4.908      40.646
2015    9        5     3  13    3.1608   495.4    4.898      40.576
2015    9        5     3  21    3.1529   495.4    4.888      40.506
2015    9        5     3  28    3.1450   495.4    4.878      40.434
2015    9        5     3  36    3.1372   495.3    4.868      40.363
2015    9        5     3  43    3.1294   495.3    4.858      40.292
2015    9        5     3  50    3.1216   495.3    4.849      40.222
2015    9        5     3  58    3.1139   495.3    4.839      40.151
2015    9        5     4   5    3.1063   495.3    4.830      40.081
2015    9        5     4  12    3.0988   495.3    4.821      40.011
2015    9        5     4  20    3.0913   495.2    4.812      39.942
2015    9        5     4  27    3.0840   495.2    4.803      39.872
2015    9        5     4  34    3.0767   495.2    4.795      39.802
2015    9        5     4  42    3.0695   495.1    4.786      39.732
2015    9        5     4  49    3.0625   495.1    4.778      39.662
2015    9        5     4  56    3.0555   495.0    4.770      39.592
2015    9        5     5   4    3.0486   494.9    4.763      39.523
2015    9        5     5  11    3.0418   494.8    4.756      39.454
2015    9        5     5  19    3.0351   494.8    4.749      39.387
2015    9        5     5  26    3.0284   494.7    4.743      39.319
2015    9        5     5  33    3.0219   494.6    4.737      39.255
2015    9        5     5  41    3.0154   494.5    4.731      39.194
2015    9        5     5  48    3.0090   494.4    4.725      39.135
2015    9        5     5  55    3.0026   494.3    4.720      39.078
2015    9        5     6   3    2.9963   494.3    4.714      39.023
2015    9        5     6  10    2.9901   494.2    4.709      38.970
2015    9        5     6  17    2.9839   494.1    4.703      38.918
2015    9        5     6  25    2.9777   494.0    4.698      38.865
2015    9        5     6  32    2.9716   493.9    4.692      38.813
2015    9        5     6  39    2.9655   493.9    4.687      38.761
2015    9        5     6  47    2.9595   493.8    4.681      38.709
2015    9        5     6  54    2.9535   493.7    4.675      38.656
2015    9        5     7   2    2.9476   493.6    4.669      38.603
2015    9        5     7   9    2.9416   493.6    4.662      38.548
2015    9        5     7  16    2.9358   493.5    4.656      38.493
2015    9        5     7  24    2.9299   493.4    4.650      38.436
2015    9        5     7  31    2.9242   493.3    4.643      38.379
2015    9        5     7  38    2.9184   493.2    4.636      38.321
2015    9        5     7  46    2.9127   493.1    4.630      38.263
2015    9        5     7  53    2.9070   493.1    4.623      38.204
2015    9        5     8   0    2.9013   493.0    4.616      38.145
2015    9        5     8   8    2.8957   492.9    4.609      38.085
2015    9        5     8  15    2.8901   492.8    4.603      38.026
2015    9        5     8  23    2.8845   492.7    4.596      37.965
2015    9        5     8  30    2.8790   492.6    4.589      37.905
2015    9        5     8  37    2.8735   492.6    4.582      37.844
2015    9        5     8  45    2.8680   492.5    4.575      37.784
2015    9        5     8  52    2.8625   492.4    4.568      37.723
2015    9        5     8  59    2.8571   492.3    4.561      37.663
2015    9        5     9   7    2.8517   492.2    4.554      37.601
2015    9        5     9  14    2.8463   492.1    4.548      37.540
2015    9        5     9  21    2.8409   492.0    4.541      37.479
2015    9        5     9  29    2.8356   491.9    4.534      37.418
2015    9        5     9  36    2.8303   491.8    4.527      37.357
2015    9        5     9  43    2.8250   491.7    4.521      37.296
2015    9        5     9  51    2.8198   491.6    4.514      37.234
2015    9        5     9  58    2.8146   491.5    4.508      37.174
2015    9        5    10   6    2.8094   491.4    4.501      37.113
2015    9        5    10  13    2.8043   491.3    4.495      37.053
2015    9        5    10  20    2.7992   491.2    4.489      36.992
2015    9        5    10  28    2.7941   491.1    4.483      36.932
2015    9        5    10  35    2.7891   491.0    4.477      36.873
2015    9        5    10  42    2.7841   490.9    4.471      36.814
2015    9        5    10  50    2.7792   490.8    4.465      36.755
2015    9        5    10  57    2.7743   490.7    4.460      36.698
2015    9        5    11   4    2.7694   490.6    4.455      36.640
2015    9        5    11  12    2.7647   490.4    4.450      36.584
2015    9        5    11  19    2.7599   490.3    4.445      36.527
2015    9        5    11  26    2.7552   490.2    4.440      36.472
2015    9        5    11  34    2.7506   490.1    4.435      36.417
2015    9        5    11  41    2.7460   490.0    4.431      36.363
2015    9        5    11  49    2.7414   489.8    4.427      36.309
2015    9        5    11  56    2.7369   489.7    4.422      36.255
2015    9        5    12   3    2.7324   489.6    4.418      36.202
2015    9        5    12  11    2.7280   489.4    4.414      36.150
2015    9        5    12  18    2.7236   489.3    4.411      36.097
2015    9        5    12  25    2.7193   489.1    4.407      36.045
2015    9        5    12  33    2.7150   489.0    4.403      35.993
2015    9        5    12  40    2.7107   488.9    4.400      35.942
2015    9        5    12  47    2.7065   488.7    4.396      35.890
2015    9        5    12  55    2.7022   488.6    4.392      35.838
2015    9        5    13   2    2.6980   488.4    4.389      35.786
2015    9        5    13   9    2.6939   488.2    4.385      35.734
2015    9        5    13  17    2.6897   488.1    4.382      35.681
2015    9        5    13  24    2.6856   487.9    4.379      35.629
2015    9        5    13  32    2.6815   487.8    4.375      35.575
2015    9        5    13  39    2.6774   487.6    4.372      35.522
2015    9        5    13  46    2.6734   487.4    4.368      35.469
2015    9        5    13  54    2.6694   487.3    4.365      35.415
2015    9        5    14   1    2.6654   487.1    4.361      35.361
2015    9        5    14   8    2.6614   486.9    4.358      35.308
2015    9        5    14  16    2.6574   486.8    4.355      35.253
2015    9        5    14  23    2.6535   486.6    4.351      35.200
2015    9        5    14  30    2.6496   486.4    4.348      35.145
2015    9        5    14  38    2.6458   486.3    4.344      35.091
2015    9        5    14  45    2.6419   486.1    4.341      35.036
2015    9        5    14  53    2.6381   485.9    4.338      34.981
2015    9        5    15   0    2.6343   485.7    4.334      34.927
2015    9        5    15   7    2.6305   485.6    4.331      34.872
2015    9        5    15  15    2.6267   485.4    4.327      34.817
2015    9        5    15  22    2.6230   485.2    4.324      34.763
2015    9        5    15  29    2.6192   485.0    4.321      34.708
2015    9        5    15  37    2.6155   484.8    4.318      34.653
2015    9        5    15  44    2.6118   484.7    4.314      34.598
2015    9        5    15  51    2.6082   484.5    4.311      34.544
2015    9        5    15  59    2.6045   484.3    4.308      34.490
2015    9        5    16   6    2.6008   484.1    4.305      34.436
2015    9        5    16  13    2.5972   483.9    4.302      34.381
2015    9        5    16  21    2.5936   483.8    4.299      34.328
2015    9        5    16  28    2.5900   483.6    4.296      34.274
2015    9        5    16  35    2.5865   483.4    4.293      34.221
2015    9        5    16  43    2.5829   483.2    4.290      34.167
2015    9        5    16  50    2.5794   483.0    4.288      34.114
2015    9        5    16  57    2.5758   482.8    4.285      34.061
2015    9        5    17   5    2.5724   482.6    4.282      34.009
2015    9        5    17  12    2.5689   482.5    4.280      33.956
2015    9        5    17  19    2.5654   482.3    4.277      33.905
2015    9        5    17  27    2.5620   482.1    4.275      33.853
2015    9        5    17  34    2.5586   481.9    4.272      33.802
2015    9        5    17  41    2.5553   481.7    4.270      33.751
2015    9        5    17  49    2.5519   481.5    4.268      33.700
2015    9        5    17  56    2.5486   481.3    4.265      33.650
2015    9        5    18   3    2.5454   481.1    4.263      33.600
2015    9        5    18  11    2.5421   480.9    4.261      33.551
2015    9        5    18  18    2.5389   480.7    4.259      33.502
2015    9        5    18  26    2.5358   480.5    4.257      33.454
2015    9        5    18  33    2.5327   480.3    4.255      33.407
2015    9        5    18  40    2.5296   480.1    4.254      33.359
2015    9        5    18  48    2.5266   479.9    4.252      33.313
2015    9        5    18  55    2.5236   479.7    4.250      33.266
2015    9        5    19   2    2.5206   479.5    4.249      33.220
2015    9        5    19  10    2.5177   479.3    4.247      33.175
2015    9        5    19  17    2.5148   479.1    4.246      33.130
2015    9        5    19  24    2.5120   478.9    4.244      33.085
2015    9        5    19  32    2.5092   478.7    4.243      33.041
2015    9        5    19  39    2.5065   478.5    4.242      32.997
2015    9        5    19  46    2.5038   478.3    4.241      32.954
2015    9        5    19  54    2.5011   478.1    4.240      32.910
2015    9        5    20   1    2.4984   477.9    4.239      32.867
2015    9        5    20   8    2.4958   477.7    4.238      32.824
2015    9        5    20  16    2.4932   477.5    4.237      32.780
2015    9        5    20  23    2.4906   477.3    4.236      32.736
2015    9        5    20  30    2.4881   477.0    4.235      32.692
2015    9        5    20  38    2.4856   476.8    4.234      32.648
2015    9        5    20  45    2.4830   476.6    4.233      32.603
2015    9        5    20  53    2.4805   476.4    4.232      32.558
2015    9        5    21   0    2.4780   476.2    4.231      32.513
2015    9        5    21   7    2.4755   476.0    4.230      32.468
2015    9        5    21  15    2.4730   475.8    4.229      32.422
2015    9        5    21  22    2.4705   475.6    4.227      32.376
2015    9        5    21  29    2.4681   475.3    4.226      32.330
2015    9        5    21  37    2.4656   475.1    4.225      32.283
2015    9        5    21  44    2.4631   474.9    4.224      32.236
2015    9        5    21  51    2.4607   474.7    4.223      32.189
2015    9        5    21  59    2.4582   474.5    4.222      32.143
2015    9        5    22   6    2.4558   474.3    4.221      32.095
2015    9        5    22  13    2.4533   474.0    4.220      32.048
2015    9        5    22  21    2.4509   473.8    4.219      32.001
2015    9        5    22  28    2.4485   473.6    4.218      31.954
2015    9        5    22  36    2.4461   473.4    4.217      31.907
2015    9        5    22  43    2.4437   473.2    4.216      31.860
2015    9        5    22  50    2.4414   472.9    4.215      31.813
2015    9        5    22  58    2.4390   472.7    4.214      31.767
2015    9        5    23   5    2.4367   472.5    4.213      31.720
2015    9        5    23  12    2.4343   472.3    4.212      31.674
2015    9        5    23  20    2.4320   472.0    4.211      31.627
2015    9        5    23  27    2.4297   471.8    4.211      31.581
2015    9        5    23  34    2.4275   471.6    4.210      31.535
2015    9        5    23  42    2.4252   471.4    4.209      31.489
2015    9        5    23  49    2.4230   471.2    4.208      31.444
2015    9        5    23  56    2.4207   470.9    4.208      31.398
2015    9        6     0   4    2.4185   470.7    4.207      31.353
2015    9        6     0  11    2.4163   470.5    4.206      31.308
2015    9        6     0  18    2.4141   470.3    4.205      31.263
2015    9        6     0  26    2.4119   470.1    4.205      31.219
2015    9        6     0  33    2.4098   469.8    4.204      31.174
2015    9        6     0  40    2.4076   469.6    4.204      31.130
2015    9        6     0  48    2.4055   469.4    4.203      31.085
2015    9        6     0  55    2.4034   469.2    4.202      31.041
2015    9        6     1   2    2.4013   468.9    4.202      30.997
2015    9        6     1  10    2.3992   468.7    4.201      30.953
2015    9        6     1  17    2.3971   468.5    4.200      30.909
2015    9        6     1  24    2.3951   468.3    4.200      30.866
2015    9        6     1  32    2.3930   468.0    4.199      30.822
2015    9        6     1  39    2.3910   467.8    4.199      30.778
2015    9        6     1  46    2.3890   467.6    4.198      30.734
2015    9        6     1  54    2.3871   467.3    4.198      30.691
2015    9        6     2   1    2.3851   467.1    4.197      30.648
2015    9        6     2   8    2.3832   466.9    4.197      30.605
2015    9        6     2  16    2.3813   466.6    4.196      30.562
2015    9        6     2  23    2.3794   466.4    4.196      30.519
2015    9        6     2  31    2.3776   466.1    4.196      30.477
2015    9        6     2  38    2.3758   465.9    4.196      30.435
2015    9        6     2  45    2.3740   465.7    4.196      30.394
2015    9        6     2  53    2.3723   465.4    4.196      30.353
2015    9        6     3   0    2.3706   465.2    4.196      30.312
2015    9        6     3   7    2.3689   464.9    4.196      30.272
2015    9        6     3  15    2.3673   464.7    4.196      30.232
2015    9        6     3  22    2.3657   464.4    4.197      30.193
2015    9        6     3  29    2.3642   464.2    4.197      30.153
2015    9        6     3  37    2.3626   464.0    4.198      30.114
2015    9        6     3  44    2.3612   463.7    4.199      30.076
2015    9        6     3  51    2.3598   463.5    4.200      30.038
2015    9        6     3  59    2.3583   463.2    4.201      29.999
2015    9        6     4   6    2.3569   463.0    4.202      29.961
2015    9        6     4  13    2.3556   462.7    4.203      29.923
2015    9        6     4  21    2.3542   462.5    4.204      29.886
2015    9        6     4  28    2.3529   462.2    4.205      29.848
2015    9        6     4  36    2.3515   462.0    4.206      29.810
2015    9        6     4  43    2.3502   461.7    4.207      29.772
2015    9        6     4  50    2.3489   461.5    4.208      29.735
2015    9        6     4  58    2.3476   461.2    4.209      29.697
2015    9        6     5   5    2.3463   461.0    4.210      29.659
2015    9        6     5  12    2.3450   460.7    4.211      29.621
2015    9        6     5  20    2.3438   460.5    4.212      29.583
2015    9        6     5  27    2.3425   460.2    4.213      29.544
2015    9        6     5  34    2.3412   460.0    4.214      29.506
2015    9        6     5  42    2.3400   459.7    4.215      29.467
2015    9        6     5  49    2.3388   459.4    4.216      29.428
2015    9        6     5  56    2.3375   459.2    4.217      29.389
2015    9        6     6   4    2.3363   458.9    4.218      29.350
2015    9        6     6  11    2.3351   458.7    4.218      29.310
2015    9        6     6  18    2.3339   458.4    4.219      29.271
2015    9        6     6  26    2.3327   458.2    4.220      29.231
2015    9        6     6  33    2.3315   457.9    4.221      29.191
2015    9        6     6  41    2.3304   457.6    4.221      29.150
2015    9        6     6  48    2.3292   457.4    4.222      29.110
2015    9        6     6  55    2.3281   457.1    4.222      29.069
2015    9        6     7   3    2.3269   456.9    4.223      29.028
2015    9        6     7  10    2.3258   456.6    4.224      28.986
2015    9        6     7  17    2.3246   456.4    4.224      28.945
2015    9        6     7  25    2.3235   456.1    4.225      28.904
2015    9        6     7  32    2.3224   455.8    4.225      28.862
2015    9        6     7  39    2.3213   455.6    4.226      28.820
2015    9        6     7  47    2.3202   455.3    4.226      28.779
2015    9        6     7  54    2.3191   455.1    4.226      28.736
2015    9        6     8   1    2.3181   454.8    4.227      28.694
2015    9        6     8   9    2.3170   454.5    4.227      28.652
2015    9        6     8  16    2.3160   454.3    4.228      28.610
2015    9        6     8  23    2.3150   454.0    4.228      28.567
2015    9        6     8  31    2.3139   453.8    4.229      28.525
2015    9        6     8  38    2.3130   453.5    4.229      28.482
2015    9        6     8  45    2.3120   453.2    4.230      28.439
2015    9        6     8  53    2.3110   453.0    4.230      28.396
2015    9        6     9   0    2.3101   452.7    4.231      28.354
2015    9        6     9   7    2.3092   452.4    4.231      28.311
2015    9        6     9  15    2.3083   452.2    4.232      28.269
2015    9        6     9  22    2.3074   451.9    4.233      28.226
2015    9        6     9  29    2.3066   451.6    4.234      28.184
2015    9        6     9  37    2.3058   451.3    4.235      28.142
2015    9        6     9  44    2.3050   451.1    4.236      28.101
2015    9        6     9  51    2.3043   450.8    4.237      28.060
2015    9        6     9  59    2.3036   450.5    4.238      28.020
2015    9        6    10   6    2.3029   450.2    4.240      27.980
2015    9        6    10  13    2.3023   450.0    4.242      27.941
2015    9        6    10  21    2.3017   449.7    4.244      27.902
2015    9        6    10  28    2.3012   449.4    4.246      27.864
2015    9        6    10  36    2.3007   449.1    4.248      27.827
2015    9        6    10  43    2.3003   448.8    4.250      27.791
2015    9        6    10  50    2.2999   448.6    4.253      27.755
2015    9        6    10  58    2.2996   448.3    4.256      27.720
2015    9        6    11   5    2.2994   448.0    4.259      27.686
2015    9        6    11  12    2.2992   447.7    4.262      27.653
2015    9        6    11  20    2.2990   447.4    4.265      27.621
2015    9        6    11  27    2.2990   447.1    4.269      27.589
2015    9        6    11  34    2.2989   446.8    4.273      27.558
2015    9        6    11  42    2.2990   446.6    4.277      27.528
2015    9        6    11  49    2.2990   446.3    4.281      27.499
2015    9        6    11  56    2.2992   446.0    4.285      27.470
2015    9        6    12   4    2.2994   445.7    4.289      27.442
2015    9        6    12  11    2.2996   445.4    4.294      27.415
2015    9        6    12  19    2.2999   445.1    4.299      27.388
2015    9        6    12  26    2.3003   444.8    4.303      27.361
2015    9        6    12  33    2.3007   444.5    4.308      27.335
2015    9        6    12  41    2.3011   444.2    4.313      27.309
2015    9        6    12  48    2.3017   443.9    4.319      27.284
2015    9        6    12  55    2.3023   443.6    4.324      27.259
2015    9        6    13   3    2.3029   443.3    4.330      27.234
2015    9        6    13  10    2.3036   443.0    4.335      27.210
2015    9        6    13  17    2.3044   442.7    4.341      27.186
2015    9        6    13  25    2.3052   442.4    4.347      27.163
2015    9        6    13  32    2.3062   442.1    4.354      27.141
2015    9        6    13  39    2.3072   441.8    4.360      27.119
2015    9        6    13  47    2.3082   441.5    4.367      27.097
2015    9        6    13  54    2.3094   441.2    4.374      27.076
2015    9        6    14   1    2.3106   440.9    4.381      27.055
2015    9        6    14   9    2.3119   440.6    4.388      27.035
2015    9        6    14  16    2.3133   440.3    4.396      27.016
2015    9        6    14  23    2.3148   440.0    4.404      26.997
2015    9        6    14  31    2.3163   439.7    4.412      26.979
2015    9        6    14  38    2.3180   439.4    4.420      26.961
2015    9        6    14  46    2.3197   439.1    4.429      26.944
2015    9        6    14  53    2.3215   438.8    4.438      26.928
2015    9        6    15   0    2.3234   438.5    4.447      26.912
2015    9        6    15   8    2.3254   438.3    4.456      26.897
2015    9        6    15  15    2.3275   438.0    4.465      26.882
2015    9        6    15  22    2.3296   437.7    4.475      26.868
2015    9        6    15  30    2.3318   437.4    4.485      26.854
2015    9        6    15  37    2.3340   437.1    4.495      26.840
2015    9        6    15  44    2.3364   436.8    4.505      26.827
2015    9        6    15  52    2.3388   436.6    4.515      26.814
2015    9        6    15  59    2.3413   436.3    4.525      26.802
2015    9        6    16   6    2.3438   436.0    4.535      26.790
2015    9        6    16  14    2.3464   435.7    4.546      26.778
2015    9        6    16  21    2.3489   435.5    4.556      26.767
2015    9        6    16  28    2.3516   435.2    4.566      26.756
2015    9        6    16  36    2.3543   434.9    4.577      26.746
2015    9        6    16  43    2.3571   434.7    4.587      26.736
2015    9        6    16  50    2.3598   434.4    4.597      26.727
2015    9        6    16  58    2.3627   434.1    4.608      26.718
2015    9        6    17   5    2.3655   433.9    4.618      26.709
2015    9        6    17  12    2.3685   433.6    4.629      26.700
2015    9        6    17  20    2.3714   433.4    4.639      26.692
2015    9        6    17  27    2.3744   433.1    4.649      26.684
2015    9        6    17  34    2.3775   432.8    4.660      26.677
2015    9        6    17  42    2.3806   432.6    4.670      26.671
2015    9        6    17  49    2.3837   432.3    4.681      26.664
2015    9        6    17  56    2.3869   432.1    4.691      26.658
2015    9        6    18   4    2.3902   431.8    4.701      26.653
2015    9        6    18  11    2.3935   431.6    4.712      26.648
2015    9        6    18  18    2.3969   431.3    4.722      26.643
2015    9        6    18  26    2.4003   431.1    4.733      26.640
2015    9        6    18  33    2.4038   430.9    4.744      26.636
2015    9        6    18  41    2.4074   430.6    4.755      26.633
2015    9        6    18  48    2.4109   430.4    4.765      26.631
2015    9        6    18  55    2.4146   430.1    4.776      26.629
2015    9        6    19   3    2.4183   429.9    4.787      26.629
2015    9        6    19  10    2.4221   429.7    4.799      26.629
2015    9        6    19  17    2.4259   429.5    4.810      26.629
2015    9        6    19  25    2.4299   429.2    4.821      26.631
2015    9        6    19  32    2.4338   429.0    4.832      26.633
2015    9        6    19  39    2.4378   428.8    4.844      26.636
2015    9        6    19  47    2.4418   428.6    4.855      26.639
2015    9        6    19  54    2.4460   428.3    4.867      26.643
2015    9        6    20   1    2.4501   428.1    4.879      26.648
2015    9        6    20   9    2.4544   427.9    4.890      26.654
2015    9        6    20  16    2.4586   427.7    4.902      26.660
2015    9        6    20  24    2.4630   427.5    4.914      26.666
2015    9        6    20  31    2.4674   427.3    4.927      26.674
2015    9        6    20  38    2.4719   427.1    4.939      26.681
2015    9        6    20  46    2.4765   426.8    4.952      26.689
2015    9        6    20  53    2.4811   426.6    4.964      26.698
2015    9        6    21   0    2.4858   426.4    4.977      26.708
2015    9        6    21   8    2.4906   426.2    4.991      26.718
2015    9        6    21  15    2.4954   426.0    5.004      26.729
2015    9        6    21  22    2.5004   425.8    5.018      26.741
2015    9        6    21  30    2.5054   425.6    5.031      26.753
2015    9        6    21  37    2.5105   425.4    5.045      26.766
2015    9        6    21  44    2.5156   425.3    5.060      26.779
2015    9        6    21  52    2.5209   425.1    5.074      26.794
2015    9        6    21  59    2.5262   424.9    5.089      26.809
2015    9        6    22   6    2.5317   424.7    5.104      26.824
2015    9        6    22  14    2.5372   424.5    5.119      26.841
2015    9        6    22  21    2.5428   424.4    5.135      26.858
2015    9        6    22  28    2.5484   424.2    5.151      26.875
2015    9        6    22  36    2.5541   424.0    5.167      26.893
2015    9        6    22  43    2.5599   423.8    5.183      26.912
2015    9        6    22  51    2.5658   423.7    5.200      26.931
2015    9        6    22  58    2.5718   423.5    5.217      26.950
2015    9        6    23   5    2.5778   423.4    5.234      26.970
2015    9        6    23  13    2.5838   423.2    5.251      26.991
2015    9        6    23  20    2.5900   423.1    5.269      27.012
2015    9        6    23  27    2.5961   422.9    5.286      27.034
2015    9        6    23  35    2.6024   422.8    5.304      27.056
2015    9        6    23  42    2.6086   422.6    5.322      27.079
2015    9        6    23  49    2.6150   422.5    5.341      27.103
2015    9        6    23  57    2.6214   422.3    5.360      27.127
2015    9        7     0   4    2.6279   422.2    5.378      27.153
2015    9        7     0  11    2.6343   422.1    5.397      27.179
2015    9        7     0  19    2.6409   421.9    5.416      27.208
2015    9        7     0  26    2.6475   421.8    5.436      27.237
2015    9        7     0  33    2.6541   421.7    5.455      27.267
2015    9        7     0  41    2.6608   421.5    5.474      27.298
2015    9        7     0  48    2.6676   421.4    5.494      27.331
2015    9        7     0  55    2.6743   421.3    5.513      27.364
2015    9        7     1   3    2.6811   421.2    5.532      27.401
2015    9        7     1  10    2.6879   421.1    5.551      27.438
2015    9        7     1  17    2.6947   421.0    5.569      27.477
2015    9        7     1  25    2.7014   420.9    5.587      27.518
2015    9        7     1  32    2.7081   420.8    5.605      27.559
2015    9        7     1  39    2.7147   420.7    5.622      27.599
2015    9        7     1  47    2.7214   420.6    5.639      27.639
2015    9        7     1  54    2.7280   420.5    5.656      27.678
2015    9        7     2   2    2.7346   420.4    5.672      27.717
2015    9        7     2   9    2.7411   420.3    5.688      27.755
2015    9        7     2  16    2.7476   420.2    5.703      27.793
2015    9        7     2  24    2.7540   420.2    5.718      27.830
2015    9        7     2  31    2.7604   420.1    5.733      27.867
2015    9        7     2  38    2.7667   420.0    5.748      27.902
2015    9        7     2  46    2.7731   419.9    5.762      27.938
2015    9        7     2  53    2.7793   419.9    5.775      27.973
2015    9        7     3   0    2.7856   419.8    5.789      28.007
2015    9        7     3   8    2.7917   419.7    5.802      28.041
2015    9        7     3  15    2.7979   419.6    5.815      28.074
2015    9        7     3  22    2.8039   419.6    5.827      28.107
2015    9        7     3  30    2.8100   419.5    5.839      28.140
2015    9        7     3  37    2.8160   419.5    5.851      28.171
2015    9        7     3  45    2.8220   419.4    5.863      28.203
2015    9        7     3  52    2.8279   419.3    5.875      28.234
2015    9        7     3  59    2.8338   419.3    5.886      28.265
2015    9        7     4   7    2.8397   419.2    5.897      28.294
2015    9        7     4  14    2.8455   419.2    5.908      28.324
2015    9        7     4  21    2.8513   419.1    5.919      28.354
2015    9        7     4  29    2.8571   419.0    5.930      28.383
2015    9        7     4  36    2.8628   419.0    5.940      28.411
2015    9        7     4  43    2.8685   418.9    5.951      28.439
2015    9        7     4  51    2.8742   418.9    5.961      28.468
2015    9        7     4  58    2.8799   418.8    5.972      28.495
2015    9        7     5   5    2.8855   418.8    5.982      28.523
2015    9        7     5  13    2.8911   418.7    5.992      28.550
2015    9        7     5  20    2.8967   418.7    6.002      28.577
2015    9        7     5  27    2.9023   418.6    6.012      28.604
2015    9        7     5  35    2.9078   418.6    6.022      28.630
2015    9        7     5  42    2.9134   418.5    6.033      28.657
2015    9        7     5  49    2.9189   418.5    6.043      28.683
2015    9        7     5  57    2.9245   418.5    6.053      28.709
2015    9        7     6   4    2.9300   418.4    6.063      28.735
2015    9        7     6  11    2.9355   418.4    6.074      28.762
2015    9        7     6  19    2.9410   418.3    6.084      28.788
2015    9        7     6  26    2.9465   418.3    6.095      28.814
2015    9        7     6  33    2.9520   418.2    6.106      28.840
2015    9        7     6  41    2.9575   418.2    6.117      28.866
2015    9        7     6  48    2.9630   418.2    6.128      28.893
2015    9        7     6  56    2.9685   418.1    6.139      28.920
2015    9        7     7   3    2.9741   418.1    6.151      28.947
2015    9        7     7  10    2.9796   418.1    6.163      28.975
2015    9        7     7  18    2.9852   418.0    6.175      29.003
2015    9        7     7  25    2.9908   418.0    6.188      29.032
2015    9        7     7  32    2.9964   418.0    6.201      29.062
2015    9        7     7  40    3.0021   418.0    6.214      29.094
2015    9        7     7  47    3.0077   417.9    6.227      29.126
2015    9        7     7  54    3.0134   417.9    6.241      29.160
2015    9        7     8   2    3.0191   417.9    6.255      29.194
2015    9        7     8   9    3.0248   417.9    6.269      29.230
2015    9        7     8  16    3.0305   417.9    6.282      29.268
2015    9        7     8  24    3.0362   417.9    6.296      29.307
2015    9        7     8  31    3.0418   417.9    6.310      29.349
2015    9        7     8  38    3.0474   417.9    6.324      29.392
2015    9        7     8  46    3.0530   417.9    6.338      29.436
2015    9        7     8  53    3.0585   417.9    6.351      29.481
2015    9        7     9   0    3.0640   417.9    6.364      29.526
2015    9        7     9   8    3.0694   417.9    6.378      29.570
2015    9        7     9  15    3.0747   417.9    6.391      29.614
2015    9        7     9  22    3.0800   417.9    6.404      29.659
2015    9        7     9  30    3.0852   417.9    6.416      29.704
2015    9        7     9  37    3.0903   417.9    6.429      29.750
2015    9        7     9  45    3.0954   417.9    6.441      29.795
2015    9        7     9  52    3.1004   417.9    6.453      29.841
2015    9        7     9  59    3.1052   418.0    6.465      29.885
2015    9        7    10   7    3.1100   418.0    6.477      29.930
2015    9        7    10  14    3.1147   418.0    6.488      29.974
2015    9        7    10  21    3.1193   418.0    6.499      30.019
2015    9        7    10  29    3.1239   418.0    6.510      30.064
2015    9        7    10  36    3.1283   418.1    6.520      30.109
2015    9        7    10  43    3.1326   418.1    6.530      30.155
2015    9        7    10  51    3.1369   418.1    6.539      30.201
2015    9        7    10  58    3.1410   418.2    6.548      30.246
2015    9        7    11   5    3.1451   418.2    6.557      30.291
2015    9        7    11  13    3.1491   418.2    6.565      30.334
2015    9        7    11  20    3.1530   418.2    6.573      30.377
2015    9        7    11  28    3.1569   418.3    6.580      30.418
2015    9        7    11  35    3.1606   418.3    6.587      30.459
2015    9        7    11  42    3.1644   418.3    6.594      30.499
2015    9        7    11  50    3.1680   418.4    6.600      30.538
2015    9        7    11  57    3.1716   418.4    6.606      30.576
2015    9        7    12   4    3.1752   418.4    6.612      30.613
2015    9        7    12  12    3.1787   418.5    6.617      30.649
2015    9        7    12  19    3.1821   418.5    6.622      30.684
2015    9        7    12  26    3.1855   418.5    6.627      30.718
2015    9        7    12  34    3.1888   418.5    6.632      30.752
2015    9        7    12  41    3.1922   418.6    6.637      30.785
2015    9        7    12  48    3.1954   418.6    6.641      30.817
2015    9        7    12  56    3.1987   418.6    6.645      30.848
2015    9        7    13   3    3.2019   418.7    6.649      30.879
2015    9        7    13  10    3.2050   418.7    6.653      30.908
2015    9        7    13  18    3.2082   418.7    6.657      30.938
2015    9        7    13  25    3.2113   418.8    6.660      30.966
2015    9        7    13  32    3.2143   418.8    6.664      30.994
2015    9        7    13  40    3.2173   418.8    6.667      31.022
2015    9        7    13  47    3.2203   418.9    6.670      31.049
2015    9        7    13  54    3.2233   418.9    6.673      31.075
2015    9        7    14   2    3.2263   418.9    6.676      31.101
2015    9        7    14   9    3.2292   419.0    6.679      31.127
2015    9        7    14  16    3.2321   419.0    6.682      31.152
2015    9        7    14  24    3.2349   419.0    6.685      31.177
2015    9        7    14  31    3.2378   419.1    6.688      31.202
2015    9        7    14  38    3.2405   419.1    6.691      31.227
2015    9        7    14  46    3.2433   419.1    6.694      31.251
2015    9        7    14  53    3.2461   419.2    6.697      31.275
2015    9        7    15   0    3.2489   419.2    6.700      31.299
2015    9        7    15   8    3.2516   419.3    6.703      31.323
2015    9        7    15  15    3.2543   419.3    6.706      31.347
2015    9        7    15  22    3.2569   419.3    6.710      31.371
2015    9        7    15  30    3.2596   419.4    6.713      31.395
2015    9        7    15  37    3.2623   419.4    6.716      31.419
2015    9        7    15  45    3.2649   419.5    6.720      31.442
2015    9        7    15  52    3.2675   419.5    6.724      31.466
2015    9        7    15  59    3.2702   419.5    6.728      31.491
2015    9        7    16   7    3.2727   419.6    6.732      31.515
2015    9        7    16  14    3.2753   419.6    6.736      31.539
2015    9        7    16  21    3.2779   419.7    6.741      31.563
2015    9        7    16  29    3.2805   419.7    6.745      31.588
2015    9        7    16  36    3.2830   419.8    6.750      31.613
2015    9        7    16  43    3.2855   419.8    6.755      31.639
2015    9        7    16  51    3.2880   419.9    6.760      31.665
2015    9        7    16  58    3.2904   419.9    6.766      31.692
2015    9        7    17   5    3.2928   420.0    6.771      31.720
2015    9        7    17  13    3.2952   420.0    6.777      31.747
2015    9        7    17  20    3.2975   420.1    6.782      31.775
2015    9        7    17  28    3.2998   420.1    6.788      31.803
2015    9        7    17  35    3.3020   420.2    6.794      31.832
2015    9        7    17  42    3.3041   420.3    6.799      31.862
2015    9        7    17  50    3.3063   420.3    6.805      31.892
2015    9        7    17  57    3.3083   420.4    6.810      31.924
2015    9        7    18   4    3.3103   420.4    6.816      31.956
2015    9        7    18  12    3.3123   420.5    6.821      31.989
2015    9        7    18  19    3.3142   420.6    6.826      32.021
2015    9        7    18  26    3.3161   420.6    6.830      32.053
2015    9        7    18  34    3.3179   420.7    6.835      32.084
2015    9        7    18  41    3.3197   420.8    6.840      32.115
2015    9        7    18  48    3.3215   420.8    6.844      32.146
2015    9        7    18  56    3.3233   420.9    6.849      32.176
2015    9        7    19   3    3.3250   420.9    6.853      32.207
2015    9        7    19  10    3.3267   421.0    6.857      32.237
2015    9        7    19  18    3.3284   421.1    6.861      32.267
2015    9        7    19  25    3.3300   421.1    6.865      32.297
2015    9        7    19  33    3.3317   421.2    6.869      32.328
2015    9        7    19  40    3.3333   421.3    6.872      32.358
2015    9        7    19  47    3.3349   421.3    6.876      32.387
2015    9        7    19  55    3.3365   421.4    6.880      32.417
2015    9        7    20   2    3.3381   421.5    6.883      32.445
2015    9        7    20   9    3.3397   421.5    6.886      32.474
2015    9        7    20  17    3.3412   421.6    6.890      32.502
2015    9        7    20  24    3.3428   421.7    6.893      32.530
2015    9        7    20  31    3.3443   421.7    6.896      32.559
2015    9        7    20  39    3.3457   421.8    6.898      32.588
2015    9        7    20  46    3.3472   421.9    6.901      32.617
2015    9        7    20  53    3.3485   421.9    6.903      32.646
2015    9        7    21   1    3.3499   422.0    6.905      32.675
2015    9        7    21   8    3.3512   422.1    6.906      32.703
2015    9        7    21  15    3.3525   422.1    6.908      32.730
2015    9        7    21  23    3.3537   422.2    6.909      32.756
2015    9        7    21  30    3.3548   422.3    6.910      32.781
2015    9        7    21  37    3.3559   422.4    6.910      32.806
2015    9        7    21  45    3.3570   422.4    6.911      32.829
2015    9        7    21  52    3.3581   422.5    6.911      32.852
2015    9        7    21  59    3.3591   422.6    6.911      32.874
2015    9        7    22   7    3.3600   422.6    6.911      32.895
2015    9        7    22  14    3.3609   422.7    6.910      32.916
2015    9        7    22  21    3.3618   422.8    6.909      32.936
2015    9        7    22  29    3.3626   422.9    6.909      32.955
2015    9        7    22  36    3.3634   422.9    6.908      32.973
2015    9        7    22  43    3.3642   423.0    6.907      32.991
2015    9        7    22  51    3.3649   423.1    6.906      33.008
2015    9        7    22  58    3.3656   423.1    6.904      33.024
2015    9        7    23   5    3.3663   423.2    6.903      33.040
2015    9        7    23  13    3.3669   423.3    6.901      33.055
2015    9        7    23  20    3.3675   423.3    6.900      33.070
2015    9        7    23  28    3.3680   423.4    6.898      33.084
2015    9        7    23  35    3.3686   423.5    6.897      33.098
2015    9        7    23  42    3.3691   423.6    6.895      33.111
2015    9        7    23  50    3.3695   423.6    6.893      33.124
2015    9        7    23  57    3.3700   423.7    6.891      33.137
2015    9        8     0   4    3.3704   423.8    6.889      33.149
2015    9        8     0  12    3.3708   423.8    6.888      33.161
2015    9        8     0  19    3.3711   423.9    6.886      33.172
2015    9        8     0  26    3.3714   424.0    6.884      33.184
2015    9        8     0  34    3.3717   424.0    6.882      33.195
2015    9        8     0  41    3.3720   424.1    6.880      33.206
2015    9        8     0  48    3.3723   424.2    6.879      33.216
2015    9        8     0  56    3.3725   424.3    6.877      33.227
2015    9        8     1   3    3.3727   424.3    6.875      33.237
2015    9        8     1  11    3.3729   424.4    6.874      33.247
2015    9        8     1  18    3.3731   424.5    6.872      33.257
2015    9        8     1  25    3.3733   424.5    6.871      33.267
2015    9        8     1  33    3.3734   424.6    6.870      33.277
2015    9        8     1  40    3.3736   424.7    6.868      33.287
2015    9        8     1  47    3.3737   424.7    6.867      33.297
2015    9        8     1  55    3.3738   424.8    6.867      33.307
2015    9        8     2   2    3.3739   424.9    6.866      33.318
2015    9        8     2   9    3.3741   424.9    6.866      33.328
2015    9        8     2  17    3.3742   425.0    6.865      33.339
2015    9        8     2  24    3.3744   425.1    6.865      33.350
2015    9        8     2  31    3.3745   425.1    6.865      33.362
2015    9        8     2  39    3.3746   425.2    6.866      33.375
2015    9        8     2  46    3.3748   425.3    6.866      33.388
2015    9        8     2  53    3.3750   425.4    6.867      33.403
2015    9        8     3   1    3.3751   425.4    6.868      33.418
2015    9        8     3   8    3.3753   425.5    6.869      33.433
2015    9        8     3  15    3.3755   425.6    6.870      33.449
2015    9        8     3  23    3.3756   425.6    6.872      33.466
2015    9        8     3  30    3.3758   425.7    6.873      33.483
2015    9        8     3  37    3.3760   425.8    6.875      33.501
2015    9        8     3  45    3.3761   425.9    6.877      33.521
2015    9        8     3  52    3.3762   425.9    6.878      33.542
2015    9        8     4   0    3.3762   426.0    6.880      33.564
2015    9        8     4   7    3.3761   426.1    6.881      33.587
2015    9        8     4  14    3.3760   426.2    6.882      33.610
2015    9        8     4  21    3.3758   426.3    6.882      33.633
2015    9        8     4  29    3.3756   426.3    6.882      33.655
2015    9        8     4  36    3.3753   426.4    6.882      33.675
2015    9        8     4  44    3.3748   426.5    6.882      33.695
2015    9        8     4  51    3.3744   426.6    6.881      33.714
2015    9        8     4  58    3.3738   426.7    6.880      33.732
2015    9        8     5   6    3.3732   426.7    6.878      33.749
2015    9        8     5  13    3.3725   426.8    6.876      33.765
2015    9        8     5  20    3.3718   426.9    6.874      33.780
2015    9        8     5  28    3.3710   427.0    6.872      33.794
2015    9        8     5  35    3.3701   427.1    6.869      33.806
2015    9        8     5  42    3.3692   427.1    6.866      33.818
2015    9        8     5  50    3.3682   427.2    6.863      33.829
2015    9        8     5  57    3.3671   427.3    6.860      33.839
2015    9        8     6   4    3.3660   427.4    6.856      33.848
2015    9        8     6  12    3.3649   427.4    6.853      33.856
2015    9        8     6  19    3.3637   427.5    6.849      33.864
2015    9        8     6  26    3.3624   427.6    6.844      33.870
2015    9        8     6  34    3.3611   427.7    6.840      33.876
2015    9        8     6  41    3.3597   427.7    6.836      33.881
2015    9        8     6  48    3.3583   427.8    6.831      33.886
2015    9        8     6  56    3.3568   427.9    6.826      33.889
2015    9        8     7   3    3.3554   428.0    6.822      33.892
2015    9        8     7  11    3.3538   428.0    6.817      33.895
2015    9        8     7  18    3.3522   428.1    6.812      33.896
2015    9        8     7  25    3.3506   428.2    6.806      33.897
2015    9        8     7  33    3.3489   428.2    6.801      33.898
2015    9        8     7  40    3.3472   428.3    6.796      33.897
2015    9        8     7  47    3.3455   428.4    6.790      33.897
2015    9        8     7  55    3.3437   428.4    6.785      33.895
2015    9        8     8   2    3.3419   428.5    6.779      33.894
2015    9        8     8   9    3.3400   428.6    6.774      33.891
2015    9        8     8  17    3.3381   428.6    6.768      33.888
2015    9        8     8  24    3.3362   428.7    6.762      33.885
2015    9        8     8  31    3.3343   428.8    6.756      33.882
2015    9        8     8  39    3.3323   428.8    6.751      33.877
2015    9        8     8  46    3.3303   428.9    6.745      33.873
2015    9        8     8  53    3.3283   428.9    6.739      33.868
2015    9        8     9   1    3.3262   429.0    6.733      33.863
2015    9        8     9   8    3.3241   429.1    6.727      33.857
2015    9        8     9  16    3.3220   429.1    6.721      33.851
2015    9        8     9  23    3.3199   429.2    6.715      33.845
2015    9        8     9  30    3.3178   429.2    6.710      33.839
2015    9        8     9  38    3.3156   429.3    6.704      33.833
2015    9        8     9  45    3.3134   429.3    6.698      33.826
2015    9        8     9  52    3.3112   429.4    6.693      33.819
2015    9        8    10   0    3.3090   429.4    6.687      33.813
2015    9        8    10   7    3.3068   429.5    6.682      33.806
2015    9        8    10  14    3.3046   429.5    6.676      33.800
2015    9        8    10  22    3.3023   429.6    6.671      33.794
2015    9        8    10  29    3.3001   429.6    6.666      33.788
2015    9        8    10  36    3.2978   429.7    6.661      33.783
2015    9        8    10  44    3.2955   429.7    6.656      33.778
2015    9        8    10  51    3.2932   429.8    6.651      33.773
2015    9        8    10  58    3.2908   429.8    6.646      33.768
2015    9        8    11   6    3.2884   429.9    6.641      33.764
2015    9        8    11  13    3.2859   429.9    6.637      33.760
2015    9        8    11  20    3.2834   430.0    6.632      33.757
2015    9        8    11  28    3.2809   430.1    6.626      33.753
2015    9        8    11  35    3.2782   430.1    6.621      33.750
2015    9        8    11  42    3.2756   430.2    6.616      33.746
2015    9        8    11  50    3.2728   430.2    6.610      33.741
2015    9        8    11  57    3.2701   430.3    6.604      33.735
2015    9        8    12   4    3.2672   430.3    6.598      33.729
2015    9        8    12  12    3.2644   430.4    6.592      33.722
2015    9        8    12  19    3.2614   430.4    6.586      33.715
2015    9        8    12  26    3.2585   430.4    6.579      33.707
2015    9        8    12  34    3.2554   430.5    6.573      33.698
2015    9        8    12  41    3.2524   430.5    6.566      33.688
2015    9        8    12  48    3.2493   430.6    6.559      33.678
2015    9        8    12  56    3.2462   430.6    6.553      33.667
2015    9        8    13   3    3.2430   430.7    6.546      33.656
2015    9        8    13  10    3.2398   430.7    6.539      33.644
2015    9        8    13  18    3.2365   430.7    6.531      33.631
2015    9        8    13  25    3.2333   430.8    6.524      33.618
2015    9        8    13  33    3.2300   430.8    6.517      33.604
2015    9        8    13  40    3.2267   430.9    6.510      33.590
2015    9        8    13  47    3.2234   430.9    6.503      33.576
2015    9        8    13  55    3.2201   430.9    6.496      33.560
2015    9        8    14   2    3.2167   430.9    6.488      33.545
2015    9        8    14   9    3.2134   431.0    6.481      33.529
2015    9        8    14  17    3.2100   431.0    6.474      33.513
2015    9        8    14  24    3.2066   431.0    6.467      33.496
2015    9        8    14  31    3.2032   431.1    6.460      33.479
2015    9        8    14  39    3.1998   431.1    6.453      33.462
2015    9        8    14  46    3.1964   431.1    6.446      33.444
2015    9        8    14  53    3.1930   431.1    6.439      33.426
2015    9        8    15   1    3.1896   431.1    6.432      33.407
2015    9        8    15   8    3.1862   431.2    6.425      33.389
2015    9        8    15  16    3.1828   431.2    6.419      33.370
2015    9        8    15  23    3.1794   431.2    6.412      33.350
2015    9        8    15  30    3.1759   431.2    6.405      33.331
2015    9        8    15  38    3.1725   431.2    6.398      33.311
2015    9        8    15  45    3.1691   431.2    6.392      33.291
2015    9        8    15  52    3.1656   431.3    6.385      33.270
2015    9        8    16   0    3.1622   431.3    6.378      33.249
2015    9        8    16   7    3.1588   431.3    6.372      33.229
2015    9        8    16  14    3.1554   431.3    6.365      33.207
2015    9        8    16  22    3.1520   431.3    6.359      33.186
2015    9        8    16  29    3.1486   431.3    6.352      33.164
2015    9        8    16  36    3.1452   431.3    6.345      33.142
2015    9        8    16  44    3.1418   431.3    6.339      33.120
2015    9        8    16  51    3.1385   431.3    6.332      33.098
2015    9        8    16  58    3.1351   431.3    6.326      33.076
2015    9        8    17   6    3.1318   431.4    6.319      33.053
2015    9        8    17  13    3.1284   431.4    6.312      33.030
2015    9        8    17  20    3.1252   431.4    6.306      33.008
2015    9        8    17  28    3.1219   431.4    6.299      32.985
2015    9        8    17  35    3.1187   431.4    6.293      32.962
2015    9        8    17  43    3.1155   431.4    6.287      32.939
2015    9        8    17  50    3.1123   431.4    6.280      32.917
2015    9        8    17  57    3.1092   431.4    6.274      32.894
2015    9        8    18   4    3.1061   431.4    6.268      32.871
2015    9        8    18  12    3.1031   431.4    6.262      32.849
2015    9        8    18  19    3.1001   431.4    6.256      32.827
2015    9        8    18  27    3.0972   431.4    6.250      32.805
2015    9        8    18  34    3.0944   431.4    6.245      32.783
2015    9        8    18  41    3.0916   431.4    6.239      32.762
2015    9        8    18  49    3.0889   431.4    6.234      32.741
2015    9        8    18  56    3.0862   431.4    6.229      32.721
2015    9        8    19   3    3.0837   431.3    6.224      32.702
2015    9        8    19  11    3.0812   431.3    6.220      32.683
2015    9        8    19  18    3.0789   431.3    6.215      32.665
2015    9        8    19  25    3.0766   431.3    6.212      32.647
2015    9        8    19  33    3.0745   431.3    6.208      32.631
2015    9        8    19  40    3.0725   431.3    6.205      32.615
2015    9        8    19  47    3.0706   431.3    6.203      32.601
2015    9        8    19  55    3.0688   431.3    6.200      32.588
2015    9        8    20   2    3.0672   431.3    6.199      32.576
2015    9        8    20   9    3.0658   431.3    6.198      32.566
2015    9        8    20  17    3.0645   431.3    6.197      32.557
2015    9        8    20  24    3.0634   431.3    6.197      32.550
2015    9        8    20  31    3.0625   431.3    6.198      32.544
2015    9        8    20  39    3.0617   431.4    6.200      32.540
2015    9        8    20  46    3.0612   431.4    6.202      32.538
2015    9        8    20  53    3.0609   431.4    6.205      32.537
2015    9        8    21   1    3.0609   431.4    6.208      32.539
2015    9        8    21   8    3.0610   431.4    6.213      32.542
2015    9        8    21  15    3.0615   431.4    6.218      32.548
2015    9        8    21  23    3.0621   431.4    6.224      32.556
2015    9        8    21  30    3.0631   431.5    6.231      32.566
2015    9        8    21  38    3.0643   431.5    6.239      32.578
2015    9        8    21  45    3.0659   431.5    6.248      32.592
2015    9        8    21  52    3.0677   431.6    6.257      32.609
2015    9        8    22   0    3.0699   431.6    6.268      32.628
2015    9        8    22   7    3.0724   431.6    6.280      32.649
2015    9        8    22  14    3.0752   431.7    6.292      32.672
2015    9        8    22  22    3.0783   431.7    6.306      32.698
2015    9        8    22  29    3.0819   431.8    6.320      32.725
2015    9        8    22  36    3.0858   431.8    6.336      32.755
2015    9        8    22  44    3.0901   431.9    6.352      32.786
2015    9        8    22  51    3.0947   431.9    6.370      32.819
2015    9        8    22  58    3.0998   432.0    6.388      32.854
2015    9        8    23   6    3.1052   432.1    6.408      32.891
2015    9        8    23  13    3.1111   432.1    6.428      32.928
2015    9        8    23  20    3.1174   432.2    6.450      32.968
2015    9        8    23  28    3.1242   432.3    6.472      33.007
2015    9        8    23  35    3.1315   432.4    6.496      33.048
2015    9        8    23  43    3.1392   432.4    6.521      33.090
2015    9        8    23  50    3.1473   432.5    6.547      33.131
2015    9        8    23  57    3.1557   432.6    6.573      33.173
2015    9        9     0   5    3.1644   432.7    6.602      33.215
2015    9        9     0  12    3.1734   432.8    6.631      33.255
2015    9        9     0  19    3.1827   432.9    6.661      33.295
2015    9        9     0  27    3.1921   433.0    6.693      33.334
2015    9        9     0  34    3.2018   433.1    6.727      33.371
2015    9        9     0  41    3.2115   433.3    6.761      33.405
2015    9        9     0  49    3.2215   433.4    6.797      33.437
2015    9        9     0  56    3.2316   433.5    6.835      33.464
2015    9        9     1   3    3.2417   433.6    6.874      33.488
2015    9        9     1  11    3.2517   433.7    6.915      33.510
2015    9        9     1  18    3.2618   433.9    6.957      33.529
2015    9        9     1  25    3.2715   434.0    7.000      33.546
2015    9        9     1  33    3.2809   434.1    7.044      33.563
2015    9        9     1  40    3.2900   434.2    7.088      33.581
2015    9        9     1  47    3.2987   434.3    7.134      33.597
2015    9        9     1  55    3.3069   434.5    7.180      33.613
2015    9        9     2   2    3.3147   434.6    7.226      33.633
2015    9        9     2   9    3.3218   434.7    7.272      33.656
2015    9        9     2  17    3.3284   434.9    7.317      33.685
2015    9        9     2  24    3.3342   435.0    7.360      33.723
2015    9        9     2  31    3.3396   435.1    7.402      33.770
2015    9        9     2  39    3.3443   435.2    7.442      33.825
2015    9        9     2  46    3.3484   435.4    7.480      33.889
2015    9        9     2  53    3.3518   435.5    7.516      33.961
2015    9        9     3   1    3.3547   435.6    7.550      34.042
2015    9        9     3   8    3.3569   435.7    7.582      34.131
2015    9        9     3  15    3.3587   435.8    7.611      34.230
2015    9        9     3  23    3.3598   435.9    7.637      34.338
2015    9        9     3  30    3.3605   436.0    7.661      34.456
2015    9        9     3  37    3.3607   436.1    7.682      34.582
2015    9        9     3  45    3.3604   436.2    7.701      34.717
2015    9        9     3  52    3.3596   436.2    7.717      34.859
2015    9        9     4   0    3.3585   436.3    7.731      35.010
2015    9        9     4   7    3.3569   436.4    7.742      35.169
2015    9        9     4  14    3.3549   436.4    7.750      35.335
2015    9        9     4  22    3.3525   436.5    7.757      35.508
2015    9        9     4  29    3.3498   436.5    7.761      35.688
2015    9        9     4  36    3.3468   436.6    7.763      35.872
2015    9        9     4  44    3.3434   436.6    7.763      36.064
2015    9        9     4  51    3.3397   436.7    7.762      36.259
2015    9        9     4  58    3.3358   436.7    7.758      36.460
2015    9        9     5   6    3.3316   436.7    7.753      36.664
2015    9        9     5  13    3.3272   436.7    7.747      36.873
2015    9        9     5  20    3.3225   436.8    7.739      37.084
2015    9        9     5  28    3.3176   436.8    7.729      37.298
2015    9        9     5  35    3.3125   436.8    7.719      37.514
2015    9        9     5  43    3.3071   436.8    7.707      37.732
2015    9        9     5  50    3.3016   436.8    7.695      37.951
2015    9        9     5  57    3.2958   436.8    7.681      38.172
2015    9        9     6   5    3.2899   436.8    7.667      38.392
2015    9        9     6  12    3.2837   436.8    7.651      38.614
2015    9        9     6  19    3.2774   436.8    7.635      38.833
2015    9        9     6  27    3.2708   436.8    7.618      39.053
2015    9        9     6  34    3.2641   436.8    7.600      39.271
2015    9        9     6  41    3.2572   436.8    7.581      39.489
2015    9        9     6  49    3.2501   436.8    7.562      39.704
2015    9        9     6  56    3.2428   436.8    7.542      39.919
2015    9        9     7   3    3.2353   436.8    7.522      40.131
2015    9        9     7  11    3.2276   436.8    7.501      40.342
2015    9        9     7  18    3.2197   436.8    7.479      40.550
2015    9        9     7  25    3.2117   436.7    7.457      40.758
2015    9        9     7  33    3.2034   436.7    7.434      40.964
2015    9        9     7  40    3.1949   436.7    7.410      41.170
2015    9        9     7  47    3.1863   436.7    7.386      41.374
2015    9        9     7  55    3.1775   436.7    7.361      41.580
2015    9        9     8   2    3.1684   436.7    7.335      41.784
2015    9        9     8   9    3.1592   436.6    7.308      41.990
2015    9        9     8  17    3.1499   436.6    7.281      42.196
2015    9        9     8  24    3.1403   436.6    7.252      42.404
2015    9        9     8  31    3.1306   436.6    7.224      42.612
2015    9        9     8  39    3.1207   436.5    7.194      42.823
2015    9        9     8  46    3.1107   436.5    7.164      43.035
2015    9        9     8  53    3.1005   436.5    7.132      43.251
2015    9        9     9   1    3.0902   436.4    7.100      43.469
2015    9        9     9   8    3.0798   436.4    7.067      43.692
2015    9        9     9  15    3.0692   436.4    7.034      43.917
2015    9        9     9  23    3.0585   436.3    6.999      44.148
2015    9        9     9  30    3.0478   436.3    6.964      44.382
2015    9        9     9  38    3.0369   436.2    6.927      44.623
2015    9        9     9  45    3.0259   436.2    6.891      44.866
2015    9        9     9  52    3.0148   436.1    6.853      45.117
2015    9        9    10   0    3.0037   436.1    6.814      45.372
2015    9        9    10   7    2.9925   436.0    6.775      45.634
2015    9        9    10  14    2.9813   436.0    6.735      45.899
2015    9        9    10  22    2.9699   435.9    6.694      46.170
2015    9        9    10  29    2.9586   435.9    6.653      46.444
2015    9        9    10  36    2.9472   435.8    6.612      46.722
2015    9        9    10  44    2.9358   435.8    6.571      47.001
2015    9        9    10  51    2.9243   435.7    6.529      47.283
2015    9        9    10  58    2.9130   435.7    6.488      47.566
2015    9        9    11   6    2.9016   435.6    6.446      47.852
2015    9        9    11  13    2.8903   435.5    6.404      48.137
2015    9        9    11  20    2.8791   435.5    6.363      48.424
2015    9        9    11  28    2.8680   435.4    6.322      48.708
2015    9        9    11  35    2.8569   435.3    6.281      48.994
2015    9        9    11  42    2.8459   435.3    6.240      49.277
2015    9        9    11  50    2.8350   435.2    6.200      49.560
2015    9        9    11  57    2.8242   435.1    6.159      49.839
2015    9        9    12   4    2.8135   435.1    6.119      50.117
2015    9        9    12  12    2.8029   435.0    6.080      50.391
2015    9        9    12  19    2.7923   434.9    6.040      50.663
2015    9        9    12  26    2.7820   434.9    6.001      50.929
2015    9        9    12  34    2.7716   434.8    5.963      51.192
2015    9        9    12  41    2.7614   434.7    5.925      51.448
2015    9        9    12  49    2.7513   434.6    5.887      51.699
2015    9        9    12  56    2.7413   434.6    5.850      51.942
2015    9        9    13   3    2.7315   434.5    5.813      52.180
2015    9        9    13  11    2.7218   434.4    5.777      52.409
2015    9        9    13  18    2.7121   434.3    5.741      52.632
2015    9        9    13  25    2.7027   434.2    5.706      52.846
2015    9        9    13  33    2.6934   434.2    5.671      53.053
2015    9        9    13  40    2.6842   434.1    5.637      53.250
2015    9        9    13  47    2.6752   434.0    5.603      53.439
2015    9        9    13  55    2.6663   433.9    5.570      53.619
2015    9        9    14   2    2.6577   433.8    5.538      53.790
2015    9        9    14   9    2.6492   433.7    5.506      53.951
2015    9        9    14  17    2.6408   433.6    5.474      54.103
2015    9        9    14  24    2.6327   433.5    5.443      54.246
2015    9        9    14  31    2.6247   433.4    5.413      54.380
2015    9        9    14  39    2.6169   433.3    5.383      54.503
2015    9        9    14  46    2.6093   433.2    5.353      54.618
2015    9        9    14  54    2.6019   433.1    5.325      54.724
2015    9        9    15   1    2.5946   433.0    5.296      54.821
2015    9        9    15   8    2.5876   432.9    5.268      54.908
2015    9        9    15  16    2.5807   432.8    5.241      54.988
2015    9        9    15  23    2.5741   432.7    5.214      55.060
2015    9        9    15  30    2.5676   432.6    5.188      55.124
2015    9        9    15  38    2.5613   432.4    5.162      55.181
2015    9        9    15  45    2.5552   432.3    5.137      55.231
2015    9        9    15  52    2.5493   432.2    5.112      55.274
2015    9        9    16   0    2.5436   432.1    5.087      55.312
2015    9        9    16   7    2.5381   432.0    5.063      55.343
2015    9        9    16  14    2.5327   431.8    5.040      55.368
2015    9        9    16  22    2.5276   431.7    5.016      55.388
2015    9        9    16  29    2.5227   431.6    4.994      55.402
2015    9        9    16  36    2.5179   431.4    4.971      55.410
2015    9        9    16  44    2.5134   431.3    4.949      55.412
2015    9        9    16  51    2.5090   431.2    4.928      55.409
2015    9        9    16  58    2.5049   431.0    4.907      55.400
2015    9        9    17   6    2.5009   430.9    4.886      55.385
2015    9        9    17  13    2.4971   430.7    4.865      55.365
2015    9        9    17  20    2.4935   430.6    4.845      55.338
2015    9        9    17  28    2.4900   430.4    4.825      55.306
2015    9        9    17  35    2.4868   430.3    4.806      55.268
2015    9        9    17  42    2.4837   430.1    4.787      55.224
2015    9        9    17  50    2.4808   430.0    4.768      55.175
2015    9        9    17  57    2.4781   429.8    4.750      55.120
2015    9        9    18   4    2.4755   429.7    4.732      55.060
2015    9        9    18  12    2.4731   429.5    4.714      54.994
2015    9        9    18  19    2.4709   429.4    4.697      54.923
2015    9        9    18  26    2.4688   429.2    4.680      54.846
2015    9        9    18  34    2.4669   429.0    4.663      54.765
2015    9        9    18  41    2.4651   428.9    4.646      54.678
2015    9        9    18  48    2.4635   428.7    4.630      54.586
2015    9        9    18  56    2.4620   428.5    4.614      54.489
2015    9        9    19   3    2.4606   428.3    4.599      54.389
2015    9        9    19  11    2.4594   428.2    4.583      54.285
2015    9        9    19  18    2.4583   428.0    4.568      54.178
2015    9        9    19  25    2.4574   427.8    4.553      54.068
2015    9        9    19  33    2.4566   427.6    4.539      53.956
2015    9        9    19  40    2.4558   427.5    4.524      53.840
2015    9        9    19  47    2.4552   427.3    4.510      53.723
2015    9        9    19  55    2.4548   427.1    4.496      53.604
2015    9        9    20   2    2.4544   426.9    4.482      53.483
2015    9        9    20   9    2.4542   426.7    4.469      53.360
2015    9        9    20  17    2.4540   426.5    4.455      53.236
2015    9        9    20  24    2.4540   426.4    4.442      53.109
2015    9        9    20  31    2.4540   426.2    4.429      52.981
2015    9        9    20  39    2.4542   426.0    4.416      52.851
2015    9        9    20  46    2.4544   425.8    4.404      52.720
2015    9        9    20  54    2.4547   425.6    4.391      52.586
2015    9        9    21   1    2.4551   425.4    4.379      52.452
2015    9        9    21   8    2.4556   425.2    4.367      52.315
2015    9        9    21  16    2.4562   425.1    4.355      52.179
2015    9        9    21  23    2.4569   424.9    4.342      52.041
2015    9        9    21  30    2.4576   424.7    4.331      51.904
2015    9        9    21  38    2.4585   424.5    4.319      51.765
2015    9        9    21  45    2.4594   424.3    4.307      51.627
2015    9        9    21  52    2.4605   424.2    4.295      51.486
2015    9        9    22   0    2.4617   424.0    4.284      51.346
2015    9        9    22   7    2.4630   423.8    4.272      51.205
2015    9        9    22  14    2.4644   423.6    4.261      51.063
2015    9        9    22  22    2.4659   423.4    4.249      50.920
2015    9        9    22  29    2.4676   423.3    4.238      50.778
2015    9        9    22  36    2.4694   423.1    4.227      50.635
2015    9        9    22  44    2.4713   422.9    4.216      50.494
2015    9        9    22  51    2.4733   422.7    4.205      50.352
2015    9        9    22  58    2.4755   422.5    4.194      50.211
2015    9        9    23   6    2.4778   422.4    4.183      50.070
2015    9        9    23  13    2.4802   422.2    4.172      49.930
2015    9        9    23  20    2.4828   422.0    4.162      49.790
2015    9        9    23  28    2.4855   421.8    4.151      49.651
2015    9        9    23  35    2.4883   421.7    4.141      49.512
2015    9        9    23  42    2.4912   421.5    4.131      49.375
2015    9        9    23  50    2.4942   421.3    4.121      49.239
2015    9        9    23  57    2.4973   421.1    4.110      49.104
2015    9       10     0   4    2.5006   420.9    4.101      48.970
2015    9       10     0  12    2.5039   420.7    4.091      48.839
2015    9       10     0  19    2.5074   420.5    4.081      48.708
2015    9       10     0  26    2.5109   420.4    4.072      48.580
2015    9       10     0  34    2.5146   420.1    4.062      48.452
2015    9       10     0  41    2.5184   419.9    4.053      48.326
2015    9       10     0  48    2.5223   419.7    4.044      48.201
2015    9       10     0  56    2.5263   419.5    4.036      48.078
2015    9       10     1   3    2.5305   419.3    4.027      47.955
2015    9       10     1  10    2.5348   419.0    4.019      47.835
2015    9       10     1  18    2.5392   418.8    4.012      47.715
2015    9       10     1  25    2.5438   418.5    4.005      47.599
2015    9       10     1  33    2.5485   418.2    3.998      47.482
2015    9       10     1  40    2.5533   417.9    3.993      47.368
2015    9       10     1  47    2.5584   417.7    3.988      47.255
2015    9       10     1  55    2.5636   417.4    3.983      47.145
2015    9       10     2   2    2.5690   417.1    3.980      47.037
2015    9       10     2   9    2.5746   416.8    3.978      46.934
2015    9       10     2  17    2.5804   416.5    3.976      46.833
2015    9       10     2  24    2.5863   416.2    3.976      46.736
2015    9       10     2  31    2.5925   415.9    3.977      46.644
2015    9       10     2  39    2.5989   415.6    3.979      46.557
2015    9       10     2  46    2.6055   415.3    3.982      46.476
2015    9       10     2  53    2.6122   415.0    3.986      46.401
2015    9       10     3   1    2.6192   414.7    3.991      46.330
2015    9       10     3   8    2.6263   414.4    3.998      46.266
2015    9       10     3  15    2.6337   414.2    4.005      46.206
2015    9       10     3  23    2.6412   413.9    4.013      46.151
2015    9       10     3  30    2.6488   413.6    4.022      46.101
2015    9       10     3  38    2.6566   413.4    4.032      46.054
2015    9       10     3  45    2.6645   413.1    4.043      46.011
2015    9       10     3  52    2.6724   412.9    4.054      45.972
2015    9       10     4   0    2.6805   412.6    4.066      45.936
2015    9       10     4   7    2.6886   412.4    4.079      45.905
2015    9       10     4  14    2.6967   412.2    4.092      45.876
2015    9       10     4  22    2.7048   411.9    4.106      45.850
2015    9       10     4  29    2.7129   411.7    4.120      45.825
2015    9       10     4  36    2.7210   411.5    4.135      45.804
2015    9       10     4  44    2.7291   411.2    4.150      45.784
2015    9       10     4  51    2.7371   411.0    4.166      45.765
2015    9       10     4  58    2.7451   410.8    4.182      45.746
2015    9       10     5   6    2.7531   410.6    4.198      45.727
2015    9       10     5  13    2.7610   410.4    4.214      45.709
2015    9       10     5  20    2.7689   410.2    4.231      45.689
2015    9       10     5  28    2.7767   409.9    4.247      45.669
2015    9       10     5  35    2.7845   409.7    4.264      45.647
2015    9       10     5  42    2.7923   409.5    4.282      45.624
2015    9       10     5  50    2.8000   409.3    4.299      45.601
2015    9       10     5  57    2.8077   409.1    4.317      45.576
2015    9       10     6   4    2.8153   408.9    4.335      45.551
2015    9       10     6  12    2.8229   408.7    4.353      45.523
2015    9       10     6  19    2.8305   408.5    4.372      45.495
2015    9       10     6  27    2.8382   408.3    4.391      45.464
2015    9       10     6  34    2.8457   408.1    4.410      45.432
2015    9       10     6  41    2.8533   407.9    4.430      45.397
2015    9       10     6  49    2.8609   407.7    4.450      45.361
2015    9       10     6  56    2.8685   407.5    4.471      45.322
2015    9       10     7   3    2.8760   407.3    4.492      45.281
2015    9       10     7  11    2.8836   407.2    4.514      45.237
2015    9       10     7  18    2.8912   407.0    4.537      45.192
2015    9       10     7  25    2.8988   406.8    4.561      45.144
2015    9       10     7  33    2.9064   406.6    4.585      45.093
2015    9       10     7  40    2.9140   406.4    4.610      45.040
2015    9       10     7  47    2.9216   406.3    4.636      44.984
2015    9       10     7  55    2.9292   406.1    4.663      44.925
2015    9       10     8   2    2.9368   405.9    4.691      44.864
2015    9       10     8   9    2.9445   405.8    4.720      44.800
2015    9       10     8  17    2.9521   405.6    4.750      44.733
2015    9       10     8  24    2.9598   405.4    4.782      44.663
2015    9       10     8  31    2.9674   405.3    4.814      44.591
2015    9       10     8  39    2.9751   405.1    4.848      44.515
2015    9       10     8  46    2.9828   405.0    4.883      44.437
2015    9       10     8  53    2.9905   404.8    4.919      44.355
2015    9       10     9   1    2.9982   404.7    4.957      44.272
2015    9       10     9   8    3.0060   404.5    4.996      44.184
2015    9       10     9  15    3.0137   404.4    5.036      44.095
2015    9       10     9  23    3.0216   404.3    5.078      44.002
2015    9       10     9  30    3.0294   404.1    5.122      43.908
2015    9       10     9  37    3.0374   404.0    5.167      43.810
2015    9       10     9  45    3.0454   403.8    5.214      43.710
2015    9       10     9  52    3.0535   403.7    5.263      43.608
2015    9       10     9  59    3.0617   403.6    5.313      43.505
2015    9       10    10   7    3.0701   403.5    5.366      43.400
2015    9       10    10  14    3.0785   403.3    5.421      43.294
2015    9       10    10  22    3.0872   403.2    5.477      43.187
2015    9       10    10  29    3.0959   403.1    5.536      43.080
2015    9       10    10  36    3.1050   403.0    5.597      42.972
2015    9       10    10  44    3.1141   402.9    5.660      42.864
2015    9       10    10  51    3.1235   402.8    5.726      42.756
2015    9       10    10  58    3.1331   402.8    5.793      42.650
2015    9       10    11   6    3.1429   402.7    5.864      42.543
2015    9       10    11  13    3.1529   402.6    5.936      42.437
2015    9       10    11  20    3.1633   402.6    6.012      42.333
2015    9       10    11  28    3.1738   402.5    6.090      42.230
2015    9       10    11  35    3.1846   402.4    6.171      42.129
2015    9       10    11  42    3.1957   402.4    6.254      42.028
2015    9       10    11  50    3.2071   402.4    6.341      41.928
2015    9       10    11  57    3.2188   402.3    6.430      41.834
2015    9       10    12   4    3.2309   402.3    6.522      41.739
2015    9       10    12  12    3.2431   402.3    6.617      41.649
2015    9       10    12  19    3.2560   402.3    6.714      41.569
2015    9       10    12  26    3.2690   402.3    6.811      41.503
2015    9       10    12  34    3.2826   402.3    6.911      41.447
2015    9       10    12  41    3.2964   402.4    7.009      41.400
2015    9       10    12  49    3.3108   402.4    7.108      41.361
2015    9       10    12  56    3.3255   402.5    7.205      41.331
2015    9       10    13   3    3.3409   402.5    7.301      41.301
2015    9       10    13  11    3.3565   402.6    7.396      41.270
2015    9       10    13  18    3.3727   402.6    7.491      41.240
2015    9       10    13  25    3.3892   402.7    7.583      41.210
2015    9       10    13  33    3.4064   402.7    7.676      41.181
2015    9       10    13  40    3.4238   402.8    7.766      41.154
2015    9       10    13  47    3.4420   402.8    7.857      41.126
2015    9       10    13  55    3.4604   402.8    7.947      41.100
2015    9       10    14   2    3.4796   402.8    8.036      41.075
2015    9       10    14   9    3.4990   402.9    8.125      41.052
2015    9       10    14  17    3.5192   402.9    8.215      41.030
2015    9       10    14  24    3.5397   402.9    8.304      41.011
2015    9       10    14  31    3.5611   402.9    8.394      40.994
2015    9       10    14  39    3.5827   402.9    8.483      40.982
2015    9       10    14  46    3.6052   402.9    8.573      40.974
2015    9       10    14  53    3.6279   402.9    8.663      40.969
2015    9       10    15   1    3.6516   402.9    8.754      40.968
2015    9       10    15   8    3.6755   402.9    8.845      40.972
2015    9       10    15  15    3.7004   402.9    8.936      40.982
2015    9       10    15  23    3.7254   402.9    9.026      41.000
2015    9       10    15  30    3.7514   402.9    9.116      41.025
2015    9       10    15  37    3.7776   403.0    9.205      41.059
2015    9       10    15  45    3.8046   403.0    9.293      41.105
2015    9       10    15  52    3.8318   403.0    9.379      41.163
2015    9       10    15  59    3.8598   403.1    9.464      41.232
2015    9       10    16   7    3.8880   403.1    9.547      41.310
2015    9       10    16  14    3.9170   403.2    9.629      41.397
2015    9       10    16  21    3.9461   403.2    9.709      41.491
2015    9       10    16  29    3.9761   403.3    9.788      41.593
2015    9       10    16  36    4.0062   403.3    9.865      41.699
2015    9       10    16  44    4.0372   403.4    9.940      41.809
2015    9       10    16  51    4.0683   403.5   10.014      41.926
2015    9       10    16  58    4.1002   403.6   10.086      42.048
2015    9       10    17   6    4.1324   403.7   10.156      42.173
2015    9       10    17  13    4.1651   403.8   10.225      42.303
2015    9       10    17  20    4.1981   403.9   10.292      42.435
2015    9       10    17  28    4.2316   404.0   10.357      42.569
2015    9       10    17  35    4.2652   404.1   10.419      42.704
2015    9       10    17  42    4.2991   404.3   10.480      42.838
2015    9       10    17  50    4.3329   404.4   10.539      42.972
2015    9       10    17  57    4.3667   404.6   10.595      43.105
2015    9       10    18   4    4.4003   404.7   10.649      43.237
2015    9       10    18  12    4.4336   404.9   10.701      43.369
2015    9       10    18  19    4.4662   405.1   10.751      43.499
2015    9       10    18  26    4.4985   405.3   10.798      43.627
2015    9       10    18  34    4.5300   405.5   10.842      43.753
2015    9       10    18  41    4.5609   405.7   10.884      43.877
2015    9       10    18  49    4.5910   405.9   10.923      43.999
2015    9       10    18  56    4.6204   406.2   10.960      44.118
2015    9       10    19   3    4.6490   406.4   10.994      44.234
2015    9       10    19  11    4.6767   406.6   11.025      44.348
2015    9       10    19  18    4.7034   406.9   11.053      44.459
2015    9       10    19  25    4.7293   407.2   11.079      44.567
2015    9       10    19  33    4.7542   407.4   11.101      44.671
2015    9       10    19  40    4.7781   407.7   11.122      44.773
2015    9       10    19  47    4.8009   408.0   11.139      44.871
2015    9       10    19  55    4.8227   408.3   11.154      44.966
2015    9       10    20   2    4.8434   408.6   11.166      45.057
2015    9       10    20   9    4.8631   408.9   11.176      45.146
2015    9       10    20  17    4.8816   409.3   11.184      45.231
2015    9       10    20  24    4.8991   409.6   11.189      45.313
2015    9       10    20  31    4.9156   409.9   11.192      45.392
2015    9       10    20  39    4.9310   410.2   11.193      45.468
2015    9       10    20  46    4.9453   410.6   11.193      45.542
2015    9       10    20  53    4.9587   410.9   11.190      45.613
2015    9       10    21   1    4.9711   411.2   11.186      45.681
2015    9       10    21   8    4.9825   411.6   11.181      45.747
2015    9       10    21  15    4.9931   411.9   11.174      45.811
2015    9       10    21  23    5.0027   412.3   11.166      45.873
2015    9       10    21  30    5.0116   412.6   11.157      45.932
2015    9       10    21  38    5.0197   413.0   11.147      45.991
2015    9       10    21  45    5.0270   413.3   11.136      46.048
2015    9       10    21  52    5.0336   413.7   11.124      46.103
2015    9       10    21  59    5.0396   414.0   11.111      46.158
2015    9       10    22   7    5.0448   414.4   11.098      46.211
2015    9       10    22  14    5.0495   414.8   11.084      46.263
2015    9       10    22  22    5.0535   415.1   11.068      46.315
2015    9       10    22  29    5.0569   415.5   11.053      46.365
2015    9       10    22  36    5.0598   415.9   11.036      46.414
2015    9       10    22  44    5.0623   416.3   11.018      46.462
2015    9       10    22  51    5.0642   416.7   11.000      46.509
2015    9       10    22  58    5.0656   417.1   10.981      46.554
2015    9       10    23   6    5.0664   417.5   10.962      46.598
2015    9       10    23  13    5.0668   417.9   10.942      46.639
2015    9       10    23  20    5.0666   418.3   10.921      46.679
2015    9       10    23  28    5.0658   418.7   10.899      46.717
2015    9       10    23  35    5.0644   419.1   10.877      46.754
2015    9       10    23  42    5.0625   419.5   10.855      46.788
2015    9       10    23  50    5.0599   419.9   10.831      46.821
2015    9       10    23  57    5.0569   420.3   10.808      46.851
2015    9       11     0   4    5.0532   420.7   10.784      46.880
2015    9       11     0  12    5.0489   421.2   10.759      46.907
2015    9       11     0  19    5.0439   421.6   10.734      46.933
2015    9       11     0  26    5.0385   422.1   10.708      46.958
2015    9       11     0  34    5.0323   422.5   10.682      46.984
2015    9       11     0  41    5.0255   423.0   10.655      47.011
2015    9       11     0  49    5.0178   423.5   10.626      47.039
2015    9       11     0  56    5.0095   424.0   10.597      47.067
2015    9       11     1   3    5.0002   424.6   10.566      47.097
2015    9       11     1  11    4.9901   425.1   10.534      47.126
2015    9       11     1  18    4.9788   425.7   10.499      47.151
2015    9       11     1  25    4.9667   426.3   10.462      47.170
2015    9       11     1  33    4.9529   426.9   10.422      47.182
2015    9       11     1  40    4.9378   427.5   10.378      47.193
2015    9       11     1  47    4.9210   428.1   10.329      47.183
2015    9       11     1  55    4.9034   428.7   10.277      47.155
2015    9       11     2   2    4.8843   429.3   10.222      47.111
2015    9       11     2   9    4.8648   429.9   10.164      47.057
2015    9       11     2  17    4.8447   430.4   10.105      46.990
2015    9       11     2  24    4.8249   430.9   10.047      46.909
2015    9       11     2  32    4.8050   431.4    9.990      46.828
2015    9       11     2  39    4.7856   431.9    9.935      46.753
2015    9       11     2  46    4.7664   432.4    9.882      46.683
2015    9       11     2  54    4.7479   432.8    9.831      46.617
2015    9       11     3   1    4.7297   433.3    9.783      46.559
2015    9       11     3   8    4.7122   433.7    9.737      46.508
2015    9       11     3  16    4.6951   434.2    9.693      46.465
2015    9       11     3  23    4.6787   434.7    9.652      46.432
2015    9       11     3  30    4.6626   435.1    9.613      46.407
2015    9       11     3  38    4.6472   435.6    9.576      46.389
2015    9       11     3  45    4.6321   436.1    9.540      46.379
2015    9       11     3  52    4.6176   436.6    9.506      46.377
2015    9       11     4   0    4.6034   437.1    9.472      46.380
2015    9       11     4   7    4.5898   437.5    9.440      46.388
2015    9       11     4  14    4.5763   438.0    9.409      46.401
2015    9       11     4  22    4.5633   438.5    9.378      46.417
2015    9       11     4  29    4.5504   439.0    9.348      46.436
2015    9       11     4  36    4.5379   439.5    9.318      46.456
2015    9       11     4  44    4.5254   440.0    9.289      46.477
2015    9       11     4  51    4.5133   440.5    9.259      46.499
2015    9       11     4  58    4.5012   441.0    9.229      46.523
2015    9       11     5   6    4.4894   441.6    9.200      46.547
2015    9       11     5  13    4.4775   442.1    9.169      46.571
2015    9       11     5  20    4.4658   442.6    9.139      46.597
2015    9       11     5  28    4.4540   443.2    9.107      46.625
2015    9       11     5  35    4.4424   443.8    9.075      46.654
2015    9       11     5  42    4.4305   444.4    9.042      46.683
2015    9       11     5  50    4.4185   445.0    9.008      46.711
2015    9       11     5  57    4.4064   445.6    8.971      46.736
2015    9       11     6   4    4.3939   446.3    8.933      46.759
2015    9       11     6  12    4.3810   446.9    8.892      46.782
2015    9       11     6  19    4.3675   447.6    8.848      46.793
2015    9       11     6  26    4.3536   448.2    8.801      46.792
2015    9       11     6  34    4.3394   448.9    8.752      46.785
2015    9       11     6  41    4.3248   449.5    8.700      46.769
2015    9       11     6  48    4.3100   450.2    8.647      46.742
2015    9       11     6  56    4.2949   450.8    8.591      46.702
2015    9       11     7   3    4.2799   451.3    8.535      46.653
2015    9       11     7  11    4.2645   451.9    8.477      46.603
2015    9       11     7  18    4.2491   452.5    8.418      46.541
2015    9       11     7  25    4.2334   453.0    8.358      46.466
2015    9       11     7  33    4.2177   453.5    8.298      46.386
2015    9       11     7  40    4.2020   453.9    8.238      46.298
2015    9       11     7  47    4.1866   454.4    8.179      46.205
2015    9       11     7  55    4.1713   454.8    8.122      46.107
2015    9       11     8   2    4.1564   455.2    8.066      46.013
2015    9       11     8   9    4.1415   455.7    8.011      45.918
2015    9       11     8  17    4.1271   456.1    7.957      45.826
2015    9       11     8  24    4.1126   456.4    7.905      45.733
2015    9       11     8  31    4.0986   456.8    7.855      45.642
2015    9       11     8  39    4.0846   457.2    7.806      45.551
2015    9       11     8  46    4.0711   457.5    7.758      45.462
2015    9       11     8  54    4.0575   457.9    7.712      45.377
2015    9       11     9   1    4.0444   458.2    7.668      45.296
2015    9       11     9   8    4.0313   458.6    7.625      45.219
2015    9       11     9  16    4.0185   458.9    7.584      45.145
2015    9       11     9  23    4.0059   459.2    7.544      45.073
2015    9       11     9  30    3.9936   459.6    7.506      45.004
2015    9       11     9  38    3.9814   459.9    7.469      44.937
2015    9       11     9  45    3.9696   460.1    7.433      44.872
2015    9       11     9  52    3.9579   460.4    7.399      44.806
2015    9       11    10   0    3.9466   460.6    7.367      44.740
2015    9       11    10   7    3.9354   460.8    7.335      44.676
2015    9       11    10  14    3.9245   461.0    7.305      44.611
2015    9       11    10  22    3.9138   461.2    7.276      44.547
2015    9       11    10  29    3.9034   461.4    7.249      44.486
2015    9       11    10  36    3.8931   461.5    7.222      44.428
2015    9       11    10  44    3.8830   461.7    7.196      44.375
2015    9       11    10  51    3.8731   461.9    7.171      44.326
2015    9       11    10  58    3.8633   462.1    7.147      44.286
2015    9       11    11   6    3.8536   462.3    7.124      44.256
2015    9       11    11  13    3.8441   462.5    7.101      44.233
2015    9       11    11  20    3.8347   462.8    7.078      44.214
2015    9       11    11  28    3.8254   463.1    7.057      44.200
2015    9       11    11  35    3.8161   463.3    7.035      44.188
2015    9       11    11  42    3.8069   463.6    7.014      44.173
2015    9       11    11  50    3.7976   463.8    6.992      44.155
2015    9       11    11  57    3.7884   464.0    6.971      44.134
2015    9       11    12   5    3.7791   464.2    6.950      44.111
2015    9       11    12  12    3.7699   464.4    6.929      44.085
2015    9       11    12  19    3.7606   464.6    6.909      44.059
2015    9       11    12  26    3.7515   464.8    6.888      44.032
2015    9       11    12  34    3.7423   464.9    6.868      44.003
2015    9       11    12  41    3.7332   465.1    6.848      43.972
2015    9       11    12  49    3.7241   465.3    6.828      43.941
2015    9       11    12  56    3.7151   465.5    6.809      43.909
2015    9       11    13   3    3.7060   465.6    6.789      43.876
2015    9       11    13  11    3.6970   465.8    6.770      43.841
2015    9       11    13  18    3.6879   466.0    6.751      43.806
2015    9       11    13  25    3.6789   466.1    6.732      43.770
2015    9       11    13  33    3.6697   466.3    6.713      43.734
2015    9       11    13  40    3.6606   466.5    6.694      43.697
2015    9       11    13  47    3.6514   466.7    6.674      43.661
2015    9       11    13  55    3.6422   466.9    6.655      43.626
2015    9       11    14   2    3.6328   467.1    6.635      43.593
2015    9       11    14   9    3.6235   467.4    6.615      43.560
2015    9       11    14  17    3.6139   467.6    6.594      43.525
2015    9       11    14  24    3.6043   467.8    6.573      43.491
2015    9       11    14  31    3.5944   468.1    6.550      43.453
2015    9       11    14  39    3.5843   468.3    6.527      43.411
2015    9       11    14  46    3.5737   468.6    6.502      43.361
2015    9       11    14  53    3.5630   468.8    6.475      43.304
2015    9       11    15   1    3.5518   469.1    6.447      43.242
2015    9       11    15   8    3.5402   469.4    6.416      43.169
2015    9       11    15  15    3.5280   469.6    6.383      43.077
2015    9       11    15  23    3.5155   469.8    6.349      42.971
2015    9       11    15  30    3.5027   470.0    6.314      42.855
2015    9       11    15  38    3.4899   470.2    6.279      42.732
2015    9       11    15  45    3.4770   470.3    6.245      42.596
2015    9       11    15  52    3.4643   470.4    6.212      42.461
2015    9       11    16   0    3.4518   470.5    6.180      42.328
2015    9       11    16   7    3.4397   470.5    6.150      42.200
2015    9       11    16  14    3.4277   470.6    6.120      42.073
2015    9       11    16  22    3.4160   470.7    6.092      41.948
2015    9       11    16  29    3.4046   470.7    6.064      41.822
2015    9       11    16  36    3.3934   470.8    6.039      41.700
2015    9       11    16  44    3.3824   470.8    6.014      41.579
2015    9       11    16  51    3.3717   470.9    5.990      41.461
2015    9       11    16  58    3.3611   470.9    5.968      41.342
2015    9       11    17   6    3.3506   470.9    5.947      41.227
2015    9       11    17  13    3.3404   470.9    5.927      41.115
2015    9       11    17  20    3.3302   471.0    5.907      41.005
2015    9       11    17  28    3.3202   471.0    5.888      40.896
2015    9       11    17  35    3.3102   471.0    5.870      40.789
2015    9       11    17  43    3.3004   471.1    5.852      40.684
2015    9       11    17  50    3.2907   471.1    5.834      40.581
2015    9       11    17  57    3.2811   471.1    5.817      40.476
2015    9       11    18   5    3.2717   471.1    5.800      40.373
2015    9       11    18  12    3.2625   471.1    5.783      40.270
2015    9       11    18  19    3.2534   471.0    5.767      40.170
2015    9       11    18  27    3.2445   471.0    5.751      40.072
2015    9       11    18  34    3.2357   471.0    5.736      39.976
2015    9       11    18  41    3.2271   471.0    5.721      39.882
2015    9       11    18  49    3.2186   471.0    5.706      39.790
2015    9       11    18  56    3.2102   470.9    5.691      39.699
2015    9       11    19   3    3.2019   470.9    5.677      39.610
2015    9       11    19  11    3.1937   470.9    5.663      39.521
2015    9       11    19  18    3.1856   470.8    5.649      39.433
2015    9       11    19  25    3.1776   470.8    5.635      39.346
2015    9       11    19  33    3.1697   470.7    5.622      39.259
2015    9       11    19  40    3.1618   470.7    5.608      39.173
2015    9       11    19  47    3.1541   470.6    5.595      39.088
2015    9       11    19  55    3.1464   470.6    5.582      39.003
2015    9       11    20   2    3.1387   470.5    5.569      38.919
2015    9       11    20   9    3.1311   470.4    5.557      38.835
2015    9       11    20  17    3.1236   470.4    5.544      38.752
2015    9       11    20  24    3.1162   470.3    5.532      38.668
2015    9       11    20  31    3.1088   470.3    5.520      38.586
2015    9       11    20  39    3.1014   470.2    5.508      38.504
2015    9       11    20  46    3.0941   470.1    5.496      38.422
2015    9       11    20  53    3.0869   470.0    5.485      38.340
2015    9       11    21   1    3.0797   470.0    5.473      38.260
2015    9       11    21   8    3.0726   469.9    5.462      38.179
2015    9       11    21  15    3.0656   469.8    5.451      38.100
2015    9       11    21  23    3.0586   469.7    5.440      38.020
2015    9       11    21  30    3.0516   469.7    5.429      37.941
2015    9       11    21  37    3.0448   469.6    5.418      37.862
2015    9       11    21  45    3.0380   469.5    5.407      37.785
2015    9       11    21  52    3.0313   469.4    5.396      37.707
2015    9       11    21  59    3.0246   469.3    5.386      37.631
2015    9       11    22   7    3.0181   469.2    5.375      37.554
2015    9       11    22  14    3.0116   469.2    5.365      37.480
2015    9       11    22  22    3.0052   469.1    5.355      37.405
2015    9       11    22  29    2.9989   469.0    5.345      37.332
2015    9       11    22  36    2.9928   468.9    5.334      37.260
2015    9       11    22  44    2.9867   468.8    5.324      37.189
2015    9       11    22  51    2.9809   468.7    5.315      37.119
2015    9       11    22  58    2.9751   468.6    5.305      37.050
2015    9       11    23   6    2.9695   468.5    5.296      36.981
2015    9       11    23  13    2.9640   468.4    5.287      36.913
2015    9       11    23  20    2.9587   468.3    5.278      36.845
2015    9       11    23  28    2.9536   468.2    5.270      36.776
2015    9       11    23  35    2.9486   468.0    5.262      36.705
2015    9       11    23  42    2.9437   467.9    5.255      36.635
2015    9       11    23  50    2.9390   467.7    5.249      36.565
2015    9       11    23  57    2.9345   467.6    5.243      36.497
2015    9       12     0   4    2.9300   467.4    5.239      36.428
2015    9       12     0  12    2.9257   467.3    5.235      36.360
2015    9       12     0  19    2.9216   467.1    5.232      36.297
2015    9       12     0  27    2.9175   467.0    5.230      36.239
2015    9       12     0  34    2.9136   466.9    5.229      36.183
2015    9       12     0  41    2.9097   466.7    5.227      36.130
2015    9       12     0  49    2.9060   466.6    5.226      36.080
2015    9       12     0  56    2.9022   466.5    5.225      36.033
2015    9       12     1   3    2.8986   466.4    5.224      35.986
2015    9       12     1  11    2.8949   466.3    5.222      35.938
2015    9       12     1  18    2.8912   466.2    5.221      35.889
2015    9       12     1  25    2.8876   466.1    5.220      35.842
2015    9       12     1  33    2.8840   465.9    5.218      35.794
2015    9       12     1  40    2.8804   465.8    5.217      35.748
2015    9       12     1  47    2.8769   465.7    5.216      35.703
2015    9       12     1  55    2.8734   465.6    5.214      35.658
2015    9       12     2   2    2.8699   465.5    5.212      35.614
2015    9       12     2   9    2.8665   465.3    5.211      35.571
2015    9       12     2  17    2.8631   465.2    5.209      35.528
2015    9       12     2  24    2.8597   465.1    5.207      35.484
2015    9       12     2  31    2.8563   465.0    5.204      35.440
2015    9       12     2  39    2.8530   464.9    5.202      35.395
2015    9       12     2  46    2.8496   464.8    5.200      35.350
2015    9       12     2  53    2.8463   464.6    5.198      35.306
2015    9       12     3   1    2.8430   464.5    5.195      35.260
2015    9       12     3   8    2.8398   464.4    5.193      35.215
2015    9       12     3  15    2.8365   464.3    5.191      35.169
2015    9       12     3  23    2.8334   464.2    5.189      35.124
2015    9       12     3  30    2.8303   464.1    5.186      35.079
2015    9       12     3  37    2.8272   463.9    5.184      35.035
2015    9       12     3  45    2.8242   463.8    5.181      34.991
2015    9       12     3  52    2.8212   463.7    5.179      34.948
2015    9       12     3  59    2.8182   463.6    5.176      34.904
2015    9       12     4   7    2.8152   463.5    5.173      34.861
2015    9       12     4  14    2.8123   463.4    5.170      34.818
2015    9       12     4  21    2.8094   463.3    5.167      34.775
2015    9       12     4  29    2.8065   463.2    5.164      34.731
2015    9       12     4  36    2.8036   463.1    5.160      34.687
2015    9       12     4  43    2.8008   462.9    5.157      34.642
2015    9       12     4  51    2.7980   462.8    5.153      34.598
2015    9       12     4  58    2.7952   462.7    5.149      34.553
2015    9       12     5   6    2.7923   462.6    5.145      34.509
2015    9       12     5  13    2.7896   462.5    5.141      34.463
2015    9       12     5  20    2.7868   462.4    5.137      34.419
2015    9       12     5  28    2.7841   462.3    5.133      34.373
2015    9       12     5  35    2.7814   462.2    5.129      34.328
2015    9       12     5  42    2.7787   462.1    5.125      34.282
2015    9       12     5  50    2.7761   461.9    5.121      34.237
2015    9       12     5  57    2.7734   461.8    5.117      34.192
2015    9       12     6   4    2.7709   461.7    5.113      34.147
2015    9       12     6  12    2.7683   461.6    5.109      34.102
2015    9       12     6  19    2.7658   461.5    5.104      34.058
2015    9       12     6  26    2.7633   461.4    5.100      34.013
2015    9       12     6  34    2.7609   461.2    5.096      33.969
2015    9       12     6  41    2.7585   461.1    5.092      33.925
2015    9       12     6  48    2.7561   461.0    5.088      33.882
2015    9       12     6  56    2.7538   460.9    5.085      33.839
2015    9       12     7   3    2.7516   460.8    5.081      33.796
2015    9       12     7  11    2.7494   460.6    5.077      33.754
2015    9       12     7  18    2.7472   460.5    5.074      33.712
2015    9       12     7  25    2.7451   460.4    5.070      33.671
2015    9       12     7  33    2.7430   460.3    5.067      33.631
2015    9       12     7  40    2.7410   460.2    5.064      33.590
2015    9       12     7  47    2.7390   460.1    5.061      33.551
2015    9       12     7  55    2.7370   459.9    5.058      33.512
2015    9       12     8   2    2.7351   459.8    5.055      33.473
2015    9       12     8   9    2.7332   459.7    5.053      33.435
2015    9       12     8  17    2.7313   459.6    5.050      33.398
2015    9       12     8  24    2.7295   459.5    5.048      33.361
2015    9       12     8  31    2.7277   459.3    5.046      33.325
2015    9       12     8  39    2.7259   459.2    5.043      33.288
2015    9       12     8  46    2.7241   459.1    5.041      33.253
2015    9       12     8  53    2.7223   459.0    5.040      33.217
2015    9       12     9   1    2.7206   458.8    5.038      33.182
2015    9       12     9   8    2.7188   458.7    5.036      33.148
2015    9       12     9  15    2.7171   458.6    5.034      33.113
2015    9       12     9  23    2.7154   458.5    5.033      33.079
2015    9       12     9  30    2.7137   458.3    5.032      33.045
2015    9       12     9  37    2.7120   458.2    5.030      33.012
2015    9       12     9  45    2.7104   458.1    5.029      32.978
2015    9       12     9  52    2.7087   458.0    5.028      32.945
2015    9       12     9  59    2.7071   457.8    5.027      32.913
2015    9       12    10   7    2.7054   457.7    5.027      32.880
2015    9       12    10  14    2.7039   457.6    5.026      32.849
2015    9       12    10  21    2.7023   457.5    5.025      32.817
2015    9       12    10  29    2.7008   457.3    5.025      32.786
2015    9       12    10  36    2.6993   457.2    5.025      32.755
2015    9       12    10  43    2.6978   457.1    5.025      32.726
2015    9       12    10  51    2.6964   457.0    5.025      32.698
2015    9       12    10  58    2.6950   456.9    5.025      32.671
2015    9       12    11   5    2.6936   456.8    5.026      32.645
2015    9       12    11  13    2.6922   456.6    5.026      32.620
2015    9       12    11  20    2.6907   456.5    5.026      32.595
2015    9       12    11  27    2.6893   456.4    5.026      32.570
2015    9       12    11  35    2.6878   456.3    5.026      32.546
2015    9       12    11  42    2.6863   456.2    5.027      32.522
2015    9       12    11  50    2.6848   456.1    5.027      32.498
2015    9       12    11  57    2.6832   456.0    5.027      32.473
2015    9       12    12   4    2.6816   455.9    5.027      32.449
2015    9       12    12  12    2.6800   455.8    5.027      32.424
2015    9       12    12  19    2.6784   455.6    5.027      32.398
2015    9       12    12  26    2.6767   455.5    5.027      32.372
2015    9       12    12  34    2.6751   455.4    5.027      32.346
2015    9       12    12  41    2.6734   455.3    5.026      32.319
2015    9       12    12  48    2.6717   455.2    5.026      32.291
2015    9       12    12  56    2.6700   455.1    5.025      32.264
2015    9       12    13   3    2.6682   455.0    5.025      32.235
2015    9       12    13  10    2.6665   454.8    5.024      32.207
2015    9       12    13  18    2.6648   454.7    5.024      32.178
2015    9       12    13  25    2.6631   454.6    5.023      32.149
2015    9       12    13  32    2.6613   454.5    5.022      32.120
2015    9       12    13  40    2.6596   454.4    5.021      32.091
2015    9       12    13  47    2.6579   454.3    5.021      32.062
2015    9       12    13  55    2.6561   454.1    5.020      32.032
2015    9       12    14   2    2.6544   454.0    5.019      32.003
2015    9       12    14   9    2.6527   453.9    5.018      31.973
2015    9       12    14  17    2.6510   453.8    5.017      31.943
2015    9       12    14  24    2.6493   453.7    5.016      31.913
2015    9       12    14  31    2.6475   453.5    5.014      31.883
2015    9       12    14  39    2.6458   453.4    5.013      31.853
2015    9       12    14  46    2.6441   453.3    5.012      31.823
2015    9       12    14  53    2.6425   453.2    5.011      31.793
2015    9       12    15   1    2.6408   453.1    5.010      31.763
2015    9       12    15   8    2.6391   452.9    5.008      31.733
2015    9       12    15  15    2.6375   452.8    5.007      31.702
2015    9       12    15  23    2.6359   452.7    5.006      31.672
2015    9       12    15  30    2.6343   452.6    5.004      31.642
2015    9       12    15  37    2.6327   452.5    5.003      31.613
2015    9       12    15  45    2.6311   452.3    5.002      31.583
2015    9       12    15  52    2.6296   452.2    5.000      31.554
2015    9       12    15  59    2.6280   452.1    4.999      31.524
2015    9       12    16   7    2.6265   452.0    4.998      31.495
2015    9       12    16  14    2.6251   451.8    4.997      31.466
2015    9       12    16  21    2.6236   451.7    4.996      31.438
2015    9       12    16  29    2.6222   451.6    4.994      31.409
2015    9       12    16  36    2.6208   451.5    4.993      31.381
2015    9       12    16  43    2.6194   451.4    4.992      31.353
2015    9       12    16  51    2.6180   451.2    4.991      31.326
2015    9       12    16  58    2.6166   451.1    4.990      31.298
2015    9       12    17   5    2.6152   451.0    4.989      31.271
2015    9       12    17  13    2.6138   450.9    4.988      31.244
2015    9       12    17  20    2.6124   450.7    4.987      31.219
2015    9       12    17  27    2.6111   450.6    4.986      31.193
2015    9       12    17  35    2.6097   450.5    4.985      31.168
2015    9       12    17  42    2.6083   450.4    4.984      31.143
2015    9       12    17  49    2.6070   450.2    4.983      31.119
2015    9       12    17  57    2.6056   450.1    4.983      31.095
2015    9       12    18   4    2.6043   450.0    4.982      31.072
2015    9       12    18  11    2.6029   449.8    4.981      31.049
2015    9       12    18  19    2.6016   449.7    4.981      31.026
2015    9       12    18  26    2.6003   449.6    4.980      31.003
2015    9       12    18  33    2.5989   449.5    4.980      30.980
2015    9       12    18  41    2.5975   449.3    4.979      30.958
2015    9       12    18  48    2.5961   449.2    4.979      30.936
2015    9       12    18  56    2.5947   449.1    4.979      30.913
2015    9       12    19   3    2.5932   449.0    4.979      30.892
2015    9       12    19  10    2.5918   448.8    4.979      30.870
2015    9       12    19  18    2.5903   448.7    4.979      30.848
2015    9       12    19  25    2.5888   448.6    4.978      30.826
2015    9       12    19  32    2.5872   448.5    4.978      30.804
2015    9       12    19  40    2.5857   448.3    4.978      30.781
2015    9       12    19  47    2.5841   448.2    4.978      30.758
2015    9       12    19  54    2.5825   448.1    4.978      30.733
2015    9       12    20   2    2.5810   448.0    4.978      30.709
2015    9       12    20   9    2.5794   447.8    4.978      30.684
2015    9       12    20  16    2.5778   447.7    4.977      30.660
2015    9       12    20  24    2.5762   447.6    4.977      30.634
2015    9       12    20  31    2.5746   447.5    4.977      30.609
2015    9       12    20  38    2.5730   447.3    4.976      30.583
2015    9       12    20  46    2.5714   447.2    4.976      30.557
2015    9       12    20  53    2.5698   447.1    4.975      30.530
2015    9       12    21   1    2.5682   446.9    4.975      30.504
2015    9       12    21   8    2.5666   446.8    4.974      30.477
2015    9       12    21  15    2.5650   446.7    4.974      30.451
2015    9       12    21  23    2.5634   446.6    4.973      30.424
2015    9       12    21  30    2.5618   446.4    4.972      30.397
2015    9       12    21  37    2.5603   446.3    4.972      30.369
2015    9       12    21  45    2.5587   446.2    4.971      30.342
2015    9       12    21  52    2.5571   446.0    4.970      30.315
2015    9       12    21  59    2.5556   445.9    4.970      30.287
2015    9       12    22   7    2.5540   445.8    4.969      30.260
2015    9       12    22  14    2.5524   445.7    4.968      30.232
2015    9       12    22  21    2.5509   445.5    4.967      30.204
2015    9       12    22  29    2.5494   445.4    4.966      30.177
2015    9       12    22  36    2.5479   445.3    4.966      30.149
2015    9       12    22  43    2.5464   445.1    4.965      30.122
2015    9       12    22  51    2.5449   445.0    4.964      30.094
2015    9       12    22  58    2.5434   444.9    4.964      30.067
2015    9       12    23   5    2.5420   444.7    4.963      30.040
2015    9       12    23  13    2.5405   444.6    4.962      30.013
2015    9       12    23  20    2.5391   444.5    4.962      29.986
2015    9       12    23  27    2.5377   444.4    4.961      29.960
2015    9       12    23  35    2.5364   444.2    4.961      29.933
2015    9       12    23  42    2.5350   444.1    4.961      29.908
2015    9       12    23  50    2.5337   444.0    4.960      29.882
2015    9       12    23  57    2.5324   443.9    4.960      29.856
2015    9       13     0   4    2.5311   443.7    4.960      29.831
