year    month   day   hour  minute  B_enl V_enl   n_enl       T_enl
[year] [month] [day] [hour][minute] [nT]  [km/s]  [cm-3]      [kK]
2015    9       29     0   0    2.7284   485.8    3.873      33.162
2015    9       29     0   7    2.7282   485.6    3.876      33.147
2015    9       29     0  14    2.7279   485.4    3.879      33.131
2015    9       29     0  21    2.7277   485.2    3.882      33.116
2015    9       29     0  28    2.7274   485.0    3.885      33.100
2015    9       29     0  35    2.7271   484.8    3.888      33.084
2015    9       29     0  42    2.7268   484.7    3.890      33.068
2015    9       29     0  49    2.7265   484.5    3.893      33.052
2015    9       29     0  56    2.7262   484.3    3.896      33.035
2015    9       29     1   3    2.7259   484.1    3.898      33.019
2015    9       29     1  10    2.7255   483.9    3.901      33.001
2015    9       29     1  17    2.7252   483.7    3.903      32.984
2015    9       29     1  24    2.7249   483.6    3.906      32.967
2015    9       29     1  31    2.7245   483.4    3.908      32.950
2015    9       29     1  38    2.7242   483.2    3.910      32.932
2015    9       29     1  45    2.7238   483.0    3.913      32.914
2015    9       29     1  52    2.7235   482.8    3.915      32.896
2015    9       29     1  59    2.7231   482.6    3.917      32.878
2015    9       29     2   6    2.7228   482.5    3.919      32.860
2015    9       29     2  13    2.7224   482.3    3.921      32.842
2015    9       29     2  20    2.7220   482.1    3.924      32.823
2015    9       29     2  27    2.7216   481.9    3.926      32.805
2015    9       29     2  34    2.7213   481.7    3.928      32.787
2015    9       29     2  41    2.7209   481.6    3.930      32.768
2015    9       29     2  48    2.7205   481.4    3.931      32.749
2015    9       29     2  55    2.7201   481.2    3.933      32.731
2015    9       29     3   2    2.7197   481.0    3.935      32.712
2015    9       29     3   9    2.7193   480.8    3.937      32.693
2015    9       29     3  16    2.7189   480.6    3.939      32.674
2015    9       29     3  22    2.7184   480.5    3.941      32.655
2015    9       29     3  29    2.7180   480.3    3.942      32.636
2015    9       29     3  36    2.7176   480.1    3.944      32.617
2015    9       29     3  43    2.7172   479.9    3.946      32.597
2015    9       29     3  50    2.7168   479.7    3.947      32.578
2015    9       29     3  57    2.7163   479.5    3.949      32.558
2015    9       29     4   4    2.7159   479.4    3.950      32.539
2015    9       29     4  11    2.7154   479.2    3.952      32.520
2015    9       29     4  18    2.7150   479.0    3.954      32.501
2015    9       29     4  25    2.7146   478.8    3.955      32.482
2015    9       29     4  32    2.7141   478.6    3.957      32.463
2015    9       29     4  39    2.7137   478.4    3.959      32.444
2015    9       29     4  46    2.7133   478.2    3.961      32.425
2015    9       29     4  53    2.7129   478.0    3.962      32.407
2015    9       29     5   0    2.7125   477.9    3.964      32.389
2015    9       29     5   7    2.7121   477.7    3.966      32.371
2015    9       29     5  14    2.7117   477.5    3.968      32.354
2015    9       29     5  21    2.7113   477.3    3.970      32.337
2015    9       29     5  28    2.7110   477.1    3.972      32.320
2015    9       29     5  35    2.7106   476.9    3.975      32.303
2015    9       29     5  42    2.7103   476.7    3.977      32.287
2015    9       29     5  49    2.7100   476.5    3.979      32.271
2015    9       29     5  56    2.7097   476.4    3.982      32.256
2015    9       29     6   3    2.7094   476.2    3.984      32.241
2015    9       29     6  10    2.7091   476.0    3.987      32.226
2015    9       29     6  17    2.7089   475.8    3.990      32.212
2015    9       29     6  24    2.7086   475.6    3.992      32.197
2015    9       29     6  31    2.7084   475.4    3.995      32.183
2015    9       29     6  38    2.7081   475.3    3.998      32.170
2015    9       29     6  45    2.7079   475.1    4.001      32.156
2015    9       29     6  52    2.7076   474.9    4.004      32.142
2015    9       29     6  59    2.7073   474.7    4.007      32.129
2015    9       29     7   6    2.7071   474.5    4.010      32.115
2015    9       29     7  13    2.7068   474.4    4.013      32.101
2015    9       29     7  20    2.7065   474.2    4.016      32.088
2015    9       29     7  27    2.7062   474.0    4.019      32.074
2015    9       29     7  34    2.7058   473.8    4.022      32.060
2015    9       29     7  41    2.7055   473.6    4.025      32.046
2015    9       29     7  48    2.7051   473.5    4.028      32.032
2015    9       29     7  55    2.7047   473.3    4.031      32.018
2015    9       29     8   2    2.7043   473.1    4.034      32.003
2015    9       29     8   9    2.7039   472.9    4.037      31.988
2015    9       29     8  16    2.7035   472.8    4.039      31.973
2015    9       29     8  23    2.7031   472.6    4.042      31.957
2015    9       29     8  30    2.7027   472.4    4.045      31.942
2015    9       29     8  37    2.7022   472.2    4.048      31.926
2015    9       29     8  44    2.7018   472.0    4.050      31.910
2015    9       29     8  51    2.7013   471.8    4.053      31.893
2015    9       29     8  58    2.7009   471.7    4.056      31.877
2015    9       29     9   5    2.7004   471.5    4.058      31.860
2015    9       29     9  12    2.6999   471.3    4.061      31.843
2015    9       29     9  19    2.6994   471.1    4.063      31.826
2015    9       29     9  26    2.6990   470.9    4.065      31.809
2015    9       29     9  33    2.6985   470.8    4.068      31.791
2015    9       29     9  40    2.6980   470.6    4.070      31.773
2015    9       29     9  47    2.6975   470.4    4.072      31.756
2015    9       29     9  53    2.6970   470.2    4.075      31.738
2015    9       29    10   0    2.6965   470.0    4.077      31.720
2015    9       29    10   7    2.6959   469.9    4.079      31.702
2015    9       29    10  14    2.6954   469.7    4.081      31.683
2015    9       29    10  21    2.6949   469.5    4.083      31.665
2015    9       29    10  28    2.6943   469.3    4.085      31.646
2015    9       29    10  35    2.6938   469.1    4.087      31.628
2015    9       29    10  42    2.6932   468.9    4.089      31.609
2015    9       29    10  49    2.6926   468.8    4.091      31.590
2015    9       29    10  56    2.6921   468.6    4.093      31.571
2015    9       29    11   3    2.6915   468.4    4.095      31.552
2015    9       29    11  10    2.6909   468.2    4.097      31.533
2015    9       29    11  17    2.6903   468.0    4.099      31.514
2015    9       29    11  24    2.6897   467.8    4.101      31.495
2015    9       29    11  31    2.6891   467.7    4.103      31.476
2015    9       29    11  38    2.6885   467.5    4.105      31.457
2015    9       29    11  45    2.6879   467.3    4.106      31.439
2015    9       29    11  52    2.6873   467.1    4.108      31.420
2015    9       29    11  59    2.6867   466.9    4.110      31.401
2015    9       29    12   6    2.6860   466.7    4.112      31.383
2015    9       29    12  13    2.6854   466.5    4.114      31.364
2015    9       29    12  20    2.6848   466.3    4.116      31.346
2015    9       29    12  27    2.6843   466.2    4.118      31.328
2015    9       29    12  34    2.6837   466.0    4.120      31.311
2015    9       29    12  41    2.6831   465.8    4.122      31.293
2015    9       29    12  48    2.6825   465.6    4.124      31.276
2015    9       29    12  55    2.6819   465.4    4.126      31.259
2015    9       29    13   2    2.6814   465.2    4.128      31.243
2015    9       29    13   9    2.6808   465.0    4.131      31.227
2015    9       29    13  16    2.6803   464.8    4.133      31.210
2015    9       29    13  22    2.6798   464.7    4.135      31.195
2015    9       29    13  30    2.6793   464.5    4.138      31.179
2015    9       29    13  36    2.6787   464.3    4.140      31.164
2015    9       29    13  43    2.6782   464.1    4.143      31.149
2015    9       29    13  50    2.6777   463.9    4.145      31.135
2015    9       29    13  57    2.6772   463.7    4.148      31.120
2015    9       29    14   4    2.6768   463.5    4.150      31.106
2015    9       29    14  11    2.6763   463.4    4.153      31.091
2015    9       29    14  18    2.6758   463.2    4.156      31.077
2015    9       29    14  25    2.6753   463.0    4.159      31.063
2015    9       29    14  32    2.6748   462.8    4.161      31.049
2015    9       29    14  39    2.6743   462.6    4.164      31.035
2015    9       29    14  46    2.6738   462.5    4.167      31.022
2015    9       29    14  53    2.6733   462.3    4.170      31.008
2015    9       29    15   0    2.6728   462.1    4.173      30.994
2015    9       29    15   7    2.6723   461.9    4.176      30.980
2015    9       29    15  14    2.6717   461.7    4.178      30.966
2015    9       29    15  21    2.6712   461.6    4.181      30.951
2015    9       29    15  28    2.6706   461.4    4.184      30.937
2015    9       29    15  35    2.6701   461.2    4.187      30.922
2015    9       29    15  42    2.6695   461.0    4.190      30.908
2015    9       29    15  49    2.6689   460.8    4.192      30.893
2015    9       29    15  56    2.6683   460.7    4.195      30.878
2015    9       29    16   3    2.6677   460.5    4.198      30.862
2015    9       29    16  10    2.6671   460.3    4.200      30.847
2015    9       29    16  17    2.6665   460.1    4.203      30.831
2015    9       29    16  24    2.6658   459.9    4.205      30.815
2015    9       29    16  31    2.6652   459.8    4.208      30.799
2015    9       29    16  38    2.6645   459.6    4.210      30.782
2015    9       29    16  45    2.6639   459.4    4.213      30.766
2015    9       29    16  52    2.6632   459.2    4.215      30.749
2015    9       29    16  59    2.6625   459.0    4.218      30.732
2015    9       29    17   6    2.6618   458.9    4.220      30.715
2015    9       29    17  13    2.6611   458.7    4.222      30.697
2015    9       29    17  20    2.6604   458.5    4.225      30.680
2015    9       29    17  27    2.6597   458.3    4.227      30.662
2015    9       29    17  34    2.6590   458.1    4.229      30.643
2015    9       29    17  41    2.6582   457.9    4.231      30.625
2015    9       29    17  48    2.6575   457.8    4.233      30.607
2015    9       29    17  55    2.6568   457.6    4.235      30.588
2015    9       29    18   2    2.6560   457.4    4.237      30.569
2015    9       29    18   9    2.6552   457.2    4.239      30.550
2015    9       29    18  16    2.6545   457.0    4.241      30.531
2015    9       29    18  23    2.6537   456.8    4.243      30.512
2015    9       29    18  30    2.6529   456.7    4.245      30.492
2015    9       29    18  37    2.6521   456.5    4.247      30.473
2015    9       29    18  44    2.6514   456.3    4.249      30.453
2015    9       29    18  51    2.6506   456.1    4.251      30.434
2015    9       29    18  58    2.6498   455.9    4.252      30.414
2015    9       29    19   5    2.6490   455.7    4.254      30.394
2015    9       29    19  12    2.6482   455.5    4.256      30.375
2015    9       29    19  19    2.6474   455.4    4.258      30.355
2015    9       29    19  26    2.6466   455.2    4.259      30.336
2015    9       29    19  33    2.6458   455.0    4.261      30.316
2015    9       29    19  40    2.6450   454.8    4.263      30.296
2015    9       29    19  47    2.6442   454.6    4.265      30.277
2015    9       29    19  54    2.6433   454.4    4.266      30.258
2015    9       29    20   1    2.6425   454.2    4.268      30.238
2015    9       29    20   7    2.6417   454.0    4.270      30.219
2015    9       29    20  14    2.6409   453.8    4.272      30.200
2015    9       29    20  21    2.6401   453.6    4.273      30.181
2015    9       29    20  28    2.6393   453.5    4.275      30.162
2015    9       29    20  35    2.6385   453.3    4.277      30.143
2015    9       29    20  42    2.6377   453.1    4.279      30.125
2015    9       29    20  49    2.6369   452.9    4.281      30.106
2015    9       29    20  56    2.6361   452.7    4.283      30.088
2015    9       29    21   3    2.6354   452.5    4.285      30.070
2015    9       29    21  10    2.6346   452.3    4.287      30.051
2015    9       29    21  17    2.6338   452.1    4.289      30.034
2015    9       29    21  24    2.6330   451.9    4.291      30.016
2015    9       29    21  31    2.6322   451.7    4.293      29.998
2015    9       29    21  38    2.6315   451.5    4.295      29.980
2015    9       29    21  45    2.6307   451.4    4.297      29.963
2015    9       29    21  52    2.6299   451.2    4.300      29.945
2015    9       29    21  59    2.6292   451.0    4.302      29.928
2015    9       29    22   6    2.6284   450.8    4.304      29.911
2015    9       29    22  13    2.6276   450.6    4.306      29.894
2015    9       29    22  20    2.6269   450.4    4.309      29.877
2015    9       29    22  27    2.6261   450.2    4.311      29.860
2015    9       29    22  34    2.6254   450.0    4.313      29.843
2015    9       29    22  41    2.6246   449.8    4.315      29.826
2015    9       29    22  48    2.6238   449.6    4.318      29.809
2015    9       29    22  55    2.6231   449.5    4.320      29.792
2015    9       29    23   2    2.6223   449.3    4.322      29.776
2015    9       29    23   9    2.6216   449.1    4.325      29.759
2015    9       29    23  16    2.6208   448.9    4.327      29.742
2015    9       29    23  23    2.6200   448.7    4.329      29.726
2015    9       29    23  30    2.6192   448.5    4.332      29.709
2015    9       29    23  37    2.6184   448.3    4.334      29.693
2015    9       29    23  44    2.6176   448.2    4.337      29.676
2015    9       29    23  51    2.6168   448.0    4.339      29.659
2015    9       29    23  58    2.6160   447.8    4.341      29.642
2015    9       30     0   5    2.6151   447.6    4.343      29.625
2015    9       30     0  12    2.6143   447.4    4.346      29.608
2015    9       30     0  19    2.6134   447.2    4.348      29.591
2015    9       30     0  26    2.6125   447.0    4.350      29.574
2015    9       30     0  33    2.6116   446.9    4.352      29.557
2015    9       30     0  40    2.6107   446.7    4.354      29.539
2015    9       30     0  47    2.6098   446.5    4.356      29.522
2015    9       30     0  54    2.6089   446.3    4.358      29.504
2015    9       30     1   1    2.6080   446.1    4.360      29.486
2015    9       30     1   8    2.6071   445.9    4.362      29.468
2015    9       30     1  15    2.6062   445.8    4.364      29.450
2015    9       30     1  22    2.6052   445.6    4.366      29.431
2015    9       30     1  29    2.6043   445.4    4.368      29.413
2015    9       30     1  36    2.6033   445.2    4.370      29.394
2015    9       30     1  43    2.6024   445.0    4.372      29.376
2015    9       30     1  50    2.6014   444.8    4.373      29.357
2015    9       30     1  57    2.6004   444.7    4.375      29.338
2015    9       30     2   4    2.5994   444.5    4.377      29.318
2015    9       30     2  11    2.5985   444.3    4.378      29.299
2015    9       30     2  18    2.5974   444.1    4.380      29.279
2015    9       30     2  25    2.5964   443.9    4.382      29.259
2015    9       30     2  32    2.5954   443.7    4.384      29.239
2015    9       30     2  39    2.5944   443.5    4.385      29.220
2015    9       30     2  46    2.5934   443.3    4.387      29.199
2015    9       30     2  52    2.5924   443.2    4.389      29.179
2015    9       30     2  59    2.5914   443.0    4.390      29.159
2015    9       30     3   6    2.5903   442.8    4.392      29.138
2015    9       30     3  13    2.5893   442.6    4.394      29.117
2015    9       30     3  20    2.5883   442.4    4.395      29.097
2015    9       30     3  27    2.5872   442.2    4.397      29.076
2015    9       30     3  34    2.5862   442.0    4.399      29.056
2015    9       30     3  41    2.5851   441.8    4.401      29.035
2015    9       30     3  48    2.5841   441.6    4.402      29.015
2015    9       30     3  55    2.5831   441.4    4.404      28.994
2015    9       30     4   2    2.5820   441.2    4.406      28.973
2015    9       30     4   9    2.5810   441.0    4.408      28.953
2015    9       30     4  16    2.5800   440.8    4.410      28.933
2015    9       30     4  23    2.5789   440.6    4.412      28.912
2015    9       30     4  30    2.5779   440.5    4.414      28.892
2015    9       30     4  37    2.5769   440.3    4.416      28.872
2015    9       30     4  44    2.5759   440.1    4.418      28.852
2015    9       30     4  51    2.5748   439.9    4.421      28.831
2015    9       30     4  58    2.5738   439.7    4.423      28.812
2015    9       30     5   5    2.5728   439.5    4.425      28.792
2015    9       30     5  12    2.5718   439.3    4.427      28.773
2015    9       30     5  19    2.5708   439.1    4.429      28.753
2015    9       30     5  26    2.5698   438.9    4.432      28.734
2015    9       30     5  33    2.5688   438.7    4.434      28.715
2015    9       30     5  40    2.5678   438.5    4.436      28.696
2015    9       30     5  47    2.5668   438.3    4.438      28.677
2015    9       30     5  54    2.5659   438.1    4.440      28.659
2015    9       30     6   1    2.5649   437.9    4.442      28.640
2015    9       30     6   8    2.5639   437.7    4.445      28.622
2015    9       30     6  15    2.5629   437.5    4.447      28.603
2015    9       30     6  22    2.5619   437.3    4.449      28.585
2015    9       30     6  29    2.5610   437.1    4.451      28.567
2015    9       30     6  36    2.5600   436.9    4.453      28.548
2015    9       30     6  43    2.5590   436.7    4.455      28.530
2015    9       30     6  50    2.5580   436.5    4.457      28.511
2015    9       30     6  57    2.5570   436.3    4.459      28.492
2015    9       30     7   4    2.5560   436.1    4.460      28.474
2015    9       30     7  11    2.5549   435.9    4.462      28.454
2015    9       30     7  18    2.5539   435.7    4.464      28.436
2015    9       30     7  25    2.5529   435.5    4.466      28.416
2015    9       30     7  32    2.5518   435.3    4.468      28.397
2015    9       30     7  39    2.5508   435.1    4.469      28.378
2015    9       30     7  46    2.5497   435.0    4.471      28.358
2015    9       30     7  53    2.5486   434.8    4.473      28.339
2015    9       30     8   0    2.5475   434.6    4.474      28.319
2015    9       30     8   7    2.5464   434.4    4.476      28.299
2015    9       30     8  14    2.5454   434.2    4.477      28.279
2015    9       30     8  21    2.5442   434.0    4.479      28.259
2015    9       30     8  28    2.5431   433.8    4.480      28.238
2015    9       30     8  35    2.5420   433.6    4.482      28.218
2015    9       30     8  42    2.5409   433.4    4.483      28.197
2015    9       30     8  49    2.5397   433.2    4.485      28.176
2015    9       30     8  56    2.5386   433.1    4.486      28.155
2015    9       30     9   3    2.5374   432.9    4.487      28.134
2015    9       30     9  10    2.5363   432.7    4.489      28.113
2015    9       30     9  17    2.5351   432.5    4.490      28.091
2015    9       30     9  24    2.5340   432.3    4.491      28.070
2015    9       30     9  31    2.5328   432.1    4.492      28.048
2015    9       30     9  37    2.5316   431.9    4.494      28.026
2015    9       30     9  44    2.5304   431.7    4.495      28.003
2015    9       30     9  51    2.5292   431.5    4.496      27.982
2015    9       30     9  58    2.5280   431.4    4.497      27.959
2015    9       30    10   5    2.5269   431.2    4.499      27.937
2015    9       30    10  12    2.5256   431.0    4.500      27.914
2015    9       30    10  19    2.5244   430.8    4.501      27.892
2015    9       30    10  26    2.5232   430.6    4.503      27.869
2015    9       30    10  33    2.5220   430.4    4.504      27.846
2015    9       30    10  40    2.5208   430.2    4.505      27.823
2015    9       30    10  47    2.5196   430.0    4.507      27.801
2015    9       30    10  54    2.5184   429.8    4.508      27.778
2015    9       30    11   1    2.5172   429.6    4.510      27.755
2015    9       30    11   8    2.5160   429.4    4.511      27.733
2015    9       30    11  15    2.5148   429.2    4.513      27.710
2015    9       30    11  22    2.5136   429.1    4.514      27.687
2015    9       30    11  29    2.5124   428.9    4.516      27.665
2015    9       30    11  36    2.5112   428.7    4.518      27.643
2015    9       30    11  43    2.5100   428.5    4.519      27.620
2015    9       30    11  50    2.5088   428.3    4.521      27.598
2015    9       30    11  57    2.5076   428.1    4.523      27.576
2015    9       30    12   4    2.5064   427.9    4.525      27.555
2015    9       30    12  11    2.5053   427.7    4.527      27.533
2015    9       30    12  18    2.5041   427.5    4.528      27.511
2015    9       30    12  25    2.5029   427.3    4.530      27.490
2015    9       30    12  32    2.5017   427.1    4.532      27.469
2015    9       30    12  39    2.5005   426.9    4.534      27.448
2015    9       30    12  46    2.4994   426.7    4.536      27.427
2015    9       30    12  53    2.4982   426.5    4.538      27.406
2015    9       30    13   0    2.4970   426.3    4.540      27.385
2015    9       30    13   7    2.4958   426.1    4.542      27.365
2015    9       30    13  14    2.4947   425.9    4.544      27.344
2015    9       30    13  21    2.4935   425.7    4.546      27.324
2015    9       30    13  28    2.4924   425.5    4.548      27.303
2015    9       30    13  35    2.4912   425.3    4.550      27.283
2015    9       30    13  42    2.4900   425.1    4.552      27.262
2015    9       30    13  49    2.4889   424.9    4.555      27.242
2015    9       30    13  56    2.4877   424.7    4.557      27.221
2015    9       30    14   3    2.4866   424.5    4.559      27.201
2015    9       30    14  10    2.4854   424.3    4.561      27.180
2015    9       30    14  17    2.4842   424.1    4.563      27.159
2015    9       30    14  24    2.4831   423.9    4.566      27.138
2015    9       30    14  31    2.4819   423.7    4.568      27.117
2015    9       30    14  38    2.4808   423.5    4.570      27.096
2015    9       30    14  45    2.4796   423.3    4.572      27.076
2015    9       30    14  52    2.4785   423.1    4.575      27.055
2015    9       30    14  59    2.4773   422.9    4.577      27.034
2015    9       30    15   6    2.4762   422.7    4.579      27.013
2015    9       30    15  13    2.4751   422.5    4.581      26.992
2015    9       30    15  20    2.4739   422.3    4.584      26.971
2015    9       30    15  27    2.4728   422.1    4.586      26.950
2015    9       30    15  34    2.4717   421.9    4.588      26.930
2015    9       30    15  41    2.4706   421.7    4.591      26.909
2015    9       30    15  48    2.4694   421.5    4.593      26.888
2015    9       30    15  55    2.4683   421.3    4.595      26.867
2015    9       30    16   2    2.4672   421.1    4.597      26.846
2015    9       30    16   9    2.4661   420.9    4.600      26.826
2015    9       30    16  16    2.4650   420.6    4.602      26.805
2015    9       30    16  22    2.4639   420.4    4.604      26.784
2015    9       30    16  29    2.4628   420.2    4.606      26.763
2015    9       30    16  36    2.4617   420.0    4.608      26.742
2015    9       30    16  43    2.4606   419.8    4.609      26.721
2015    9       30    16  50    2.4594   419.6    4.611      26.699
2015    9       30    16  57    2.4583   419.4    4.613      26.677
2015    9       30    17   4    2.4571   419.3    4.614      26.655
2015    9       30    17  11    2.4560   419.1    4.616      26.632
2015    9       30    17  18    2.4548   418.9    4.617      26.610
2015    9       30    17  25    2.4536   418.7    4.619      26.587
2015    9       30    17  32    2.4524   418.5    4.620      26.564
2015    9       30    17  39    2.4512   418.3    4.621      26.540
2015    9       30    17  46    2.4501   418.1    4.623      26.516
2015    9       30    17  53    2.4489   417.9    4.624      26.492
2015    9       30    18   0    2.4476   417.7    4.625      26.468
2015    9       30    18   7    2.4464   417.5    4.626      26.443
2015    9       30    18  14    2.4452   417.3    4.627      26.419
2015    9       30    18  21    2.4440   417.1    4.628      26.394
2015    9       30    18  28    2.4427   416.9    4.629      26.369
2015    9       30    18  35    2.4415   416.7    4.630      26.344
2015    9       30    18  42    2.4402   416.5    4.631      26.319
2015    9       30    18  49    2.4390   416.3    4.632      26.293
2015    9       30    18  56    2.4377   416.1    4.633      26.268
2015    9       30    19   3    2.4364   415.9    4.634      26.242
2015    9       30    19  10    2.4352   415.7    4.635      26.216
2015    9       30    19  17    2.4339   415.5    4.635      26.190
2015    9       30    19  24    2.4327   415.4    4.636      26.165
2015    9       30    19  31    2.4314   415.2    4.637      26.139
2015    9       30    19  38    2.4301   415.0    4.638      26.113
2015    9       30    19  45    2.4288   414.8    4.639      26.087
2015    9       30    19  52    2.4276   414.6    4.640      26.061
2015    9       30    19  59    2.4263   414.4    4.641      26.035
2015    9       30    20   5    2.4250   414.2    4.642      26.009
2015    9       30    20  13    2.4237   414.0    4.643      25.983
2015    9       30    20  19    2.4224   413.8    4.644      25.957
2015    9       30    20  26    2.4211   413.6    4.645      25.931
2015    9       30    20  33    2.4199   413.4    4.646      25.905
2015    9       30    20  40    2.4186   413.2    4.647      25.879
2015    9       30    20  47    2.4173   413.0    4.648      25.853
2015    9       30    20  54    2.4160   412.8    4.649      25.827
2015    9       30    21   1    2.4148   412.6    4.650      25.801
2015    9       30    21   8    2.4135   412.4    4.652      25.775
2015    9       30    21  15    2.4123   412.2    4.653      25.749
2015    9       30    21  22    2.4110   412.0    4.654      25.723
2015    9       30    21  29    2.4097   411.8    4.655      25.697
2015    9       30    21  36    2.4085   411.6    4.657      25.671
2015    9       30    21  43    2.4073   411.4    4.658      25.645
2015    9       30    21  50    2.4060   411.2    4.660      25.619
2015    9       30    21  57    2.4048   411.0    4.661      25.594
2015    9       30    22   4    2.4036   410.8    4.663      25.568
2015    9       30    22  11    2.4024   410.6    4.664      25.543
2015    9       30    22  18    2.4012   410.3    4.666      25.518
2015    9       30    22  25    2.4001   410.1    4.668      25.493
2015    9       30    22  32    2.3989   409.9    4.670      25.468
2015    9       30    22  39    2.3978   409.7    4.672      25.444
2015    9       30    22  46    2.3967   409.5    4.674      25.419
2015    9       30    22  53    2.3956   409.3    4.676      25.395
2015    9       30    23   0    2.3945   409.1    4.678      25.372
2015    9       30    23   7    2.3935   408.9    4.681      25.348
2015    9       30    23  14    2.3924   408.7    4.683      25.325
2015    9       30    23  21    2.3914   408.5    4.686      25.303
2015    9       30    23  28    2.3904   408.3    4.688      25.280
2015    9       30    23  35    2.3894   408.0    4.691      25.258
2015    9       30    23  42    2.3885   407.8    4.693      25.236
2015    9       30    23  49    2.3875   407.6    4.696      25.215
2015    9       30    23  56    2.3866   407.4    4.699      25.194
2015   10        1     0   3    2.3856   407.2    4.701      25.173
2015   10        1     0  10    2.3847   407.0    4.704      25.151
2015   10        1     0  16    2.3837   406.8    4.707      25.130
2015   10        1     0  23    2.3828   406.6    4.710      25.108
2015   10        1     0  30    2.3818   406.4    4.712      25.087
2015   10        1     0  37    2.3809   406.2    4.715      25.065
2015   10        1     0  44    2.3799   406.0    4.718      25.044
2015   10        1     0  51    2.3790   405.8    4.721      25.022
2015   10        1     0  58    2.3780   405.6    4.723      25.000
2015   10        1     1   5    2.3770   405.4    4.726      24.978
2015   10        1     1  12    2.3760   405.2    4.728      24.956
2015   10        1     1  19    2.3750   405.0    4.731      24.933
2015   10        1     1  26    2.3739   404.8    4.734      24.911
2015   10        1     1  33    2.3729   404.5    4.736      24.888
2015   10        1     1  40    2.3718   404.3    4.738      24.865
2015   10        1     1  47    2.3708   404.1    4.741      24.841
2015   10        1     1  54    2.3697   403.9    4.743      24.818
2015   10        1     2   1    2.3686   403.7    4.745      24.794
2015   10        1     2   8    2.3676   403.5    4.748      24.770
2015   10        1     2  15    2.3665   403.3    4.750      24.746
2015   10        1     2  22    2.3654   403.1    4.752      24.722
2015   10        1     2  29    2.3643   402.9    4.754      24.697
2015   10        1     2  36    2.3632   402.7    4.756      24.673
2015   10        1     2  43    2.3622   402.5    4.758      24.648
2015   10        1     2  50    2.3611   402.3    4.760      24.623
2015   10        1     2  57    2.3600   402.0    4.762      24.598
2015   10        1     3   4    2.3590   401.8    4.764      24.573
2015   10        1     3  11    2.3579   401.6    4.765      24.548
2015   10        1     3  18    2.3568   401.4    4.767      24.523
2015   10        1     3  25    2.3558   401.2    4.769      24.498
2015   10        1     3  32    2.3548   401.0    4.771      24.473
2015   10        1     3  39    2.3537   400.8    4.772      24.448
2015   10        1     3  46    2.3527   400.6    4.774      24.423
2015   10        1     3  53    2.3517   400.4    4.776      24.397
2015   10        1     4   0    2.3507   400.2    4.778      24.372
2015   10        1     4   7    2.3497   400.0    4.779      24.346
2015   10        1     4  14    2.3486   399.8    4.781      24.321
2015   10        1     4  21    2.3476   399.6    4.782      24.296
2015   10        1     4  28    2.3466   399.4    4.784      24.270
2015   10        1     4  35    2.3456   399.1    4.786      24.244
2015   10        1     4  42    2.3446   398.9    4.787      24.218
2015   10        1     4  49    2.3436   398.7    4.788      24.192
2015   10        1     4  56    2.3426   398.5    4.790      24.166
2015   10        1     5   3    2.3416   398.3    4.791      24.139
2015   10        1     5   9    2.3406   398.1    4.793      24.113
2015   10        1     5  16    2.3396   397.9    4.794      24.086
2015   10        1     5  23    2.3386   397.7    4.795      24.059
2015   10        1     5  30    2.3375   397.5    4.797      24.032
2015   10        1     5  37    2.3365   397.3    4.798      24.005
2015   10        1     5  44    2.3356   397.1    4.800      23.978
2015   10        1     5  51    2.3346   396.9    4.801      23.951
2015   10        1     5  58    2.3336   396.6    4.802      23.924
2015   10        1     6   5    2.3326   396.4    4.804      23.898
2015   10        1     6  12    2.3316   396.2    4.805      23.870
2015   10        1     6  19    2.3306   396.0    4.807      23.844
2015   10        1     6  26    2.3297   395.8    4.808      23.817
2015   10        1     6  33    2.3287   395.6    4.810      23.791
2015   10        1     6  40    2.3278   395.4    4.812      23.764
2015   10        1     6  47    2.3269   395.2    4.813      23.738
2015   10        1     6  54    2.3260   395.0    4.815      23.712
2015   10        1     7   1    2.3251   394.8    4.817      23.687
2015   10        1     7   8    2.3242   394.5    4.819      23.661
2015   10        1     7  15    2.3233   394.3    4.821      23.635
2015   10        1     7  22    2.3224   394.1    4.823      23.610
2015   10        1     7  29    2.3216   393.9    4.825      23.585
2015   10        1     7  36    2.3207   393.7    4.827      23.560
2015   10        1     7  43    2.3199   393.5    4.829      23.535
2015   10        1     7  50    2.3190   393.3    4.832      23.510
2015   10        1     7  57    2.3182   393.1    4.834      23.486
2015   10        1     8   4    2.3173   392.9    4.836      23.461
2015   10        1     8  11    2.3165   392.6    4.839      23.436
2015   10        1     8  18    2.3156   392.4    4.841      23.412
2015   10        1     8  24    2.3148   392.2    4.844      23.387
2015   10        1     8  31    2.3139   392.0    4.846      23.363
2015   10        1     8  38    2.3131   391.8    4.849      23.338
2015   10        1     8  45    2.3122   391.6    4.851      23.314
2015   10        1     8  52    2.3114   391.4    4.854      23.289
2015   10        1     8  59    2.3105   391.1    4.857      23.264
2015   10        1     9   6    2.3096   390.9    4.859      23.240
2015   10        1     9  13    2.3088   390.7    4.862      23.215
2015   10        1     9  20    2.3079   390.5    4.864      23.190
2015   10        1     9  27    2.3071   390.3    4.867      23.165
2015   10        1     9  34    2.3062   390.0    4.870      23.141
2015   10        1     9  41    2.3054   389.8    4.873      23.116
2015   10        1     9  48    2.3045   389.6    4.876      23.091
2015   10        1     9  55    2.3037   389.4    4.878      23.066
2015   10        1    10   2    2.3029   389.1    4.881      23.042
2015   10        1    10   9    2.3021   388.9    4.884      23.017
2015   10        1    10  16    2.3013   388.7    4.887      22.993
2015   10        1    10  23    2.3006   388.5    4.890      22.969
2015   10        1    10  30    2.2999   388.2    4.894      22.945
2015   10        1    10  37    2.2991   388.0    4.897      22.921
2015   10        1    10  44    2.2985   387.8    4.900      22.898
2015   10        1    10  51    2.2978   387.6    4.904      22.874
2015   10        1    10  58    2.2972   387.3    4.907      22.851
2015   10        1    11   5    2.2966   387.1    4.911      22.829
2015   10        1    11  12    2.2960   386.9    4.915      22.806
2015   10        1    11  19    2.2954   386.7    4.918      22.784
2015   10        1    11  26    2.2949   386.4    4.922      22.762
2015   10        1    11  33    2.2944   386.2    4.926      22.740
2015   10        1    11  40    2.2939   386.0    4.930      22.719
2015   10        1    11  47    2.2934   385.8    4.934      22.698
2015   10        1    11  54    2.2930   385.5    4.938      22.677
2015   10        1    12   1    2.2925   385.3    4.943      22.655
2015   10        1    12   8    2.2921   385.1    4.947      22.635
2015   10        1    12  15    2.2917   384.9    4.951      22.614
2015   10        1    12  22    2.2913   384.7    4.955      22.593
2015   10        1    12  29    2.2909   384.4    4.959      22.572
2015   10        1    12  36    2.2905   384.2    4.964      22.552
2015   10        1    12  43    2.2901   384.0    4.968      22.530
2015   10        1    12  50    2.2896   383.8    4.972      22.510
2015   10        1    12  57    2.2892   383.6    4.976      22.488
2015   10        1    13   4    2.2888   383.3    4.980      22.468
2015   10        1    13  11    2.2884   383.1    4.984      22.446
2015   10        1    13  18    2.2880   382.9    4.988      22.425
2015   10        1    13  25    2.2875   382.7    4.992      22.404
2015   10        1    13  32    2.2871   382.5    4.996      22.382
2015   10        1    13  39    2.2867   382.2    5.000      22.361
2015   10        1    13  46    2.2862   382.0    5.004      22.339
2015   10        1    13  53    2.2858   381.8    5.008      22.317
2015   10        1    13  59    2.2854   381.6    5.012      22.295
2015   10        1    14   6    2.2850   381.3    5.015      22.273
2015   10        1    14  13    2.2845   381.1    5.019      22.251
2015   10        1    14  20    2.2841   380.9    5.023      22.229
2015   10        1    14  27    2.2837   380.7    5.026      22.206
2015   10        1    14  34    2.2833   380.5    5.030      22.184
2015   10        1    14  41    2.2829   380.3    5.034      22.161
2015   10        1    14  48    2.2824   380.0    5.037      22.139
2015   10        1    14  55    2.2820   379.8    5.041      22.116
2015   10        1    15   2    2.2816   379.6    5.044      22.093
2015   10        1    15   9    2.2813   379.4    5.048      22.070
2015   10        1    15  16    2.2809   379.2    5.051      22.047
2015   10        1    15  23    2.2805   378.9    5.054      22.024
2015   10        1    15  30    2.2801   378.7    5.058      22.001
2015   10        1    15  37    2.2797   378.5    5.061      21.978
2015   10        1    15  44    2.2794   378.3    5.065      21.954
2015   10        1    15  51    2.2790   378.0    5.068      21.931
2015   10        1    15  58    2.2786   377.8    5.071      21.907
2015   10        1    16   5    2.2783   377.6    5.075      21.884
2015   10        1    16  12    2.2779   377.4    5.078      21.860
2015   10        1    16  19    2.2776   377.2    5.081      21.836
2015   10        1    16  26    2.2773   376.9    5.085      21.812
2015   10        1    16  33    2.2770   376.7    5.088      21.788
2015   10        1    16  40    2.2767   376.5    5.091      21.764
2015   10        1    16  47    2.2763   376.3    5.095      21.740
2015   10        1    16  54    2.2761   376.0    5.098      21.716
2015   10        1    17   1    2.2758   375.8    5.102      21.692
2015   10        1    17   8    2.2755   375.6    5.106      21.668
2015   10        1    17  15    2.2753   375.4    5.109      21.644
2015   10        1    17  22    2.2751   375.1    5.113      21.620
2015   10        1    17  29    2.2749   374.9    5.117      21.597
2015   10        1    17  36    2.2747   374.7    5.121      21.573
2015   10        1    17  43    2.2746   374.4    5.125      21.550
2015   10        1    17  50    2.2744   374.2    5.129      21.526
2015   10        1    17  57    2.2743   374.0    5.134      21.503
2015   10        1    18   4    2.2743   373.8    5.138      21.481
2015   10        1    18  11    2.2742   373.5    5.143      21.458
2015   10        1    18  18    2.2742   373.3    5.148      21.436
2015   10        1    18  24    2.2742   373.1    5.153      21.414
2015   10        1    18  32    2.2743   372.8    5.158      21.392
2015   10        1    18  38    2.2744   372.6    5.163      21.371
2015   10        1    18  45    2.2745   372.4    5.168      21.350
2015   10        1    18  52    2.2746   372.2    5.174      21.329
2015   10        1    18  59    2.2748   371.9    5.180      21.309
2015   10        1    19   6    2.2750   371.7    5.185      21.289
2015   10        1    19  13    2.2753   371.5    5.191      21.269
2015   10        1    19  20    2.2756   371.3    5.197      21.250
2015   10        1    19  27    2.2759   371.0    5.204      21.231
2015   10        1    19  34    2.2762   370.8    5.210      21.212
2015   10        1    19  41    2.2766   370.6    5.217      21.193
2015   10        1    19  48    2.2770   370.4    5.223      21.175
2015   10        1    19  55    2.2774   370.1    5.230      21.157
2015   10        1    20   2    2.2778   369.9    5.237      21.140
2015   10        1    20   9    2.2783   369.7    5.244      21.122
2015   10        1    20  16    2.2787   369.5    5.251      21.105
2015   10        1    20  23    2.2792   369.2    5.258      21.087
2015   10        1    20  30    2.2797   369.0    5.265      21.070
2015   10        1    20  37    2.2802   368.8    5.272      21.053
2015   10        1    20  44    2.2807   368.6    5.280      21.036
2015   10        1    20  51    2.2812   368.4    5.287      21.019
2015   10        1    20  58    2.2818   368.1    5.294      21.003
2015   10        1    21   5    2.2823   367.9    5.302      20.986
2015   10        1    21  12    2.2829   367.7    5.309      20.969
2015   10        1    21  19    2.2835   367.5    5.316      20.953
2015   10        1    21  26    2.2841   367.2    5.324      20.936
2015   10        1    21  33    2.2847   367.0    5.331      20.920
2015   10        1    21  40    2.2853   366.8    5.339      20.903
2015   10        1    21  47    2.2859   366.6    5.346      20.887
2015   10        1    21  54    2.2866   366.4    5.354      20.870
2015   10        1    22   1    2.2872   366.1    5.361      20.854
2015   10        1    22   8    2.2879   365.9    5.369      20.838
2015   10        1    22  15    2.2886   365.7    5.376      20.822
2015   10        1    22  21    2.2893   365.5    5.384      20.805
2015   10        1    22  28    2.2900   365.3    5.391      20.789
2015   10        1    22  35    2.2908   365.0    5.399      20.773
2015   10        1    22  42    2.2915   364.8    5.406      20.757
2015   10        1    22  49    2.2923   364.6    5.414      20.741
2015   10        1    22  56    2.2930   364.4    5.421      20.725
2015   10        1    23   3    2.2938   364.2    5.429      20.709
2015   10        1    23  10    2.2946   363.9    5.436      20.693
2015   10        1    23  17    2.2954   363.7    5.444      20.677
2015   10        1    23  24    2.2963   363.5    5.451      20.661
2015   10        1    23  31    2.2971   363.3    5.459      20.645
2015   10        1    23  38    2.2980   363.1    5.466      20.629
2015   10        1    23  45    2.2988   362.9    5.474      20.614
2015   10        1    23  52    2.2997   362.6    5.481      20.598
2015   10        1    23  59    2.3006   362.4    5.489      20.582
2015   10        2     0   6    2.3016   362.2    5.496      20.567
2015   10        2     0  13    2.3025   362.0    5.504      20.551
2015   10        2     0  20    2.3035   361.8    5.512      20.536
2015   10        2     0  27    2.3045   361.6    5.519      20.521
2015   10        2     0  34    2.3055   361.3    5.527      20.506
2015   10        2     0  41    2.3065   361.1    5.535      20.491
2015   10        2     0  48    2.3076   360.9    5.543      20.476
2015   10        2     0  55    2.3086   360.7    5.551      20.461
2015   10        2     1   2    2.3098   360.5    5.559      20.446
2015   10        2     1   9    2.3109   360.3    5.567      20.432
2015   10        2     1  16    2.3120   360.1    5.575      20.417
2015   10        2     1  23    2.3132   359.8    5.583      20.403
2015   10        2     1  30    2.3144   359.6    5.592      20.389
2015   10        2     1  37    2.3156   359.4    5.600      20.375
2015   10        2     1  44    2.3169   359.2    5.608      20.362
2015   10        2     1  51    2.3182   359.0    5.617      20.348
2015   10        2     1  58    2.3195   358.8    5.626      20.335
2015   10        2     2   5    2.3209   358.6    5.634      20.322
2015   10        2     2  12    2.3222   358.3    5.643      20.309
2015   10        2     2  19    2.3237   358.1    5.652      20.297
2015   10        2     2  26    2.3251   357.9    5.661      20.284
2015   10        2     2  33    2.3266   357.7    5.671      20.272
2015   10        2     2  40    2.3281   357.5    5.680      20.260
2015   10        2     2  47    2.3296   357.3    5.689      20.248
2015   10        2     2  54    2.3312   357.1    5.699      20.237
2015   10        2     3   1    2.3327   356.9    5.708      20.226
2015   10        2     3   8    2.3344   356.7    5.718      20.215
2015   10        2     3  15    2.3360   356.5    5.728      20.204
2015   10        2     3  22    2.3377   356.3    5.738      20.193
2015   10        2     3  29    2.3394   356.0    5.748      20.183
2015   10        2     3  36    2.3411   355.8    5.758      20.173
2015   10        2     3  43    2.3429   355.6    5.769      20.163
2015   10        2     3  50    2.3447   355.4    5.779      20.154
2015   10        2     3  56    2.3465   355.2    5.790      20.144
2015   10        2     4   3    2.3483   355.0    5.800      20.135
2015   10        2     4  10    2.3502   354.8    5.811      20.126
2015   10        2     4  17    2.3521   354.6    5.822      20.117
2015   10        2     4  24    2.3540   354.4    5.833      20.109
2015   10        2     4  31    2.3559   354.2    5.844      20.100
2015   10        2     4  38    2.3579   354.0    5.855      20.092
2015   10        2     4  45    2.3598   353.8    5.866      20.084
2015   10        2     4  52    2.3618   353.6    5.877      20.076
2015   10        2     4  59    2.3639   353.4    5.888      20.068
2015   10        2     5   6    2.3659   353.2    5.900      20.061
2015   10        2     5  13    2.3680   353.0    5.911      20.053
2015   10        2     5  20    2.3700   352.8    5.922      20.046
2015   10        2     5  27    2.3721   352.6    5.934      20.039
2015   10        2     5  34    2.3742   352.4    5.945      20.032
2015   10        2     5  41    2.3764   352.2    5.957      20.025
2015   10        2     5  48    2.3785   352.1    5.969      20.018
2015   10        2     5  55    2.3807   351.9    5.980      20.011
2015   10        2     6   2    2.3829   351.7    5.992      20.005
2015   10        2     6   9    2.3851   351.5    6.004      19.998
2015   10        2     6  16    2.3873   351.3    6.016      19.992
2015   10        2     6  23    2.3896   351.1    6.028      19.986
2015   10        2     6  30    2.3919   350.9    6.039      19.980
2015   10        2     6  37    2.3942   350.7    6.051      19.974
2015   10        2     6  44    2.3965   350.5    6.063      19.968
2015   10        2     6  51    2.3988   350.3    6.076      19.962
2015   10        2     6  57    2.4011   350.1    6.088      19.957
2015   10        2     7   4    2.4035   349.9    6.100      19.952
2015   10        2     7  11    2.4059   349.7    6.112      19.947
2015   10        2     7  18    2.4084   349.6    6.124      19.942
2015   10        2     7  25    2.4108   349.4    6.137      19.938
2015   10        2     7  32    2.4133   349.2    6.149      19.933
2015   10        2     7  39    2.4158   349.0    6.162      19.929
2015   10        2     7  46    2.4184   348.8    6.174      19.925
2015   10        2     7  53    2.4209   348.6    6.187      19.921
2015   10        2     8   0    2.4235   348.4    6.200      19.917
2015   10        2     8   7    2.4261   348.2    6.213      19.914
2015   10        2     8  14    2.4288   348.0    6.226      19.911
2015   10        2     8  21    2.4315   347.9    6.239      19.908
2015   10        2     8  28    2.4342   347.7    6.252      19.906
2015   10        2     8  35    2.4369   347.5    6.265      19.903
2015   10        2     8  42    2.4397   347.3    6.279      19.901
2015   10        2     8  49    2.4425   347.1    6.292      19.900
2015   10        2     8  56    2.4454   346.9    6.306      19.898
2015   10        2     9   3    2.4482   346.8    6.319      19.897
2015   10        2     9  10    2.4512   346.6    6.333      19.896
2015   10        2     9  17    2.4541   346.4    6.347      19.895
2015   10        2     9  24    2.4571   346.2    6.361      19.895
2015   10        2     9  31    2.4601   346.0    6.375      19.895
2015   10        2     9  38    2.4631   345.9    6.389      19.895
2015   10        2     9  45    2.4662   345.7    6.403      19.895
2015   10        2     9  52    2.4693   345.5    6.418      19.896
2015   10        2     9  59    2.4724   345.3    6.432      19.897
2015   10        2    10   6    2.4756   345.2    6.447      19.898
2015   10        2    10  13    2.4787   345.0    6.461      19.899
2015   10        2    10  20    2.4820   344.8    6.476      19.901
2015   10        2    10  27    2.4852   344.6    6.491      19.903
2015   10        2    10  34    2.4885   344.5    6.506      19.905
2015   10        2    10  41    2.4918   344.3    6.521      19.907
2015   10        2    10  48    2.4951   344.1    6.536      19.910
2015   10        2    10  55    2.4985   343.9    6.551      19.912
2015   10        2    11   2    2.5018   343.8    6.567      19.915
2015   10        2    11   9    2.5052   343.6    6.582      19.918
2015   10        2    11  16    2.5087   343.4    6.597      19.922
2015   10        2    11  23    2.5121   343.3    6.613      19.925
2015   10        2    11  30    2.5156   343.1    6.628      19.929
2015   10        2    11  37    2.5191   342.9    6.644      19.933
2015   10        2    11  44    2.5226   342.8    6.660      19.937
2015   10        2    11  51    2.5261   342.6    6.675      19.941
2015   10        2    11  58    2.5297   342.5    6.691      19.945
2015   10        2    12   4    2.5333   342.3    6.707      19.950
2015   10        2    12  11    2.5369   342.1    6.723      19.955
2015   10        2    12  18    2.5405   342.0    6.739      19.960
2015   10        2    12  25    2.5442   341.8    6.755      19.965
2015   10        2    12  32    2.5478   341.6    6.771      19.970
2015   10        2    12  39    2.5516   341.5    6.787      19.975
2015   10        2    12  46    2.5553   341.3    6.803      19.981
2015   10        2    12  53    2.5590   341.2    6.819      19.986
2015   10        2    13   0    2.5628   341.0    6.835      19.992
2015   10        2    13   7    2.5666   340.9    6.852      19.998
2015   10        2    13  14    2.5704   340.7    6.868      20.004
2015   10        2    13  21    2.5743   340.5    6.885      20.010
2015   10        2    13  28    2.5781   340.4    6.901      20.017
2015   10        2    13  35    2.5820   340.2    6.917      20.023
2015   10        2    13  42    2.5859   340.1    6.934      20.030
2015   10        2    13  49    2.5899   339.9    6.951      20.037
2015   10        2    13  56    2.5938   339.8    6.967      20.044
2015   10        2    14   3    2.5979   339.6    6.984      20.051
2015   10        2    14  10    2.6019   339.5    7.001      20.059
2015   10        2    14  17    2.6059   339.3    7.018      20.066
2015   10        2    14  24    2.6100   339.2    7.035      20.074
2015   10        2    14  31    2.6142   339.0    7.052      20.082
2015   10        2    14  38    2.6183   338.9    7.069      20.091
2015   10        2    14  45    2.6225   338.7    7.086      20.099
2015   10        2    14  52    2.6267   338.6    7.104      20.108
2015   10        2    14  59    2.6310   338.4    7.121      20.117
2015   10        2    15   6    2.6352   338.3    7.139      20.126
2015   10        2    15  13    2.6396   338.1    7.156      20.136
2015   10        2    15  20    2.6439   338.0    7.174      20.145
2015   10        2    15  27    2.6483   337.8    7.192      20.155
2015   10        2    15  34    2.6527   337.7    7.210      20.166
2015   10        2    15  41    2.6572   337.5    7.228      20.176
2015   10        2    15  48    2.6616   337.4    7.246      20.187
2015   10        2    15  55    2.6662   337.3    7.265      20.198
2015   10        2    16   2    2.6707   337.1    7.283      20.209
2015   10        2    16   9    2.6753   337.0    7.302      20.221
2015   10        2    16  16    2.6800   336.8    7.320      20.233
2015   10        2    16  23    2.6847   336.7    7.339      20.245
2015   10        2    16  30    2.6894   336.6    7.358      20.258
2015   10        2    16  37    2.6941   336.4    7.378      20.271
2015   10        2    16  44    2.6989   336.3    7.397      20.284
2015   10        2    16  51    2.7037   336.2    7.416      20.297
2015   10        2    16  58    2.7086   336.0    7.436      20.311
2015   10        2    17   5    2.7135   335.9    7.456      20.326
2015   10        2    17  11    2.7184   335.8    7.476      20.340
2015   10        2    17  18    2.7234   335.6    7.496      20.355
2015   10        2    17  25    2.7284   335.5    7.516      20.370
2015   10        2    17  32    2.7334   335.4    7.537      20.386
2015   10        2    17  39    2.7385   335.2    7.557      20.402
2015   10        2    17  46    2.7436   335.1    7.578      20.419
2015   10        2    17  53    2.7488   335.0    7.599      20.435
2015   10        2    18   0    2.7540   334.9    7.620      20.452
2015   10        2    18   7    2.7592   334.7    7.641      20.470
2015   10        2    18  14    2.7645   334.6    7.663      20.488
2015   10        2    18  21    2.7698   334.5    7.685      20.506
2015   10        2    18  28    2.7752   334.4    7.706      20.524
2015   10        2    18  35    2.7805   334.3    7.728      20.543
2015   10        2    18  42    2.7860   334.1    7.750      20.563
2015   10        2    18  49    2.7914   334.0    7.772      20.582
2015   10        2    18  56    2.7969   333.9    7.795      20.602
2015   10        2    19   3    2.8024   333.8    7.817      20.623
2015   10        2    19  10    2.8080   333.7    7.840      20.643
2015   10        2    19  17    2.8136   333.6    7.863      20.664
2015   10        2    19  24    2.8192   333.5    7.886      20.686
2015   10        2    19  31    2.8249   333.3    7.908      20.707
2015   10        2    19  38    2.8306   333.2    7.932      20.729
2015   10        2    19  45    2.8363   333.1    7.955      20.752
2015   10        2    19  52    2.8421   333.0    7.978      20.774
2015   10        2    19  59    2.8479   332.9    8.001      20.797
2015   10        2    20   6    2.8537   332.8    8.025      20.820
2015   10        2    20  12    2.8596   332.7    8.048      20.843
2015   10        2    20  19    2.8655   332.6    8.072      20.866
2015   10        2    20  26    2.8714   332.5    8.095      20.890
2015   10        2    20  33    2.8773   332.4    8.119      20.914
2015   10        2    20  40    2.8833   332.3    8.143      20.938
2015   10        2    20  47    2.8893   332.2    8.166      20.962
2015   10        2    20  54    2.8953   332.1    8.190      20.987
2015   10        2    21   1    2.9014   332.0    8.214      21.012
2015   10        2    21   8    2.9074   331.9    8.238      21.036
2015   10        2    21  15    2.9136   331.8    8.262      21.061
2015   10        2    21  22    2.9196   331.7    8.285      21.086
2015   10        2    21  29    2.9258   331.6    8.309      21.112
2015   10        2    21  36    2.9320   331.6    8.333      21.137
2015   10        2    21  43    2.9382   331.5    8.357      21.163
2015   10        2    21  50    2.9444   331.4    8.380      21.189
2015   10        2    21  57    2.9507   331.3    8.404      21.215
2015   10        2    22   4    2.9569   331.2    8.428      21.241
2015   10        2    22  11    2.9632   331.1    8.452      21.268
2015   10        2    22  18    2.9695   331.0    8.475      21.294
2015   10        2    22  25    2.9759   331.0    8.499      21.321
2015   10        2    22  32    2.9822   330.9    8.523      21.348
2015   10        2    22  39    2.9887   330.8    8.547      21.375
2015   10        2    22  46    2.9950   330.7    8.570      21.402
2015   10        2    22  53    3.0015   330.6    8.594      21.429
2015   10        2    23   0    3.0080   330.6    8.618      21.457
2015   10        2    23   7    3.0145   330.5    8.642      21.484
2015   10        2    23  14    3.0210   330.4    8.665      21.512
2015   10        2    23  21    3.0276   330.3    8.689      21.540
2015   10        2    23  28    3.0342   330.2    8.713      21.568
2015   10        2    23  35    3.0408   330.2    8.737      21.597
2015   10        2    23  42    3.0475   330.1    8.761      21.626
2015   10        2    23  49    3.0542   330.0    8.785      21.655
2015   10        2    23  56    3.0609   330.0    8.809      21.684
2015   10        3     0   3    3.0677   329.9    8.834      21.713
2015   10        3     0  10    3.0745   329.8    8.858      21.743
2015   10        3     0  17    3.0813   329.7    8.883      21.773
2015   10        3     0  24    3.0882   329.7    8.907      21.803
2015   10        3     0  31    3.0951   329.6    8.932      21.834
2015   10        3     0  38    3.1020   329.5    8.956      21.864
2015   10        3     0  45    3.1090   329.5    8.981      21.895
2015   10        3     0  52    3.1160   329.4    9.006      21.926
2015   10        3     0  59    3.1231   329.4    9.032      21.958
2015   10        3     1   6    3.1301   329.3    9.057      21.990
2015   10        3     1  13    3.1373   329.2    9.082      22.022
2015   10        3     1  20    3.1444   329.2    9.108      22.055
2015   10        3     1  27    3.1517   329.1    9.134      22.087
2015   10        3     1  34    3.1589   329.1    9.159      22.120
2015   10        3     1  41    3.1662   329.0    9.186      22.154
2015   10        3     1  47    3.1735   329.0    9.212      22.187
2015   10        3     1  54    3.1810   328.9    9.238      22.221
2015   10        3     2   1    3.1883   328.9    9.265      22.256
2015   10        3     2   8    3.1959   328.8    9.292      22.290
2015   10        3     2  15    3.2033   328.8    9.318      22.325
2015   10        3     2  22    3.2110   328.7    9.346      22.360
2015   10        3     2  29    3.2186   328.7    9.373      22.395
2015   10        3     2  36    3.2263   328.6    9.400      22.431
2015   10        3     2  43    3.2339   328.6    9.428      22.467
2015   10        3     2  50    3.2418   328.5    9.456      22.504
2015   10        3     2  57    3.2495   328.5    9.484      22.540
2015   10        3     3   4    3.2574   328.5    9.512      22.578
2015   10        3     3  11    3.2653   328.4    9.540      22.615
2015   10        3     3  18    3.2733   328.4    9.568      22.653
2015   10        3     3  25    3.2812   328.3    9.596      22.691
2015   10        3     3  32    3.2892   328.3    9.625      22.730
2015   10        3     3  39    3.2971   328.3    9.653      22.769
2015   10        3     3  46    3.3052   328.3    9.681      22.809
2015   10        3     3  53    3.3131   328.2    9.709      22.849
2015   10        3     4   0    3.3212   328.2    9.737      22.890
2015   10        3     4   7    3.3291   328.2    9.765      22.931
2015   10        3     4  14    3.3372   328.2    9.792      22.973
2015   10        3     4  21    3.3452   328.1    9.820      23.015
2015   10        3     4  28    3.3532   328.1    9.847      23.057
2015   10        3     4  34    3.3612   328.1    9.874      23.100
2015   10        3     4  42    3.3693   328.1    9.901      23.142
2015   10        3     4  48    3.3772   328.1    9.927      23.185
2015   10        3     4  55    3.3853   328.0    9.954      23.228
2015   10        3     5   2    3.3933   328.0    9.980      23.271
2015   10        3     5   9    3.4013   328.0   10.007      23.314
2015   10        3     5  16    3.4093   328.0   10.033      23.357
2015   10        3     5  23    3.4174   328.0   10.059      23.400
2015   10        3     5  30    3.4254   327.9   10.084      23.442
2015   10        3     5  37    3.4335   327.9   10.110      23.485
2015   10        3     5  44    3.4416   327.9   10.135      23.528
2015   10        3     5  51    3.4497   327.9   10.161      23.570
2015   10        3     5  58    3.4578   327.9   10.186      23.612
2015   10        3     6   5    3.4659   327.9   10.211      23.654
2015   10        3     6  12    3.4741   327.9   10.236      23.696
2015   10        3     6  19    3.4823   327.8   10.262      23.737
2015   10        3     6  26    3.4904   327.8   10.286      23.779
2015   10        3     6  33    3.4987   327.8   10.311      23.820
2015   10        3     6  40    3.5068   327.8   10.336      23.861
2015   10        3     6  47    3.5152   327.8   10.361      23.902
2015   10        3     6  54    3.5234   327.8   10.386      23.943
2015   10        3     7   1    3.5318   327.8   10.411      23.983
2015   10        3     7   8    3.5401   327.8   10.435      24.024
2015   10        3     7  15    3.5486   327.8   10.460      24.065
2015   10        3     7  22    3.5570   327.7   10.485      24.105
2015   10        3     7  29    3.5655   327.7   10.510      24.146
2015   10        3     7  36    3.5740   327.7   10.535      24.186
2015   10        3     7  43    3.5827   327.7   10.560      24.227
2015   10        3     7  50    3.5913   327.7   10.585      24.268
2015   10        3     7  57    3.6000   327.7   10.610      24.308
2015   10        3     8   4    3.6087   327.7   10.635      24.349
2015   10        3     8  11    3.6176   327.7   10.661      24.390
2015   10        3     8  18    3.6265   327.7   10.687      24.431
2015   10        3     8  25    3.6355   327.7   10.713      24.473
2015   10        3     8  32    3.6445   327.7   10.739      24.514
2015   10        3     8  39    3.6537   327.7   10.765      24.556
2015   10        3     8  46    3.6629   327.7   10.792      24.598
2015   10        3     8  53    3.6723   327.7   10.819      24.641
2015   10        3     9   0    3.6816   327.7   10.846      24.683
2015   10        3     9   7    3.6911   327.7   10.874      24.726
2015   10        3     9  14    3.7007   327.7   10.902      24.770
2015   10        3     9  21    3.7104   327.7   10.931      24.814
2015   10        3     9  28    3.7201   327.7   10.960      24.858
2015   10        3     9  35    3.7300   327.7   10.989      24.904
2015   10        3     9  42    3.7399   327.7   11.018      24.950
2015   10        3     9  49    3.7499   327.8   11.048      24.997
2015   10        3     9  55    3.7599   327.8   11.078      25.045
2015   10        3    10   2    3.7700   327.8   11.108      25.094
2015   10        3    10   9    3.7800   327.8   11.139      25.144
2015   10        3    10  16    3.7902   327.8   11.169      25.195
2015   10        3    10  23    3.8002   327.9   11.199      25.247
2015   10        3    10  30    3.8104   327.9   11.230      25.301
2015   10        3    10  37    3.8204   327.9   11.260      25.355
2015   10        3    10  44    3.8304   328.0   11.290      25.412
2015   10        3    10  51    3.8404   328.0   11.319      25.469
2015   10        3    10  58    3.8504   328.1   11.348      25.527
2015   10        3    11   5    3.8602   328.1   11.376      25.586
2015   10        3    11  12    3.8702   328.2   11.405      25.646
2015   10        3    11  19    3.8799   328.2   11.432      25.705
2015   10        3    11  26    3.8897   328.2   11.459      25.764
2015   10        3    11  33    3.8994   328.3   11.485      25.823
2015   10        3    11  40    3.9091   328.3   11.512      25.881
2015   10        3    11  47    3.9187   328.4   11.537      25.939
2015   10        3    11  54    3.9284   328.4   11.563      25.997
2015   10        3    12   1    3.9380   328.5   11.588      26.054
2015   10        3    12   8    3.9476   328.5   11.613      26.111
2015   10        3    12  15    3.9572   328.5   11.637      26.167
2015   10        3    12  22    3.9668   328.6   11.662      26.223
2015   10        3    12  29    3.9764   328.6   11.686      26.278
2015   10        3    12  36    3.9861   328.7   11.710      26.334
2015   10        3    12  43    3.9957   328.7   11.734      26.388
2015   10        3    12  50    4.0054   328.8   11.758      26.443
2015   10        3    12  57    4.0150   328.8   11.782      26.496
2015   10        3    13   4    4.0248   328.8   11.806      26.550
2015   10        3    13  11    4.0345   328.9   11.830      26.603
2015   10        3    13  18    4.0444   328.9   11.854      26.656
2015   10        3    13  25    4.0542   329.0   11.878      26.708
2015   10        3    13  32    4.0642   329.0   11.902      26.760
2015   10        3    13  39    4.0741   329.1   11.926      26.811
2015   10        3    13  46    4.0842   329.1   11.950      26.863
2015   10        3    13  52    4.0942   329.1   11.974      26.914
2015   10        3    14   0    4.1045   329.2   11.999      26.965
2015   10        3    14   6    4.1147   329.2   12.023      27.016
2015   10        3    14  14    4.1252   329.3   12.048      27.067
2015   10        3    14  20    4.1356   329.3   12.073      27.118
2015   10        3    14  27    4.1463   329.4   12.099      27.169
2015   10        3    14  34    4.1569   329.4   12.125      27.220
2015   10        3    14  41    4.1679   329.5   12.152      27.272
2015   10        3    14  48    4.1788   329.5   12.178      27.323
2015   10        3    14  55    4.1900   329.6   12.206      27.376
2015   10        3    15   2    4.2013   329.6   12.234      27.428
2015   10        3    15   9    4.2129   329.7   12.263      27.481
2015   10        3    15  16    4.2245   329.8   12.293      27.534
2015   10        3    15  23    4.2364   329.8   12.323      27.589
2015   10        3    15  30    4.2484   329.9   12.354      27.644
2015   10        3    15  37    4.2607   330.0   12.385      27.701
2015   10        3    15  44    4.2730   330.0   12.417      27.759
2015   10        3    15  51    4.2857   330.1   12.451      27.818
2015   10        3    15  58    4.2984   330.2   12.484      27.878
2015   10        3    16   5    4.3113   330.3   12.518      27.940
2015   10        3    16  12    4.3242   330.3   12.552      28.003
2015   10        3    16  19    4.3374   330.4   12.587      28.068
2015   10        3    16  26    4.3504   330.5   12.622      28.135
2015   10        3    16  33    4.3636   330.6   12.657      28.204
2015   10        3    16  40    4.3766   330.7   12.691      28.274
2015   10        3    16  47    4.3898   330.8   12.725      28.346
2015   10        3    16  54    4.4028   330.9   12.759      28.420
2015   10        3    17   1    4.4159   331.0   12.792      28.495
2015   10        3    17   8    4.4287   331.1   12.825      28.570
2015   10        3    17  15    4.4417   331.2   12.858      28.645
2015   10        3    17  22    4.4543   331.3   12.890      28.719
2015   10        3    17  29    4.4671   331.4   12.921      28.794
2015   10        3    17  36    4.4796   331.5   12.951      28.868
2015   10        3    17  43    4.4920   331.6   12.982      28.943
2015   10        3    17  49    4.5043   331.8   13.011      29.017
2015   10        3    17  56    4.5165   331.9   13.039      29.093
2015   10        3    18   3    4.5285   332.0   13.067      29.168
2015   10        3    18  10    4.5404   332.1   13.094      29.244
2015   10        3    18  17    4.5522   332.2   13.120      29.320
2015   10        3    18  24    4.5640   332.4   13.146      29.396
2015   10        3    18  31    4.5756   332.5   13.171      29.471
2015   10        3    18  38    4.5872   332.6   13.195      29.547
2015   10        3    18  45    4.5986   332.7   13.219      29.621
2015   10        3    18  52    4.6100   332.8   13.242      29.694
2015   10        3    18  59    4.6213   333.0   13.265      29.767
2015   10        3    19   6    4.6326   333.1   13.288      29.839
2015   10        3    19  13    4.6437   333.2   13.309      29.910
2015   10        3    19  20    4.6549   333.3   13.331      29.981
2015   10        3    19  27    4.6660   333.5   13.352      30.051
2015   10        3    19  34    4.6771   333.6   13.374      30.121
2015   10        3    19  41    4.6882   333.7   13.395      30.190
2015   10        3    19  48    4.6993   333.9   13.416      30.259
2015   10        3    19  55    4.7103   334.0   13.437      30.327
2015   10        3    20   2    4.7215   334.1   13.458      30.395
2015   10        3    20   9    4.7325   334.2   13.479      30.462
2015   10        3    20  16    4.7437   334.4   13.500      30.530
2015   10        3    20  23    4.7548   334.5   13.521      30.597
2015   10        3    20  30    4.7660   334.6   13.542      30.664
2015   10        3    20  37    4.7772   334.8   13.563      30.730
2015   10        3    20  44    4.7886   334.9   13.585      30.797
2015   10        3    20  51    4.7999   335.0   13.606      30.864
2015   10        3    20  58    4.8114   335.2   13.629      30.931
2015   10        3    21   5    4.8229   335.3   13.651      30.997
2015   10        3    21  12    4.8346   335.4   13.674      31.065
2015   10        3    21  19    4.8463   335.6   13.698      31.133
2015   10        3    21  26    4.8583   335.7   13.722      31.202
2015   10        3    21  33    4.8703   335.9   13.747      31.271
2015   10        3    21  40    4.8826   336.0   13.774      31.342
2015   10        3    21  47    4.8950   336.2   13.801      31.413
2015   10        3    21  54    4.9077   336.3   13.829      31.485
2015   10        3    22   1    4.9206   336.5   13.858      31.559
2015   10        3    22   8    4.9338   336.6   13.889      31.635
2015   10        3    22  15    4.9471   336.8   13.921      31.712
2015   10        3    22  22    4.9610   337.0   13.956      31.791
2015   10        3    22  29    4.9750   337.1   13.991      31.872
2015   10        3    22  36    4.9895   337.3   14.029      31.956
2015   10        3    22  43    5.0041   337.5   14.068      32.042
2015   10        3    22  50    5.0192   337.7   14.108      32.133
2015   10        3    22  57    5.0345   337.9   14.150      32.228
2015   10        3    23   4    5.0502   338.1   14.194      32.326
2015   10        3    23  10    5.0660   338.3   14.238      32.425
2015   10        3    23  17    5.0822   338.5   14.284      32.530
2015   10        3    23  24    5.0983   338.7   14.329      32.639
2015   10        3    23  31    5.1147   339.0   14.375      32.753
2015   10        3    23  38    5.1308   339.2   14.421      32.871
2015   10        3    23  45    5.1469   339.5   14.465      32.993
2015   10        3    23  52    5.1626   339.7   14.508      33.118
2015   10        3    23  59    5.1781   340.0   14.549      33.248
2015   10        4     0   6    5.1931   340.2   14.588      33.379
2015   10        4     0  13    5.2078   340.5   14.625      33.509
2015   10        4     0  20    5.2221   340.7   14.659      33.636
2015   10        4     0  27    5.2361   341.0   14.691      33.763
2015   10        4     0  34    5.2496   341.2   14.721      33.885
2015   10        4     0  41    5.2628   341.5   14.749      34.005
2015   10        4     0  48    5.2755   341.7   14.774      34.120
2015   10        4     0  55    5.2879   342.0   14.797      34.234
2015   10        4     1   2    5.2999   342.2   14.819      34.344
2015   10        4     1   9    5.3117   342.4   14.839      34.452
2015   10        4     1  16    5.3230   342.7   14.857      34.557
2015   10        4     1  23    5.3341   342.9   14.873      34.659
2015   10        4     1  30    5.3449   343.1   14.888      34.758
2015   10        4     1  37    5.3555   343.4   14.902      34.856
2015   10        4     1  44    5.3657   343.6   14.914      34.950
2015   10        4     1  51    5.3758   343.8   14.925      35.043
2015   10        4     1  57    5.3856   344.1   14.935      35.133
2015   10        4     2   4    5.3953   344.3   14.944      35.221
2015   10        4     2  11    5.4047   344.5   14.952      35.307
2015   10        4     2  18    5.4139   344.7   14.959      35.392
2015   10        4     2  25    5.4230   345.0   14.965      35.474
2015   10        4     2  32    5.4319   345.2   14.970      35.556
2015   10        4     2  39    5.4407   345.4   14.975      35.635
2015   10        4     2  46    5.4494   345.7   14.979      35.714
2015   10        4     2  53    5.4579   345.9   14.983      35.790
2015   10        4     3   0    5.4664   346.1   14.986      35.867
2015   10        4     3   7    5.4748   346.3   14.989      35.941
2015   10        4     3  14    5.4831   346.6   14.992      36.015
2015   10        4     3  21    5.4913   346.8   14.994      36.088
2015   10        4     3  28    5.4995   347.0   14.996      36.161
2015   10        4     3  35    5.5076   347.2   14.998      36.232
2015   10        4     3  42    5.5158   347.5   15.000      36.304
2015   10        4     3  49    5.5238   347.7   15.002      36.374
2015   10        4     3  56    5.5319   347.9   15.003      36.445
2015   10        4     4   3    5.5400   348.1   15.005      36.515
2015   10        4     4  10    5.5481   348.4   15.007      36.585
2015   10        4     4  17    5.5561   348.6   15.010      36.655
2015   10        4     4  24    5.5643   348.8   15.012      36.725
2015   10        4     4  31    5.5724   349.0   15.015      36.795
2015   10        4     4  38    5.5805   349.3   15.018      36.866
2015   10        4     4  45    5.5888   349.5   15.021      36.937
2015   10        4     4  52    5.5971   349.7   15.026      37.008
2015   10        4     4  59    5.6054   350.0   15.030      37.079
2015   10        4     5   6    5.6139   350.2   15.036      37.152
2015   10        4     5  13    5.6224   350.4   15.042      37.224
2015   10        4     5  20    5.6312   350.7   15.049      37.298
2015   10        4     5  27    5.6400   350.9   15.057      37.373
2015   10        4     5  34    5.6491   351.2   15.067      37.449
2015   10        4     5  41    5.6584   351.4   15.078      37.526
2015   10        4     5  48    5.6679   351.6   15.090      37.605
2015   10        4     5  55    5.6777   351.9   15.104      37.685
2015   10        4     6   2    5.6877   352.1   15.120      37.767
2015   10        4     6   9    5.6980   352.4   15.138      37.852
2015   10        4     6  16    5.7086   352.7   15.157      37.939
2015   10        4     6  23    5.7195   352.9   15.178      38.030
2015   10        4     6  30    5.7307   353.2   15.202      38.124
2015   10        4     6  37    5.7422   353.5   15.227      38.221
2015   10        4     6  44    5.7541   353.8   15.254      38.323
2015   10        4     6  51    5.7661   354.1   15.284      38.428
2015   10        4     6  58    5.7783   354.4   15.316      38.537
2015   10        4     7   5    5.7907   354.7   15.349      38.650
2015   10        4     7  11    5.8031   355.0   15.385      38.769
2015   10        4     7  18    5.8156   355.3   15.421      38.895
2015   10        4     7  25    5.8280   355.6   15.459      39.029
2015   10        4     7  32    5.8403   356.0   15.496      39.169
2015   10        4     7  39    5.8526   356.3   15.536      39.314
2015   10        4     7  46    5.8644   356.7   15.575      39.462
2015   10        4     7  53    5.8761   357.0   15.615      39.616
2015   10        4     8   0    5.8873   357.4   15.654      39.773
2015   10        4     8   7    5.8980   357.8   15.693      39.937
2015   10        4     8  14    5.9081   358.2   15.730      40.102
2015   10        4     8  21    5.9176   358.6   15.765      40.270
2015   10        4     8  28    5.9264   359.0   15.796      40.441
2015   10        4     8  35    5.9348   359.4   15.825      40.616
2015   10        4     8  42    5.9425   359.8   15.850      40.789
2015   10        4     8  49    5.9497   360.2   15.873      40.959
2015   10        4     8  56    5.9562   360.7   15.892      41.123
2015   10        4     9   3    5.9623   361.1   15.908      41.286
2015   10        4     9  10    5.9678   361.5   15.921      41.443
2015   10        4     9  17    5.9729   361.9   15.931      41.598
2015   10        4     9  24    5.9775   362.3   15.939      41.748
2015   10        4     9  31    5.9817   362.7   15.944      41.898
2015   10        4     9  38    5.9855   363.1   15.947      42.042
2015   10        4     9  45    5.9891   363.5   15.948      42.186
2015   10        4     9  51    5.9924   363.8   15.948      42.326
2015   10        4     9  59    5.9956   364.2   15.946      42.466
2015   10        4    10   5    5.9985   364.6   15.944      42.603
2015   10        4    10  12    6.0012   365.0   15.940      42.740
2015   10        4    10  19    6.0038   365.4   15.936      42.875
2015   10        4    10  26    6.0063   365.7   15.931      43.010
2015   10        4    10  33    6.0086   366.1   15.926      43.143
2015   10        4    10  40    6.0110   366.4   15.920      43.277
2015   10        4    10  47    6.0132   366.8   15.914      43.409
2015   10        4    10  54    6.0156   367.1   15.909      43.542
2015   10        4    11   1    6.0179   367.5   15.903      43.674
2015   10        4    11   8    6.0204   367.8   15.898      43.807
2015   10        4    11  15    6.0230   368.2   15.894      43.939
2015   10        4    11  22    6.0256   368.5   15.890      44.072
2015   10        4    11  29    6.0284   368.8   15.886      44.205
2015   10        4    11  36    6.0312   369.2   15.884      44.339
2015   10        4    11  43    6.0341   369.5   15.882      44.473
2015   10        4    11  50    6.0371   369.9   15.882      44.607
2015   10        4    11  57    6.0402   370.2   15.883      44.740
2015   10        4    12   4    6.0434   370.5   15.886      44.877
2015   10        4    12  11    6.0467   370.9   15.890      45.014
2015   10        4    12  18    6.0500   371.2   15.896      45.154
2015   10        4    12  25    6.0535   371.6   15.903      45.295
2015   10        4    12  32    6.0570   371.9   15.912      45.438
2015   10        4    12  39    6.0606   372.2   15.923      45.580
2015   10        4    12  46    6.0643   372.6   15.935      45.724
2015   10        4    12  53    6.0680   372.9   15.949      45.871
2015   10        4    13   0    6.0718   373.3   15.962      46.022
2015   10        4    13   7    6.0755   373.7   15.976      46.175
2015   10        4    13  14    6.0793   374.0   15.989      46.330
2015   10        4    13  21    6.0829   374.4   16.000      46.487
2015   10        4    13  28    6.0867   374.9   16.009      46.649
2015   10        4    13  35    6.0903   375.3   16.016      46.808
2015   10        4    13  42    6.0939   375.7   16.019      46.963
2015   10        4    13  49    6.0974   376.1   16.020      47.112
2015   10        4    13  56    6.1010   376.5   16.017      47.258
2015   10        4    14   3    6.1044   376.9   16.012      47.397
2015   10        4    14  10    6.1079   377.4   16.003      47.531
2015   10        4    14  17    6.1113   377.8   15.992      47.659
2015   10        4    14  24    6.1146   378.2   15.977      47.782
2015   10        4    14  31    6.1179   378.6   15.960      47.900
2015   10        4    14  38    6.1211   379.1   15.941      48.014
2015   10        4    14  45    6.1242   379.5   15.919      48.123
2015   10        4    14  52    6.1272   379.9   15.895      48.227
2015   10        4    14  58    6.1301   380.4   15.868      48.328
2015   10        4    15   5    6.1329   380.8   15.840      48.425
2015   10        4    15  12    6.1356   381.2   15.810      48.519
2015   10        4    15  19    6.1383   381.7   15.778      48.610
2015   10        4    15  26    6.1410   382.1   15.744      48.698
2015   10        4    15  33    6.1436   382.6   15.707      48.784
2015   10        4    15  40    6.1461   383.1   15.669      48.868
2015   10        4    15  47    6.1486   383.5   15.629      48.951
2015   10        4    15  54    6.1508   384.0   15.586      49.031
2015   10        4    16   1    6.1530   384.4   15.540      49.110
2015   10        4    16   8    6.1548   384.9   15.491      49.187
2015   10        4    16  15    6.1563   385.3   15.439      49.258
2015   10        4    16  22    6.1575   385.8   15.385      49.322
2015   10        4    16  29    6.1584   386.2   15.327      49.378
2015   10        4    16  36    6.1589   386.6   15.267      49.426
2015   10        4    16  43    6.1591   387.0   15.204      49.467
2015   10        4    16  50    6.1588   387.5   15.138      49.503
2015   10        4    16  57    6.1580   387.9   15.068      49.531
2015   10        4    17   4    6.1570   388.3   14.996      49.546
2015   10        4    17  11    6.1557   388.6   14.922      49.550
2015   10        4    17  18    6.1544   389.0   14.849      49.544
2015   10        4    17  25    6.1531   389.4   14.774      49.531
2015   10        4    17  32    6.1521   389.7   14.700      49.511
2015   10        4    17  39    6.1515   390.0   14.628      49.482
2015   10        4    17  46    6.1516   390.3   14.559      49.448
2015   10        4    17  53    6.1521   390.7   14.492      49.418
2015   10        4    18   0    6.1534   391.0   14.427      49.394
2015   10        4    18   7    6.1551   391.3   14.363      49.373
2015   10        4    18  14    6.1575   391.7   14.301      49.356
2015   10        4    18  21    6.1603   392.0   14.240      49.341
2015   10        4    18  27    6.1638   392.4   14.182      49.330
2015   10        4    18  35    6.1676   392.7   14.124      49.321
2015   10        4    18  41    6.1720   393.1   14.067      49.315
2015   10        4    18  48    6.1766   393.4   14.011      49.310
2015   10        4    18  55    6.1816   393.8   13.956      49.308
2015   10        4    19   2    6.1869   394.1   13.902      49.307
2015   10        4    19   9    6.1925   394.5   13.848      49.309
2015   10        4    19  16    6.1982   394.9   13.794      49.311
2015   10        4    19  23    6.2039   395.3   13.741      49.315
2015   10        4    19  30    6.2094   395.7   13.688      49.318
2015   10        4    19  37    6.2148   396.0   13.635      49.324
2015   10        4    19  44    6.2197   396.5   13.581      49.330
2015   10        4    19  51    6.2242   396.9   13.528      49.338
2015   10        4    19  58    6.2279   397.3   13.474      49.346
2015   10        4    20   5    6.2312   397.7   13.419      49.355
2015   10        4    20  12    6.2336   398.1   13.363      49.363
2015   10        4    20  19    6.2355   398.6   13.307      49.375
2015   10        4    20  26    6.2365   399.0   13.249      49.388
2015   10        4    20  33    6.2372   399.5   13.189      49.403
2015   10        4    20  40    6.2369   400.0   13.128      49.417
2015   10        4    20  47    6.2363   400.4   13.066      49.431
2015   10        4    20  54    6.2348   400.9   13.002      49.442
2015   10        4    21   1    6.2330   401.3   12.938      49.453
2015   10        4    21   8    6.2304   401.8   12.870      49.465
2015   10        4    21  15    6.2275   402.3   12.802      49.475
2015   10        4    21  22    6.2239   402.7   12.732      49.478
2015   10        4    21  29    6.2200   403.2   12.661      49.476
2015   10        4    21  36    6.2155   403.6   12.591      49.469
2015   10        4    21  43    6.2109   404.0   12.521      49.461
2015   10        4    21  50    6.2057   404.4   12.452      49.450
2015   10        4    21  57    6.2006   404.7   12.386      49.434
2015   10        4    22   4    6.1949   405.1   12.322      49.414
2015   10        4    22  11    6.1893   405.4   12.261      49.396
2015   10        4    22  18    6.1832   405.7   12.203      49.381
2015   10        4    22  25    6.1772   406.0   12.149      49.368
2015   10        4    22  32    6.1708   406.3   12.096      49.359
2015   10        4    22  38    6.1646   406.5   12.047      49.352
2015   10        4    22  45    6.1581   406.8   12.000      49.347
2015   10        4    22  52    6.1517   407.1   11.955      49.344
2015   10        4    22  59    6.1450   407.3   11.913      49.344
2015   10        4    23   6    6.1385   407.5   11.873      49.349
2015   10        4    23  13    6.1317   407.7   11.834      49.358
2015   10        4    23  20    6.1251   408.0   11.798      49.369
2015   10        4    23  27    6.1183   408.2   11.763      49.384
2015   10        4    23  34    6.1118   408.4   11.730      49.407
2015   10        4    23  41    6.1050   408.6   11.699      49.437
2015   10        4    23  48    6.0985   408.8   11.668      49.478
2015   10        4    23  55    6.0915   409.1   11.638      49.529
2015   10        5     0   2    6.0845   409.3   11.609      49.589
2015   10        5     0   9    6.0770   409.6   11.580      49.659
2015   10        5     0  16    6.0695   409.8   11.552      49.738
2015   10        5     0  23    6.0613   410.1   11.524      49.832
2015   10        5     0  30    6.0528   410.4   11.496      49.936
2015   10        5     0  37    6.0436   410.8   11.468      50.048
2015   10        5     0  44    6.0343   411.1   11.441      50.164
2015   10        5     0  51    6.0242   411.5   11.413      50.283
2015   10        5     0  58    6.0140   411.8   11.385      50.401
2015   10        5     1   5    6.0031   412.1   11.356      50.522
2015   10        5     1  12    5.9919   412.5   11.326      50.635
2015   10        5     1  19    5.9801   412.8   11.296      50.739
2015   10        5     1  26    5.9681   413.1   11.265      50.833
2015   10        5     1  33    5.9554   413.4   11.233      50.920
2015   10        5     1  40    5.9427   413.7   11.200      50.998
2015   10        5     1  47    5.9293   413.9   11.167      51.072
2015   10        5     1  54    5.9158   414.2   11.133      51.138
2015   10        5     2   1    5.9018   414.5   11.099      51.199
2015   10        5     2   8    5.8877   414.8   11.064      51.254
2015   10        5     2  15    5.8730   415.1   11.029      51.303
2015   10        5     2  22    5.8582   415.4   10.993      51.347
2015   10        5     2  29    5.8429   415.7   10.956      51.386
2015   10        5     2  36    5.8274   415.9   10.920      51.418
2015   10        5     2  43    5.8114   416.2   10.882      51.445
2015   10        5     2  50    5.7953   416.5   10.845      51.465
2015   10        5     2  57    5.7786   416.8   10.807      51.479
2015   10        5     3   4    5.7618   417.1   10.769      51.486
2015   10        5     3  11    5.7445   417.4   10.730      51.487
2015   10        5     3  18    5.7270   417.7   10.691      51.482
2015   10        5     3  25    5.7089   418.0   10.652      51.471
2015   10        5     3  31    5.6907   418.3   10.612      51.455
2015   10        5     3  38    5.6718   418.6   10.572      51.432
2015   10        5     3  45    5.6527   418.9   10.532      51.404
2015   10        5     3  52    5.6330   419.2   10.492      51.371
2015   10        5     3  59    5.6131   419.5   10.451      51.334
2015   10        5     4   6    5.5925   419.9   10.410      51.294
2015   10        5     4  13    5.5717   420.2   10.369      51.251
2015   10        5     4  20    5.5502   420.6   10.327      51.204
2015   10        5     4  27    5.5284   421.0   10.284      51.157
2015   10        5     4  34    5.5059   421.3   10.241      51.112
2015   10        5     4  41    5.4832   421.7   10.196      51.068
2015   10        5     4  48    5.4596   422.1   10.150      51.024
2015   10        5     4  55    5.4357   422.6   10.103      50.979
2015   10        5     5   2    5.4108   423.0   10.053      50.931
2015   10        5     5   9    5.3856   423.4   10.001      50.879
2015   10        5     5  16    5.3595   423.9    9.947      50.821
2015   10        5     5  23    5.3331   424.3    9.890      50.756
2015   10        5     5  30    5.3058   424.7    9.830      50.678
2015   10        5     5  37    5.2782   425.2    9.767      50.589
2015   10        5     5  44    5.2498   425.7    9.700      50.487
2015   10        5     5  51    5.2211   426.1    9.630      50.367
2015   10        5     5  58    5.1917   426.6    9.555      50.226
2015   10        5     6   5    5.1621   427.0    9.478      50.066
2015   10        5     6  12    5.1319   427.5    9.398      49.883
2015   10        5     6  18    5.1015   427.9    9.315      49.678
2015   10        5     6  25    5.0707   428.4    9.228      49.454
2015   10        5     6  32    5.0398   428.8    9.139      49.213
2015   10        5     6  39    5.0085   429.3    9.048      48.940
2015   10        5     6  46    4.9775   429.7    8.956      48.644
2015   10        5     6  53    4.9464   430.1    8.863      48.324
2015   10        5     7   0    4.9158   430.4    8.772      47.990
2015   10        5     7   7    4.8853   430.8    8.681      47.644
2015   10        5     7  14    4.8555   431.1    8.593      47.287
2015   10        5     7  21    4.8261   431.5    8.508      46.918
2015   10        5     7  28    4.7975   431.8    8.427      46.565
2015   10        5     7  35    4.7694   432.1    8.348      46.218
2015   10        5     7  42    4.7419   432.4    8.272      45.886
2015   10        5     7  49    4.7148   432.7    8.197      45.559
2015   10        5     7  56    4.6883   433.1    8.126      45.244
2015   10        5     8   3    4.6623   433.4    8.057      44.934
2015   10        5     8  10    4.6369   433.7    7.990      44.635
2015   10        5     8  17    4.6119   433.9    7.925      44.341
2015   10        5     8  24    4.5875   434.2    7.863      44.060
2015   10        5     8  31    4.5636   434.5    7.803      43.783
2015   10        5     8  38    4.5404   434.8    7.745      43.517
2015   10        5     8  45    4.5176   435.0    7.688      43.256
2015   10        5     8  52    4.4954   435.3    7.634      43.005
2015   10        5     8  59    4.4738   435.5    7.581      42.758
2015   10        5     9   6    4.4528   435.7    7.531      42.521
2015   10        5     9  13    4.4325   435.9    7.482      42.289
2015   10        5     9  20    4.4128   436.1    7.436      42.066
2015   10        5     9  27    4.3938   436.3    7.390      41.847
2015   10        5     9  34    4.3753   436.4    7.347      41.638
2015   10        5     9  41    4.3576   436.6    7.306      41.433
2015   10        5     9  48    4.3404   436.7    7.266      41.237
2015   10        5     9  55    4.3240   436.8    7.228      41.045
2015   10        5    10   2    4.3081   436.9    7.192      40.861
2015   10        5    10   9    4.2928   437.0    7.158      40.682
2015   10        5    10  16    4.2781   437.1    7.125      40.511
2015   10        5    10  23    4.2640   437.2    7.094      40.344
2015   10        5    10  30    4.2504   437.2    7.064      40.184
2015   10        5    10  37    4.2374   437.3    7.036      40.028
2015   10        5    10  44    4.2249   437.3    7.010      39.878
2015   10        5    10  51    4.2129   437.4    6.985      39.732
2015   10        5    10  58    4.2013   437.4    6.962      39.592
2015   10        5    11   5    4.1902   437.4    6.940      39.455
2015   10        5    11  12    4.1795   437.4    6.920      39.324
2015   10        5    11  19    4.1693   437.3    6.901      39.196
2015   10        5    11  26    4.1595   437.3    6.883      39.072
2015   10        5    11  33    4.1501   437.3    6.867      38.952
2015   10        5    11  39    4.1410   437.2    6.852      38.837
2015   10        5    11  46    4.1323   437.2    6.837      38.724
2015   10        5    11  53    4.1239   437.1    6.824      38.618
2015   10        5    12   0    4.1159   437.1    6.812      38.515
2015   10        5    12   7    4.1081   437.0    6.801      38.417
2015   10        5    12  14    4.1007   437.0    6.791      38.323
2015   10        5    12  21    4.0935   436.9    6.781      38.235
2015   10        5    12  28    4.0866   436.8    6.772      38.151
2015   10        5    12  35    4.0799   436.8    6.764      38.072
2015   10        5    12  42    4.0735   436.7    6.756      37.998
2015   10        5    12  49    4.0672   436.6    6.749      37.928
2015   10        5    12  56    4.0612   436.5    6.742      37.862
2015   10        5    13   3    4.0553   436.5    6.735      37.802
2015   10        5    13  10    4.0497   436.4    6.729      37.745
2015   10        5    13  17    4.0443   436.3    6.724      37.692
2015   10        5    13  24    4.0391   436.2    6.718      37.642
2015   10        5    13  31    4.0341   436.1    6.714      37.595
2015   10        5    13  38    4.0293   436.1    6.709      37.550
2015   10        5    13  45    4.0247   436.0    6.705      37.507
2015   10        5    13  52    4.0203   435.9    6.701      37.464
2015   10        5    13  59    4.0161   435.8    6.698      37.422
2015   10        5    14   6    4.0121   435.7    6.696      37.379
2015   10        5    14  13    4.0082   435.6    6.694      37.337
2015   10        5    14  20    4.0046   435.5    6.692      37.294
2015   10        5    14  26    4.0011   435.3    6.692      37.252
2015   10        5    14  33    3.9978   435.2    6.691      37.209
2015   10        5    14  40    3.9946   435.1    6.692      37.167
2015   10        5    14  47    3.9917   435.0    6.692      37.124
2015   10        5    14  54    3.9889   434.9    6.694      37.083
2015   10        5    15   1    3.9863   434.8    6.696      37.043
2015   10        5    15   8    3.9839   434.6    6.698      37.005
2015   10        5    15  15    3.9817   434.5    6.701      36.968
2015   10        5    15  22    3.9797   434.4    6.704      36.933
2015   10        5    15  29    3.9779   434.3    6.708      36.899
2015   10        5    15  36    3.9762   434.2    6.712      36.868
2015   10        5    15  43    3.9746   434.1    6.716      36.838
2015   10        5    15  50    3.9732   433.9    6.720      36.812
2015   10        5    15  57    3.9719   433.8    6.725      36.788
2015   10        5    16   4    3.9707   433.7    6.729      36.767
2015   10        5    16  11    3.9697   433.6    6.733      36.748
2015   10        5    16  18    3.9686   433.4    6.737      36.731
2015   10        5    16  25    3.9677   433.3    6.741      36.715
2015   10        5    16  32    3.9668   433.2    6.745      36.700
2015   10        5    16  39    3.9661   433.1    6.749      36.686
2015   10        5    16  46    3.9653   432.9    6.753      36.670
2015   10        5    16  53    3.9646   432.8    6.756      36.653
2015   10        5    17   0    3.9639   432.7    6.760      36.636
2015   10        5    17   7    3.9632   432.6    6.763      36.617
2015   10        5    17  14    3.9625   432.4    6.767      36.599
2015   10        5    17  21    3.9619   432.3    6.770      36.579
2015   10        5    17  28    3.9612   432.2    6.774      36.560
2015   10        5    17  35    3.9606   432.1    6.777      36.540
2015   10        5    17  42    3.9600   432.0    6.781      36.519
2015   10        5    17  49    3.9594   431.8    6.784      36.498
2015   10        5    17  56    3.9588   431.7    6.788      36.477
2015   10        5    18   3    3.9582   431.6    6.791      36.456
2015   10        5    18  10    3.9576   431.5    6.795      36.435
2015   10        5    18  17    3.9570   431.3    6.798      36.414
2015   10        5    18  24    3.9564   431.2    6.801      36.393
2015   10        5    18  31    3.9558   431.1    6.805      36.371
2015   10        5    18  38    3.9551   431.0    6.808      36.351
2015   10        5    18  45    3.9545   430.9    6.811      36.329
2015   10        5    18  52    3.9539   430.8    6.815      36.309
2015   10        5    18  59    3.9532   430.6    6.818      36.288
2015   10        5    19   6    3.9525   430.5    6.821      36.267
2015   10        5    19  13    3.9518   430.4    6.824      36.246
2015   10        5    19  20    3.9511   430.3    6.827      36.226
2015   10        5    19  27    3.9503   430.2    6.830      36.206
2015   10        5    19  34    3.9496   430.1    6.832      36.185
2015   10        5    19  41    3.9488   430.0    6.835      36.164
2015   10        5    19  47    3.9480   429.9    6.837      36.144
2015   10        5    19  54    3.9473   429.8    6.839      36.123
2015   10        5    20   1    3.9465   429.7    6.842      36.101
2015   10        5    20   8    3.9457   429.6    6.844      36.079
2015   10        5    20  15    3.9449   429.5    6.846      36.058
2015   10        5    20  22    3.9441   429.4    6.848      36.035
2015   10        5    20  29    3.9433   429.3    6.850      36.013
2015   10        5    20  36    3.9425   429.2    6.851      35.991
2015   10        5    20  43    3.9417   429.1    6.853      35.968
2015   10        5    20  50    3.9409   429.0    6.855      35.946
2015   10        5    20  57    3.9401   428.9    6.856      35.923
2015   10        5    21   4    3.9394   428.8    6.858      35.900
2015   10        5    21  11    3.9386   428.7    6.859      35.877
2015   10        5    21  18    3.9379   428.6    6.860      35.854
2015   10        5    21  25    3.9372   428.5    6.862      35.831
2015   10        5    21  32    3.9365   428.4    6.863      35.807
2015   10        5    21  39    3.9358   428.3    6.864      35.784
2015   10        5    21  46    3.9352   428.2    6.866      35.761
2015   10        5    21  53    3.9345   428.1    6.867      35.738
2015   10        5    22   0    3.9339   428.0    6.868      35.714
2015   10        5    22   7    3.9333   427.9    6.869      35.691
2015   10        5    22  14    3.9328   427.8    6.870      35.668
2015   10        5    22  21    3.9323   427.7    6.871      35.645
2015   10        5    22  28    3.9318   427.6    6.873      35.621
2015   10        5    22  34    3.9313   427.5    6.874      35.599
2015   10        5    22  42    3.9309   427.4    6.875      35.576
2015   10        5    22  48    3.9305   427.3    6.876      35.553
2015   10        5    22  55    3.9302   427.2    6.878      35.531
2015   10        5    23   2    3.9299   427.1    6.879      35.509
2015   10        5    23   9    3.9297   427.0    6.881      35.487
2015   10        5    23  16    3.9295   426.9    6.883      35.465
2015   10        5    23  23    3.9294   426.8    6.885      35.444
2015   10        5    23  30    3.9293   426.7    6.887      35.425
2015   10        5    23  37    3.9294   426.6    6.890      35.405
2015   10        5    23  44    3.9295   426.5    6.893      35.386
2015   10        5    23  51    3.9298   426.4    6.896      35.368
2015   10        5    23  58    3.9301   426.3    6.900      35.352
2015   10        6     0   5    3.9306   426.2    6.904      35.337
2015   10        6     0  12    3.9312   426.1    6.909      35.323
2015   10        6     0  19    3.9320   426.0    6.914      35.310
2015   10        6     0  26    3.9328   425.9    6.920      35.300
2015   10        6     0  33    3.9339   425.8    6.926      35.291
2015   10        6     0  40    3.9351   425.7    6.933      35.285
2015   10        6     0  47    3.9365   425.7    6.941      35.282
2015   10        6     0  54    3.9380   425.6    6.949      35.281
2015   10        6     1   1    3.9397   425.5    6.958      35.283
2015   10        6     1   8    3.9415   425.4    6.967      35.286
2015   10        6     1  15    3.9434   425.3    6.977      35.292
2015   10        6     1  22    3.9454   425.3    6.987      35.302
2015   10        6     1  29    3.9476   425.2    6.998      35.315
2015   10        6     1  36    3.9497   425.1    7.008      35.330
2015   10        6     1  43    3.9518   425.1    7.019      35.347
2015   10        6     1  50    3.9539   425.1    7.029      35.367
2015   10        6     1  57    3.9561   425.0    7.039      35.388
2015   10        6     2   4    3.9583   425.0    7.048      35.409
2015   10        6     2  11    3.9605   424.9    7.058      35.429
2015   10        6     2  18    3.9627   424.9    7.067      35.449
2015   10        6     2  25    3.9649   424.9    7.077      35.468
2015   10        6     2  32    3.9671   424.8    7.086      35.486
2015   10        6     2  39    3.9694   424.8    7.095      35.505
2015   10        6     2  46    3.9716   424.8    7.104      35.522
2015   10        6     2  53    3.9740   424.7    7.112      35.540
2015   10        6     3   0    3.9762   424.7    7.121      35.557
2015   10        6     3   7    3.9786   424.7    7.130      35.574
2015   10        6     3  14    3.9809   424.6    7.138      35.591
2015   10        6     3  21    3.9832   424.6    7.147      35.607
2015   10        6     3  28    3.9856   424.6    7.155      35.624
2015   10        6     3  35    3.9880   424.6    7.163      35.640
2015   10        6     3  41    3.9904   424.5    7.172      35.656
2015   10        6     3  48    3.9929   424.5    7.180      35.671
2015   10        6     3  55    3.9953   424.5    7.188      35.687
2015   10        6     4   2    3.9979   424.4    7.196      35.703
2015   10        6     4   9    4.0004   424.4    7.205      35.718
2015   10        6     4  16    4.0030   424.4    7.213      35.734
2015   10        6     4  23    4.0056   424.4    7.221      35.749
2015   10        6     4  30    4.0082   424.3    7.230      35.765
2015   10        6     4  37    4.0109   424.3    7.238      35.781
2015   10        6     4  44    4.0137   424.3    7.246      35.797
2015   10        6     4  51    4.0164   424.3    7.255      35.813
2015   10        6     4  58    4.0192   424.2    7.263      35.830
2015   10        6     5   5    4.0221   424.2    7.272      35.847
2015   10        6     5  12    4.0250   424.2    7.281      35.864
2015   10        6     5  19    4.0279   424.2    7.289      35.882
2015   10        6     5  26    4.0310   424.2    7.298      35.901
2015   10        6     5  33    4.0340   424.1    7.307      35.920
2015   10        6     5  40    4.0371   424.1    7.317      35.940
2015   10        6     5  47    4.0403   424.1    7.326      35.962
2015   10        6     5  54    4.0435   424.1    7.336      35.984
2015   10        6     6   1    4.0468   424.1    7.346      36.008
2015   10        6     6   8    4.0503   424.1    7.357      36.032
2015   10        6     6  15    4.0537   424.0    7.367      36.059
2015   10        6     6  22    4.0572   424.0    7.378      36.087
2015   10        6     6  29    4.0609   424.0    7.390      36.116
2015   10        6     6  36    4.0646   424.0    7.402      36.148
2015   10        6     6  43    4.0684   424.0    7.414      36.181
2015   10        6     6  50    4.0724   424.0    7.427      36.217
2015   10        6     6  57    4.0764   424.0    7.441      36.254
2015   10        6     7   4    4.0806   424.0    7.455      36.294
2015   10        6     7  11    4.0848   424.0    7.470      36.336
2015   10        6     7  18    4.0893   424.0    7.485      36.381
2015   10        6     7  25    4.0938   424.0    7.501      36.429
2015   10        6     7  32    4.0985   424.0    7.518      36.480
2015   10        6     7  39    4.1033   424.1    7.535      36.533
2015   10        6     7  46    4.1084   424.1    7.553      36.590
2015   10        6     7  53    4.1135   424.1    7.571      36.649
2015   10        6     8   0    4.1188   424.1    7.591      36.711
2015   10        6     8   7    4.1242   424.2    7.611      36.776
2015   10        6     8  14    4.1297   424.2    7.631      36.846
2015   10        6     8  20    4.1354   424.3    7.652      36.918
2015   10        6     8  28    4.1412   424.3    7.674      36.994
2015   10        6     8  34    4.1471   424.4    7.697      37.071
2015   10        6     8  41    4.1531   424.4    7.720      37.151
2015   10        6     8  48    4.1591   424.5    7.744      37.234
2015   10        6     8  55    4.1653   424.6    7.768      37.320
2015   10        6     9   2    4.1714   424.7    7.792      37.409
2015   10        6     9   9    4.1776   424.8    7.816      37.502
2015   10        6     9  16    4.1837   424.9    7.840      37.597
2015   10        6     9  23    4.1899   425.0    7.863      37.696
2015   10        6     9  30    4.1960   425.1    7.886      37.797
2015   10        6     9  37    4.2023   425.2    7.909      37.901
2015   10        6     9  44    4.2085   425.4    7.931      38.005
2015   10        6     9  51    4.2148   425.5    7.952      38.111
2015   10        6     9  58    4.2210   425.7    7.973      38.215
2015   10        6    10   5    4.2272   425.8    7.993      38.319
2015   10        6    10  12    4.2333   426.0    8.012      38.421
2015   10        6    10  19    4.2394   426.1    8.030      38.522
2015   10        6    10  26    4.2454   426.3    8.048      38.621
2015   10        6    10  33    4.2514   426.4    8.064      38.719
2015   10        6    10  40    4.2572   426.6    8.080      38.814
2015   10        6    10  47    4.2631   426.7    8.095      38.909
2015   10        6    10  54    4.2688   426.9    8.109      39.001
2015   10        6    11   1    4.2746   427.0    8.123      39.092
2015   10        6    11   8    4.2802   427.2    8.136      39.180
2015   10        6    11  15    4.2858   427.3    8.148      39.267
2015   10        6    11  22    4.2913   427.5    8.159      39.352
2015   10        6    11  29    4.2969   427.7    8.169      39.436
2015   10        6    11  35    4.3022   427.8    8.179      39.516
2015   10        6    11  42    4.3076   428.0    8.188      39.595
2015   10        6    11  49    4.3128   428.1    8.196      39.671
2015   10        6    11  56    4.3181   428.3    8.204      39.746
2015   10        6    12   3    4.3232   428.5    8.212      39.817
2015   10        6    12  10    4.3283   428.6    8.218      39.887
2015   10        6    12  17    4.3333   428.8    8.225      39.955
2015   10        6    12  24    4.3383   428.9    8.230      40.021
2015   10        6    12  31    4.3431   429.1    8.236      40.085
2015   10        6    12  38    4.3480   429.2    8.241      40.148
2015   10        6    12  45    4.3528   429.4    8.245      40.209
2015   10        6    12  52    4.3576   429.6    8.250      40.268
2015   10        6    12  59    4.3622   429.7    8.254      40.327
2015   10        6    13   6    4.3670   429.9    8.258      40.384
2015   10        6    13  13    4.3716   430.0    8.262      40.440
2015   10        6    13  20    4.3762   430.2    8.265      40.496
2015   10        6    13  27    4.3808   430.3    8.269      40.551
2015   10        6    13  34    4.3854   430.5    8.273      40.606
2015   10        6    13  41    4.3899   430.7    8.277      40.660
2015   10        6    13  48    4.3945   430.8    8.280      40.715
2015   10        6    13  55    4.3990   431.0    8.284      40.769
2015   10        6    14   2    4.4036   431.1    8.288      40.824
2015   10        6    14   9    4.4082   431.3    8.292      40.879
2015   10        6    14  16    4.4128   431.5    8.297      40.934
2015   10        6    14  23    4.4173   431.6    8.301      40.990
2015   10        6    14  30    4.4220   431.8    8.306      41.047
2015   10        6    14  37    4.4266   432.0    8.311      41.104
2015   10        6    14  44    4.4312   432.1    8.317      41.162
2015   10        6    14  51    4.4359   432.3    8.322      41.221
2015   10        6    14  58    4.4405   432.5    8.328      41.281
2015   10        6    15   5    4.4452   432.7    8.335      41.342
2015   10        6    15  12    4.4500   432.8    8.341      41.404
2015   10        6    15  19    4.4547   433.0    8.348      41.467
2015   10        6    15  26    4.4595   433.2    8.356      41.532
2015   10        6    15  33    4.4643   433.4    8.364      41.596
2015   10        6    15  40    4.4691   433.5    8.373      41.663
2015   10        6    15  47    4.4740   433.7    8.382      41.730
2015   10        6    15  54    4.4789   433.9    8.391      41.800
2015   10        6    16   1    4.4840   434.1    8.402      41.872
2015   10        6    16   8    4.4891   434.3    8.413      41.946
2015   10        6    16  15    4.4943   434.4    8.424      42.022
2015   10        6    16  22    4.4996   434.6    8.437      42.102
2015   10        6    16  29    4.5050   434.8    8.450      42.184
2015   10        6    16  36    4.5106   435.0    8.464      42.271
2015   10        6    16  43    4.5163   435.2    8.478      42.362
2015   10        6    16  50    4.5220   435.4    8.493      42.459
2015   10        6    16  56    4.5279   435.7    8.507      42.561
2015   10        6    17   3    4.5339   435.9    8.522      42.669
2015   10        6    17  10    4.5400   436.1    8.538      42.780
2015   10        6    17  17    4.5461   436.4    8.553      42.893
2015   10        6    17  24    4.5523   436.6    8.569      43.008
2015   10        6    17  31    4.5586   436.8    8.586      43.123
2015   10        6    17  38    4.5649   437.1    8.602      43.241
2015   10        6    17  45    4.5713   437.3    8.619      43.362
2015   10        6    17  52    4.5777   437.6    8.637      43.487
2015   10        6    17  59    4.5843   437.8    8.655      43.616
2015   10        6    18   6    4.5909   438.1    8.673      43.746
2015   10        6    18  13    4.5977   438.4    8.692      43.878
2015   10        6    18  20    4.6044   438.7    8.711      44.014
2015   10        6    18  27    4.6113   438.9    8.729      44.157
2015   10        6    18  34    4.6180   439.2    8.747      44.301
2015   10        6    18  41    4.6247   439.6    8.765      44.448
2015   10        6    18  48    4.6311   439.9    8.781      44.596
2015   10        6    18  55    4.6373   440.2    8.795      44.747
2015   10        6    19   2    4.6432   440.6    8.808      44.892
2015   10        6    19   9    4.6489   440.9    8.819      45.032
2015   10        6    19  16    4.6543   441.2    8.828      45.165
2015   10        6    19  23    4.6594   441.6    8.836      45.294
2015   10        6    19  29    4.6642   441.9    8.842      45.416
2015   10        6    19  36    4.6688   442.2    8.846      45.535
2015   10        6    19  43    4.6731   442.6    8.849      45.647
2015   10        6    19  50    4.6773   442.9    8.850      45.756
2015   10        6    19  57    4.6812   443.2    8.850      45.859
2015   10        6    20   4    4.6849   443.6    8.849      45.959
2015   10        6    20  11    4.6884   443.9    8.847      46.055
2015   10        6    20  18    4.6918   444.3    8.843      46.147
2015   10        6    20  25    4.6951   444.6    8.839      46.235
2015   10        6    20  32    4.6981   445.0    8.834      46.321
2015   10        6    20  39    4.7010   445.3    8.827      46.403
2015   10        6    20  46    4.7038   445.6    8.820      46.482
2015   10        6    20  53    4.7064   446.0    8.812      46.557
2015   10        6    21   0    4.7089   446.3    8.804      46.630
2015   10        6    21   7    4.7112   446.7    8.794      46.700
2015   10        6    21  14    4.7135   447.0    8.784      46.768
2015   10        6    21  21    4.7156   447.3    8.774      46.832
2015   10        6    21  28    4.7177   447.7    8.763      46.894
2015   10        6    21  35    4.7196   448.0    8.751      46.954
2015   10        6    21  42    4.7215   448.3    8.740      47.012
2015   10        6    21  49    4.7234   448.7    8.728      47.068
2015   10        6    21  56    4.7252   449.0    8.716      47.123
2015   10        6    22   3    4.7270   449.3    8.704      47.177
2015   10        6    22  10    4.7287   449.6    8.691      47.230
2015   10        6    22  17    4.7304   449.9    8.679      47.282
2015   10        6    22  24    4.7321   450.3    8.666      47.334
2015   10        6    22  31    4.7337   450.6    8.653      47.385
2015   10        6    22  38    4.7353   450.9    8.640      47.435
2015   10        6    22  45    4.7369   451.2    8.628      47.485
2015   10        6    22  52    4.7385   451.5    8.615      47.534
2015   10        6    22  59    4.7401   451.8    8.603      47.583
2015   10        6    23   6    4.7417   452.1    8.590      47.631
2015   10        6    23  13    4.7434   452.4    8.578      47.680
2015   10        6    23  20    4.7451   452.7    8.567      47.729
2015   10        6    23  27    4.7469   453.0    8.556      47.779
2015   10        6    23  34    4.7487   453.3    8.545      47.831
2015   10        6    23  41    4.7506   453.7    8.535      47.884
2015   10        6    23  48    4.7527   454.0    8.526      47.940
2015   10        6    23  55    4.7548   454.3    8.517      47.998
2015   10        7     0   2    4.7571   454.6    8.510      48.059
2015   10        7     0   9    4.7596   454.9    8.503      48.123
2015   10        7     0  16    4.7623   455.2    8.498      48.190
2015   10        7     0  23    4.7651   455.6    8.494      48.261
2015   10        7     0  30    4.7681   455.9    8.491      48.337
2015   10        7     0  37    4.7713   456.2    8.490      48.417
2015   10        7     0  44    4.7747   456.6    8.490      48.501
2015   10        7     0  50    4.7783   456.9    8.491      48.588
2015   10        7     0  57    4.7820   457.2    8.494      48.682
2015   10        7     1   4    4.7859   457.6    8.497      48.782
2015   10        7     1  11    4.7897   457.9    8.502      48.888
2015   10        7     1  18    4.7936   458.3    8.507      48.999
2015   10        7     1  25    4.7974   458.6    8.512      49.113
2015   10        7     1  32    4.8013   459.0    8.518      49.225
2015   10        7     1  39    4.8050   459.4    8.524      49.341
2015   10        7     1  46    4.8086   459.7    8.529      49.459
2015   10        7     1  53    4.8121   460.1    8.535      49.578
2015   10        7     2   0    4.8153   460.5    8.539      49.697
2015   10        7     2   7    4.8182   460.9    8.542      49.819
2015   10        7     2  14    4.8208   461.3    8.543      49.940
2015   10        7     2  21    4.8231   461.7    8.544      50.057
2015   10        7     2  28    4.8252   462.1    8.543      50.167
2015   10        7     2  35    4.8269   462.4    8.540      50.273
2015   10        7     2  42    4.8284   462.8    8.537      50.374
2015   10        7     2  49    4.8295   463.2    8.532      50.471
2015   10        7     2  56    4.8304   463.6    8.526      50.564
2015   10        7     3   3    4.8311   464.0    8.519      50.654
2015   10        7     3  10    4.8316   464.4    8.511      50.739
2015   10        7     3  17    4.8319   464.8    8.502      50.823
2015   10        7     3  24    4.8321   465.2    8.492      50.903
2015   10        7     3  31    4.8322   465.6    8.482      50.981
2015   10        7     3  37    4.8321   466.0    8.470      51.056
2015   10        7     3  45    4.8319   466.4    8.458      51.130
2015   10        7     3  51    4.8316   466.8    8.446      51.200
2015   10        7     3  58    4.8311   467.2    8.432      51.270
2015   10        7     4   5    4.8306   467.6    8.419      51.338
2015   10        7     4  12    4.8299   468.0    8.404      51.404
2015   10        7     4  19    4.8292   468.4    8.389      51.469
2015   10        7     4  26    4.8283   468.8    8.374      51.533
2015   10        7     4  33    4.8274   469.2    8.358      51.596
2015   10        7     4  40    4.8263   469.6    8.341      51.657
2015   10        7     4  47    4.8251   470.0    8.325      51.717
2015   10        7     4  54    4.8239   470.4    8.308      51.776
2015   10        7     5   1    4.8226   470.9    8.291      51.834
2015   10        7     5   8    4.8212   471.3    8.273      51.892
2015   10        7     5  15    4.8197   471.7    8.256      51.948
2015   10        7     5  22    4.8182   472.1    8.238      52.005
2015   10        7     5  29    4.8166   472.5    8.220      52.060
2015   10        7     5  36    4.8149   473.0    8.202      52.116
2015   10        7     5  43    4.8133   473.4    8.185      52.170
2015   10        7     5  50    4.8115   473.8    8.167      52.225
2015   10        7     5  57    4.8098   474.2    8.149      52.279
2015   10        7     6   4    4.8080   474.6    8.131      52.333
2015   10        7     6  11    4.8063   475.1    8.113      52.387
2015   10        7     6  18    4.8045   475.5    8.095      52.440
2015   10        7     6  25    4.8028   475.9    8.078      52.493
2015   10        7     6  32    4.8010   476.3    8.060      52.546
2015   10        7     6  39    4.7993   476.8    8.042      52.599
2015   10        7     6  46    4.7975   477.2    8.025      52.651
2015   10        7     6  53    4.7958   477.6    8.008      52.703
2015   10        7     7   0    4.7941   478.1    7.991      52.756
2015   10        7     7   7    4.7925   478.5    7.974      52.808
2015   10        7     7  14    4.7908   479.0    7.957      52.860
2015   10        7     7  21    4.7892   479.4    7.941      52.913
2015   10        7     7  28    4.7876   479.9    7.925      52.968
2015   10        7     7  35    4.7861   480.3    7.910      53.023
2015   10        7     7  42    4.7845   480.8    7.894      53.081
2015   10        7     7  49    4.7830   481.2    7.879      53.138
2015   10        7     7  56    4.7814   481.7    7.864      53.197
2015   10        7     8   3    4.7798   482.2    7.849      53.258
2015   10        7     8  10    4.7780   482.7    7.834      53.322
2015   10        7     8  17    4.7762   483.2    7.818      53.387
2015   10        7     8  24    4.7741   483.7    7.801      53.454
2015   10        7     8  31    4.7718   484.2    7.783      53.522
2015   10        7     8  38    4.7691   484.7    7.764      53.587
2015   10        7     8  44    4.7662   485.2    7.744      53.648
2015   10        7     8  51    4.7627   485.7    7.722      53.706
2015   10        7     8  58    4.7590   486.2    7.700      53.757
2015   10        7     9   5    4.7548   486.7    7.675      53.801
2015   10        7     9  12    4.7504   487.2    7.650      53.837
2015   10        7     9  19    4.7454   487.7    7.623      53.868
2015   10        7     9  26    4.7402   488.1    7.595      53.892
2015   10        7     9  33    4.7345   488.6    7.566      53.905
2015   10        7     9  40    4.7287   489.0    7.537      53.911
2015   10        7     9  47    4.7227   489.4    7.508      53.909
2015   10        7     9  54    4.7167   489.8    7.479      53.902
2015   10        7    10   1    4.7106   490.1    7.451      53.888
2015   10        7    10   8    4.7048   490.5    7.425      53.877
2015   10        7    10  15    4.6989   490.9    7.398      53.868
2015   10        7    10  22    4.6932   491.3    7.373      53.861
2015   10        7    10  29    4.6874   491.6    7.347      53.857
2015   10        7    10  36    4.6818   492.0    7.323      53.853
2015   10        7    10  43    4.6761   492.4    7.298      53.852
2015   10        7    10  50    4.6705   492.8    7.274      53.852
2015   10        7    10  57    4.6647   493.2    7.250      53.852
2015   10        7    11   4    4.6591   493.6    7.227      53.854
2015   10        7    11  11    4.6533   494.0    7.203      53.856
2015   10        7    11  18    4.6475   494.4    7.179      53.860
2015   10        7    11  25    4.6415   494.8    7.155      53.863
2015   10        7    11  32    4.6356   495.2    7.131      53.865
2015   10        7    11  39    4.6295   495.6    7.107      53.867
2015   10        7    11  46    4.6233   496.0    7.083      53.869
2015   10        7    11  53    4.6169   496.4    7.058      53.870
2015   10        7    12   0    4.6105   496.8    7.033      53.869
2015   10        7    12   7    4.6039   497.2    7.008      53.866
2015   10        7    12  14    4.5972   497.6    6.984      53.862
2015   10        7    12  21    4.5903   497.9    6.959      53.857
2015   10        7    12  28    4.5835   498.3    6.935      53.854
2015   10        7    12  35    4.5765   498.7    6.912      53.851
2015   10        7    12  42    4.5695   499.0    6.888      53.851
2015   10        7    12  49    4.5625   499.4    6.865      53.851
2015   10        7    12  56    4.5556   499.8    6.843      53.854
2015   10        7    13   3    4.5486   500.1    6.820      53.858
2015   10        7    13   9    4.5417   500.5    6.799      53.863
2015   10        7    13  16    4.5347   500.9    6.777      53.869
2015   10        7    13  23    4.5279   501.3    6.756      53.876
2015   10        7    13  30    4.5210   501.6    6.734      53.883
2015   10        7    13  37    4.5141   502.0    6.714      53.890
2015   10        7    13  44    4.5072   502.4    6.693      53.896
2015   10        7    13  51    4.5003   502.8    6.672      53.901
2015   10        7    13  58    4.4933   503.2    6.650      53.905
2015   10        7    14   5    4.4864   503.6    6.629      53.907
2015   10        7    14  12    4.4793   503.9    6.608      53.907
2015   10        7    14  19    4.4723   504.3    6.587      53.904
2015   10        7    14  26    4.4651   504.7    6.565      53.899
2015   10        7    14  33    4.4579   505.1    6.543      53.891
2015   10        7    14  40    4.4505   505.5    6.521      53.880
2015   10        7    14  47    4.4431   505.9    6.499      53.867
2015   10        7    14  54    4.4356   506.3    6.477      53.849
2015   10        7    15   1    4.4280   506.7    6.454      53.830
2015   10        7    15   8    4.4202   507.1    6.432      53.807
2015   10        7    15  15    4.4124   507.4    6.409      53.782
2015   10        7    15  22    4.4044   507.8    6.386      53.756
2015   10        7    15  29    4.3963   508.2    6.362      53.730
2015   10        7    15  36    4.3880   508.6    6.338      53.702
2015   10        7    15  43    4.3796   509.0    6.314      53.674
2015   10        7    15  50    4.3708   509.4    6.289      53.645
2015   10        7    15  57    4.3621   509.8    6.264      53.612
2015   10        7    16   4    4.3530   510.2    6.238      53.575
2015   10        7    16  11    4.3438   510.6    6.211      53.532
2015   10        7    16  18    4.3344   511.0    6.184      53.484
2015   10        7    16  25    4.3249   511.3    6.157      53.432
2015   10        7    16  32    4.3151   511.7    6.128      53.374
2015   10        7    16  38    4.3054   512.0    6.100      53.308
2015   10        7    16  45    4.2955   512.3    6.072      53.235
2015   10        7    16  52    4.2857   512.6    6.044      53.159
2015   10        7    16  59    4.2758   512.9    6.016      53.076
2015   10        7    17   6    4.2663   513.1    5.990      52.990
2015   10        7    17  13    4.2568   513.4    5.964      52.904
2015   10        7    17  20    4.2474   513.6    5.939      52.822
2015   10        7    17  27    4.2381   513.9    5.914      52.741
2015   10        7    17  34    4.2290   514.1    5.890      52.663
2015   10        7    17  41    4.2198   514.4    5.866      52.586
2015   10        7    17  48    4.2107   514.6    5.843      52.510
2015   10        7    17  55    4.2016   514.9    5.820      52.435
2015   10        7    18   2    4.1925   515.1    5.798      52.361
2015   10        7    18   9    4.1834   515.4    5.776      52.287
2015   10        7    18  16    4.1745   515.6    5.754      52.215
2015   10        7    18  23    4.1654   515.8    5.733      52.143
2015   10        7    18  30    4.1565   516.1    5.712      52.072
2015   10        7    18  37    4.1474   516.3    5.692      52.002
2015   10        7    18  44    4.1386   516.6    5.672      51.934
2015   10        7    18  51    4.1296   516.8    5.653      51.866
2015   10        7    18  58    4.1207   517.0    5.634      51.800
2015   10        7    19   5    4.1118   517.3    5.616      51.735
2015   10        7    19  12    4.1030   517.5    5.597      51.671
2015   10        7    19  19    4.0942   517.7    5.579      51.607
2015   10        7    19  26    4.0854   517.9    5.561      51.544
2015   10        7    19  33    4.0765   518.1    5.543      51.482
2015   10        7    19  40    4.0677   518.3    5.525      51.421
2015   10        7    19  47    4.0588   518.5    5.508      51.359
2015   10        7    19  54    4.0501   518.8    5.490      51.299
2015   10        7    20   1    4.0412   519.0    5.473      51.239
2015   10        7    20   8    4.0325   519.2    5.455      51.179
2015   10        7    20  15    4.0236   519.4    5.438      51.117
2015   10        7    20  22    4.0148   519.6    5.420      51.056
2015   10        7    20  29    4.0060   519.8    5.402      50.992
2015   10        7    20  36    3.9971   520.0    5.384      50.928
2015   10        7    20  43    3.9882   520.2    5.366      50.860
2015   10        7    20  50    3.9793   520.4    5.348      50.790
2015   10        7    20  57    3.9703   520.6    5.330      50.716
2015   10        7    21   4    3.9613   520.8    5.312      50.640
2015   10        7    21  11    3.9522   521.0    5.294      50.559
2015   10        7    21  18    3.9432   521.1    5.276      50.475
2015   10        7    21  25    3.9341   521.2    5.259      50.389
2015   10        7    21  32    3.9252   521.4    5.242      50.304
2015   10        7    21  39    3.9162   521.5    5.225      50.218
2015   10        7    21  45    3.9074   521.6    5.208      50.135
2015   10        7    21  52    3.8985   521.7    5.192      50.051
2015   10        7    21  59    3.8898   521.8    5.176      49.969
2015   10        7    22   6    3.8811   521.9    5.161      49.886
2015   10        7    22  13    3.8726   522.0    5.146      49.806
2015   10        7    22  20    3.8640   522.1    5.131      49.725
2015   10        7    22  27    3.8556   522.2    5.117      49.645
2015   10        7    22  34    3.8471   522.3    5.103      49.566
2015   10        7    22  41    3.8388   522.3    5.089      49.487
2015   10        7    22  48    3.8304   522.4    5.076      49.409
2015   10        7    22  55    3.8222   522.5    5.063      49.332
2015   10        7    23   2    3.8140   522.5    5.050      49.255
2015   10        7    23   9    3.8059   522.6    5.038      49.180
2015   10        7    23  16    3.7978   522.6    5.025      49.104
2015   10        7    23  23    3.7898   522.7    5.013      49.029
2015   10        7    23  30    3.7819   522.7    5.001      48.954
2015   10        7    23  37    3.7740   522.7    4.990      48.880
2015   10        7    23  44    3.7662   522.8    4.978      48.805
2015   10        7    23  51    3.7585   522.8    4.967      48.732
2015   10        7    23  58    3.7508   522.8    4.956      48.658
2015   10        8     0   5    3.7433   522.8    4.945      48.584
2015   10        8     0  12    3.7358   522.8    4.934      48.511
2015   10        8     0  18    3.7284   522.8    4.923      48.438
2015   10        8     0  25    3.7210   522.8    4.912      48.366
2015   10        8     0  32    3.7138   522.8    4.902      48.294
2015   10        8     0  39    3.7065   522.8    4.891      48.221
2015   10        8     0  46    3.6994   522.8    4.881      48.150
2015   10        8     0  53    3.6923   522.8    4.870      48.079
2015   10        8     1   0    3.6853   522.8    4.860      48.008
2015   10        8     1   7    3.6782   522.8    4.850      47.936
2015   10        8     1  14    3.6713   522.8    4.840      47.865
2015   10        8     1  21    3.6644   522.8    4.830      47.793
2015   10        8     1  28    3.6576   522.9    4.820      47.722
2015   10        8     1  35    3.6507   522.9    4.811      47.649
2015   10        8     1  42    3.6439   522.9    4.801      47.578
2015   10        8     1  49    3.6371   522.9    4.792      47.505
2015   10        8     1  56    3.6304   522.9    4.782      47.433
2015   10        8     2   3    3.6236   523.0    4.773      47.359
2015   10        8     2  10    3.6169   523.0    4.763      47.286
2015   10        8     2  17    3.6102   523.0    4.753      47.212
2015   10        8     2  24    3.6035   523.0    4.744      47.139
2015   10        8     2  31    3.5968   523.0    4.734      47.065
2015   10        8     2  38    3.5901   523.0    4.724      46.991
2015   10        8     2  45    3.5834   523.0    4.715      46.917
2015   10        8     2  52    3.5768   523.0    4.705      46.843
2015   10        8     2  59    3.5701   523.0    4.696      46.769
2015   10        8     3   6    3.5636   523.0    4.686      46.695
2015   10        8     3  13    3.5570   522.9    4.677      46.621
2015   10        8     3  20    3.5505   522.9    4.668      46.549
2015   10        8     3  27    3.5440   522.9    4.659      46.476
2015   10        8     3  34    3.5376   522.9    4.650      46.405
2015   10        8     3  41    3.5312   522.9    4.641      46.334
2015   10        8     3  48    3.5248   522.8    4.633      46.263
2015   10        8     3  55    3.5185   522.8    4.624      46.192
2015   10        8     4   2    3.5123   522.8    4.616      46.123
2015   10        8     4   9    3.5060   522.7    4.608      46.053
2015   10        8     4  16    3.4999   522.7    4.601      45.984
2015   10        8     4  23    3.4937   522.7    4.593      45.915
2015   10        8     4  30    3.4877   522.6    4.586      45.847
2015   10        8     4  37    3.4816   522.6    4.579      45.779
2015   10        8     4  44    3.4757   522.5    4.572      45.713
2015   10        8     4  51    3.4697   522.4    4.566      45.647
2015   10        8     4  58    3.4639   522.4    4.560      45.583
2015   10        8     5   5    3.4581   522.3    4.554      45.519
2015   10        8     5  12    3.4524   522.2    4.548      45.457
2015   10        8     5  19    3.4466   522.2    4.543      45.395
2015   10        8     5  26    3.4410   522.1    4.537      45.334
2015   10        8     5  33    3.4354   522.0    4.532      45.273
2015   10        8     5  39    3.4299   522.0    4.527      45.214
2015   10        8     5  46    3.4243   521.9    4.522      45.154
2015   10        8     5  53    3.4189   521.8    4.518      45.096
2015   10        8     6   0    3.4135   521.7    4.513      45.037
2015   10        8     6   7    3.4081   521.7    4.509      44.980
2015   10        8     6  14    3.4028   521.6    4.504      44.921
2015   10        8     6  21    3.3975   521.5    4.500      44.864
2015   10        8     6  28    3.3923   521.4    4.496      44.806
2015   10        8     6  35    3.3871   521.3    4.491      44.748
2015   10        8     6  42    3.3819   521.2    4.487      44.689
2015   10        8     6  49    3.3768   521.1    4.482      44.630
2015   10        8     6  56    3.3717   521.0    4.478      44.571
2015   10        8     7   3    3.3667   521.0    4.474      44.513
2015   10        8     7  10    3.3617   520.9    4.469      44.453
2015   10        8     7  17    3.3567   520.8    4.465      44.394
2015   10        8     7  24    3.3517   520.7    4.461      44.335
2015   10        8     7  31    3.3468   520.6    4.456      44.276
2015   10        8     7  38    3.3419   520.5    4.452      44.216
2015   10        8     7  45    3.3371   520.4    4.448      44.157
2015   10        8     7  52    3.3322   520.3    4.443      44.096
2015   10        8     7  59    3.3274   520.2    4.439      44.037
2015   10        8     8   6    3.3226   520.1    4.435      43.976
2015   10        8     8  13    3.3179   520.0    4.430      43.916
2015   10        8     8  20    3.3131   519.9    4.426      43.856
2015   10        8     8  26    3.3084   519.8    4.422      43.795
2015   10        8     8  33    3.3037   519.6    4.417      43.734
2015   10        8     8  40    3.2990   519.5    4.413      43.673
2015   10        8     8  47    3.2943   519.4    4.408      43.611
2015   10        8     8  54    3.2896   519.3    4.404      43.550
2015   10        8     9   1    3.2850   519.2    4.399      43.487
2015   10        8     9   8    3.2804   519.1    4.395      43.425
2015   10        8     9  15    3.2757   518.9    4.390      43.362
2015   10        8     9  22    3.2712   518.8    4.386      43.300
2015   10        8     9  29    3.2666   518.7    4.381      43.236
2015   10        8     9  36    3.2621   518.6    4.377      43.173
2015   10        8     9  43    3.2576   518.5    4.372      43.109
2015   10        8     9  50    3.2531   518.3    4.368      43.046
2015   10        8     9  57    3.2487   518.2    4.363      42.983
2015   10        8    10   4    3.2443   518.1    4.359      42.920
2015   10        8    10  11    3.2399   517.9    4.354      42.856
2015   10        8    10  18    3.2355   517.8    4.350      42.794
2015   10        8    10  25    3.2311   517.7    4.346      42.731
2015   10        8    10  32    3.2269   517.5    4.342      42.669
2015   10        8    10  39    3.2226   517.4    4.338      42.606
2015   10        8    10  46    3.2183   517.2    4.334      42.545
2015   10        8    10  53    3.2141   517.1    4.330      42.483
2015   10        8    11   0    3.2099   517.0    4.326      42.423
2015   10        8    11   7    3.2057   516.8    4.322      42.362
2015   10        8    11  14    3.2016   516.7    4.318      42.303
2015   10        8    11  21    3.1974   516.5    4.315      42.243
2015   10        8    11  28    3.1934   516.4    4.311      42.185
2015   10        8    11  35    3.1893   516.2    4.308      42.126
2015   10        8    11  42    3.1852   516.1    4.304      42.068
2015   10        8    11  49    3.1812   515.9    4.301      42.010
2015   10        8    11  56    3.1772   515.8    4.298      41.953
2015   10        8    12   3    3.1732   515.6    4.294      41.896
2015   10        8    12  10    3.1693   515.5    4.291      41.839
2015   10        8    12  17    3.1653   515.3    4.288      41.782
2015   10        8    12  24    3.1615   515.2    4.285      41.726
2015   10        8    12  31    3.1576   515.0    4.282      41.669
2015   10        8    12  38    3.1538   514.9    4.279      41.613
2015   10        8    12  45    3.1500   514.7    4.276      41.556
2015   10        8    12  52    3.1462   514.6    4.274      41.501
2015   10        8    12  59    3.1425   514.4    4.271      41.444
2015   10        8    13   6    3.1388   514.2    4.268      41.389
2015   10        8    13  13    3.1351   514.1    4.266      41.332
2015   10        8    13  20    3.1315   513.9    4.263      41.277
2015   10        8    13  27    3.1279   513.8    4.261      41.222
2015   10        8    13  33    3.1244   513.6    4.259      41.167
2015   10        8    13  40    3.1209   513.4    4.256      41.112
2015   10        8    13  47    3.1174   513.3    4.254      41.058
2015   10        8    13  54    3.1140   513.1    4.252      41.004
2015   10        8    14   1    3.1106   512.9    4.250      40.950
2015   10        8    14   8    3.1072   512.7    4.248      40.897
2015   10        8    14  15    3.1039   512.6    4.247      40.844
2015   10        8    14  22    3.1006   512.4    4.245      40.791
2015   10        8    14  29    3.0973   512.2    4.244      40.739
2015   10        8    14  36    3.0941   512.0    4.242      40.687
2015   10        8    14  43    3.0909   511.9    4.241      40.636
2015   10        8    14  50    3.0877   511.7    4.239      40.584
2015   10        8    14  57    3.0845   511.5    4.238      40.533
2015   10        8    15   4    3.0814   511.3    4.237      40.481
2015   10        8    15  11    3.0782   511.1    4.236      40.431
2015   10        8    15  18    3.0751   510.9    4.235      40.380
2015   10        8    15  25    3.0720   510.8    4.234      40.329
2015   10        8    15  32    3.0689   510.6    4.232      40.278
2015   10        8    15  39    3.0659   510.4    4.231      40.227
2015   10        8    15  46    3.0628   510.2    4.230      40.176
2015   10        8    15  53    3.0598   510.0    4.230      40.126
2015   10        8    16   0    3.0568   509.8    4.229      40.074
2015   10        8    16   7    3.0538   509.6    4.228      40.024
2015   10        8    16  14    3.0508   509.4    4.227      39.973
2015   10        8    16  21    3.0479   509.2    4.226      39.922
2015   10        8    16  28    3.0450   509.0    4.225      39.872
2015   10        8    16  35    3.0421   508.8    4.225      39.822
2015   10        8    16  42    3.0393   508.6    4.224      39.772
2015   10        8    16  49    3.0365   508.4    4.224      39.722
2015   10        8    16  56    3.0337   508.2    4.223      39.673
2015   10        8    17   2    3.0309   508.0    4.223      39.624
2015   10        8    17  10    3.0282   507.8    4.223      39.575
2015   10        8    17  16    3.0255   507.6    4.222      39.527
2015   10        8    17  23    3.0229   507.4    4.222      39.479
2015   10        8    17  30    3.0202   507.2    4.222      39.431
2015   10        8    17  37    3.0176   507.0    4.222      39.384
2015   10        8    17  44    3.0150   506.8    4.222      39.337
2015   10        8    17  51    3.0124   506.6    4.221      39.289
2015   10        8    17  58    3.0099   506.4    4.221      39.242
2015   10        8    18   5    3.0073   506.2    4.221      39.195
2015   10        8    18  12    3.0047   506.0    4.220      39.148
2015   10        8    18  19    3.0021   505.8    4.220      39.100
2015   10        8    18  26    2.9995   505.6    4.219      39.052
2015   10        8    18  33    2.9969   505.4    4.219      39.003
2015   10        8    18  40    2.9943   505.2    4.218      38.955
2015   10        8    18  47    2.9917   505.0    4.217      38.905
2015   10        8    18  54    2.9891   504.8    4.216      38.856
2015   10        8    19   1    2.9866   504.6    4.215      38.806
2015   10        8    19   8    2.9840   504.4    4.214      38.757
2015   10        8    19  15    2.9815   504.2    4.213      38.707
2015   10        8    19  22    2.9789   504.0    4.212      38.657
2015   10        8    19  29    2.9764   503.8    4.211      38.606
2015   10        8    19  36    2.9738   503.6    4.210      38.556
2015   10        8    19  43    2.9713   503.4    4.209      38.505
2015   10        8    19  50    2.9688   503.2    4.207      38.455
2015   10        8    19  57    2.9663   503.0    4.206      38.404
2015   10        8    20   4    2.9638   502.8    4.205      38.354
2015   10        8    20  11    2.9614   502.6    4.203      38.303
2015   10        8    20  18    2.9589   502.4    4.202      38.252
2015   10        8    20  25    2.9565   502.2    4.201      38.202
2015   10        8    20  32    2.9541   502.0    4.200      38.151
2015   10        8    20  39    2.9517   501.8    4.198      38.101
2015   10        8    20  46    2.9493   501.6    4.197      38.051
2015   10        8    20  53    2.9470   501.4    4.196      38.001
2015   10        8    21   0    2.9447   501.2    4.195      37.951
2015   10        8    21   7    2.9424   501.0    4.194      37.901
2015   10        8    21  14    2.9401   500.7    4.193      37.852
2015   10        8    21  20    2.9379   500.5    4.191      37.803
2015   10        8    21  27    2.9356   500.3    4.190      37.754
2015   10        8    21  34    2.9334   500.1    4.189      37.705
2015   10        8    21  41    2.9312   499.9    4.189      37.656
2015   10        8    21  48    2.9291   499.7    4.188      37.607
2015   10        8    21  55    2.9269   499.5    4.187      37.559
2015   10        8    22   2    2.9248   499.2    4.186      37.510
2015   10        8    22   9    2.9227   499.0    4.185      37.462
2015   10        8    22  16    2.9206   498.8    4.184      37.414
2015   10        8    22  23    2.9186   498.6    4.183      37.366
2015   10        8    22  30    2.9165   498.4    4.183      37.318
2015   10        8    22  37    2.9145   498.1    4.182      37.270
2015   10        8    22  44    2.9125   497.9    4.181      37.222
2015   10        8    22  51    2.9105   497.7    4.181      37.174
2015   10        8    22  58    2.9085   497.5    4.180      37.126
2015   10        8    23   5    2.9066   497.2    4.179      37.079
2015   10        8    23  12    2.9047   497.0    4.179      37.031
2015   10        8    23  19    2.9028   496.8    4.178      36.984
2015   10        8    23  26    2.9009   496.5    4.178      36.937
2015   10        8    23  33    2.8991   496.3    4.178      36.890
2015   10        8    23  40    2.8973   496.1    4.177      36.843
2015   10        8    23  47    2.8955   495.9    4.177      36.797
2015   10        8    23  54    2.8937   495.6    4.177      36.751
2015   10        9     0   1    2.8920   495.4    4.177      36.706
