year    month   day   hour  minute  B_enl V_enl   n_enl       T_enl
[year] [month] [day] [hour][minute] [nT]  [km/s]  [cm-3]      [kK]
2015    9       19     0   1    3.3146   536.5    3.678      43.179
2015    9       19     0   7    3.3122   536.3    3.676      43.137
2015    9       19     0  14    3.3098   536.2    3.675      43.097
2015    9       19     0  20    3.3074   536.0    3.674      43.057
2015    9       19     0  26    3.3050   535.9    3.674      43.018
2015    9       19     0  32    3.3027   535.7    3.673      42.979
2015    9       19     0  39    3.3004   535.5    3.672      42.941
2015    9       19     0  45    3.2981   535.4    3.672      42.903
2015    9       19     0  51    3.2958   535.2    3.671      42.866
2015    9       19     0  58    3.2936   535.1    3.671      42.830
2015    9       19     1   4    3.2913   534.9    3.671      42.794
2015    9       19     1  10    3.2891   534.8    3.671      42.758
2015    9       19     1  17    3.2870   534.6    3.670      42.722
2015    9       19     1  23    3.2848   534.4    3.670      42.687
2015    9       19     1  29    3.2826   534.3    3.670      42.651
2015    9       19     1  35    3.2804   534.1    3.670      42.616
2015    9       19     1  42    3.2783   534.0    3.671      42.581
2015    9       19     1  48    3.2761   533.8    3.671      42.545
2015    9       19     1  54    3.2740   533.6    3.671      42.510
2015    9       19     2   1    3.2718   533.5    3.671      42.473
2015    9       19     2   7    3.2696   533.3    3.671      42.437
2015    9       19     2  13    3.2675   533.1    3.671      42.400
2015    9       19     2  20    3.2653   533.0    3.671      42.362
2015    9       19     2  26    3.2631   532.8    3.671      42.324
2015    9       19     2  32    3.2609   532.6    3.671      42.287
2015    9       19     2  38    3.2587   532.5    3.671      42.248
2015    9       19     2  45    3.2565   532.3    3.671      42.210
2015    9       19     2  51    3.2543   532.1    3.671      42.171
2015    9       19     2  57    3.2521   532.0    3.671      42.132
2015    9       19     3   4    3.2499   531.8    3.671      42.092
2015    9       19     3  10    3.2476   531.6    3.671      42.052
2015    9       19     3  16    3.2454   531.5    3.671      42.012
2015    9       19     3  22    3.2431   531.3    3.671      41.971
2015    9       19     3  29    3.2409   531.1    3.670      41.930
2015    9       19     3  35    3.2386   531.0    3.670      41.889
2015    9       19     3  41    3.2364   530.8    3.670      41.846
2015    9       19     3  48    3.2341   530.6    3.669      41.804
2015    9       19     3  54    3.2319   530.5    3.669      41.761
2015    9       19     4   0    3.2296   530.3    3.668      41.719
2015    9       19     4   7    3.2273   530.1    3.668      41.675
2015    9       19     4  13    3.2251   529.9    3.667      41.632
2015    9       19     4  19    3.2229   529.7    3.667      41.588
2015    9       19     4  25    3.2206   529.6    3.666      41.544
2015    9       19     4  32    3.2184   529.4    3.665      41.499
2015    9       19     4  38    3.2162   529.2    3.664      41.454
2015    9       19     4  44    3.2140   529.0    3.663      41.409
2015    9       19     4  51    3.2118   528.8    3.662      41.363
2015    9       19     4  57    3.2097   528.6    3.661      41.317
2015    9       19     5   3    3.2075   528.4    3.660      41.270
2015    9       19     5   9    3.2054   528.3    3.659      41.223
2015    9       19     5  16    3.2032   528.1    3.658      41.175
2015    9       19     5  22    3.2011   527.9    3.656      41.127
2015    9       19     5  28    3.1990   527.7    3.655      41.078
2015    9       19     5  35    3.1969   527.5    3.654      41.029
2015    9       19     5  41    3.1948   527.3    3.652      40.980
2015    9       19     5  47    3.1927   527.1    3.651      40.931
2015    9       19     5  54    3.1906   526.9    3.649      40.881
2015    9       19     6   0    3.1886   526.7    3.648      40.831
2015    9       19     6   6    3.1866   526.5    3.646      40.781
2015    9       19     6  12    3.1846   526.3    3.645      40.730
2015    9       19     6  19    3.1826   526.1    3.643      40.680
2015    9       19     6  25    3.1806   525.9    3.642      40.629
2015    9       19     6  31    3.1787   525.7    3.640      40.578
2015    9       19     6  38    3.1768   525.5    3.639      40.528
2015    9       19     6  44    3.1749   525.3    3.637      40.477
2015    9       19     6  50    3.1730   525.1    3.636      40.426
2015    9       19     6  57    3.1711   524.9    3.634      40.376
2015    9       19     7   3    3.1693   524.7    3.633      40.325
2015    9       19     7   9    3.1675   524.5    3.632      40.276
2015    9       19     7  15    3.1657   524.3    3.630      40.226
2015    9       19     7  22    3.1640   524.1    3.629      40.176
2015    9       19     7  28    3.1622   523.9    3.628      40.127
2015    9       19     7  34    3.1605   523.7    3.627      40.078
2015    9       19     7  41    3.1588   523.4    3.626      40.030
2015    9       19     7  47    3.1572   523.2    3.625      39.982
2015    9       19     7  53    3.1555   523.0    3.624      39.934
2015    9       19     8   0    3.1539   522.8    3.623      39.887
2015    9       19     8   6    3.1523   522.6    3.622      39.839
2015    9       19     8  12    3.1507   522.4    3.621      39.793
2015    9       19     8  18    3.1491   522.2    3.621      39.746
2015    9       19     8  25    3.1475   522.0    3.620      39.700
2015    9       19     8  31    3.1460   521.7    3.620      39.655
2015    9       19     8  37    3.1444   521.5    3.619      39.609
2015    9       19     8  44    3.1429   521.3    3.619      39.564
2015    9       19     8  50    3.1414   521.1    3.618      39.520
2015    9       19     8  56    3.1398   520.9    3.618      39.475
2015    9       19     9   3    3.1383   520.6    3.618      39.432
2015    9       19     9   9    3.1368   520.4    3.618      39.388
2015    9       19     9  15    3.1354   520.2    3.618      39.345
2015    9       19     9  21    3.1339   520.0    3.618      39.301
2015    9       19     9  28    3.1324   519.8    3.618      39.259
2015    9       19     9  34    3.1310   519.5    3.618      39.216
2015    9       19     9  40    3.1296   519.3    3.619      39.175
2015    9       19     9  47    3.1281   519.1    3.619      39.133
2015    9       19     9  53    3.1267   518.9    3.620      39.092
2015    9       19     9  59    3.1252   518.6    3.620      39.050
2015    9       19    10   5    3.1238   518.4    3.621      39.010
2015    9       19    10  12    3.1224   518.2    3.622      38.969
2015    9       19    10  18    3.1210   518.0    3.623      38.929
2015    9       19    10  24    3.1195   517.7    3.624      38.889
2015    9       19    10  31    3.1181   517.5    3.625      38.850
2015    9       19    10  37    3.1167   517.3    3.626      38.811
2015    9       19    10  43    3.1153   517.0    3.627      38.772
2015    9       19    10  50    3.1139   516.8    3.629      38.734
2015    9       19    10  56    3.1126   516.6    3.630      38.696
2015    9       19    11   2    3.1112   516.3    3.632      38.658
2015    9       19    11   8    3.1099   516.1    3.634      38.621
2015    9       19    11  15    3.1086   515.9    3.635      38.584
2015    9       19    11  21    3.1073   515.6    3.637      38.547
2015    9       19    11  27    3.1061   515.4    3.639      38.511
2015    9       19    11  34    3.1049   515.1    3.641      38.475
2015    9       19    11  40    3.1037   514.9    3.643      38.439
2015    9       19    11  46    3.1025   514.7    3.645      38.404
2015    9       19    11  52    3.1013   514.4    3.647      38.368
2015    9       19    11  59    3.1002   514.2    3.649      38.333
2015    9       19    12   5    3.0991   514.0    3.651      38.297
2015    9       19    12  11    3.0980   513.7    3.653      38.262
2015    9       19    12  18    3.0969   513.5    3.655      38.226
2015    9       19    12  24    3.0958   513.2    3.657      38.190
2015    9       19    12  30    3.0948   513.0    3.659      38.154
2015    9       19    12  37    3.0937   512.8    3.661      38.118
2015    9       19    12  43    3.0926   512.5    3.663      38.081
2015    9       19    12  49    3.0916   512.3    3.665      38.044
2015    9       19    12  55    3.0906   512.0    3.667      38.007
2015    9       19    13   2    3.0896   511.8    3.668      37.969
2015    9       19    13   8    3.0885   511.5    3.670      37.931
2015    9       19    13  14    3.0875   511.3    3.671      37.893
2015    9       19    13  21    3.0865   511.0    3.673      37.855
2015    9       19    13  27    3.0856   510.8    3.674      37.816
2015    9       19    13  33    3.0846   510.5    3.676      37.777
2015    9       19    13  39    3.0837   510.3    3.677      37.737
2015    9       19    13  46    3.0828   510.0    3.678      37.698
2015    9       19    13  52    3.0819   509.8    3.679      37.658
2015    9       19    13  58    3.0810   509.5    3.680      37.618
2015    9       19    14   5    3.0802   509.2    3.681      37.577
2015    9       19    14  11    3.0793   509.0    3.682      37.536
2015    9       19    14  17    3.0785   508.7    3.683      37.495
2015    9       19    14  24    3.0777   508.5    3.684      37.454
2015    9       19    14  30    3.0770   508.2    3.685      37.412
2015    9       19    14  36    3.0762   507.9    3.686      37.370
2015    9       19    14  42    3.0755   507.7    3.687      37.328
2015    9       19    14  49    3.0748   507.4    3.688      37.286
2015    9       19    14  55    3.0741   507.2    3.688      37.244
2015    9       19    15   1    3.0735   506.9    3.689      37.201
2015    9       19    15   8    3.0729   506.6    3.690      37.158
2015    9       19    15  14    3.0723   506.4    3.691      37.115
2015    9       19    15  20    3.0717   506.1    3.691      37.072
2015    9       19    15  27    3.0711   505.8    3.692      37.029
2015    9       19    15  33    3.0706   505.5    3.693      36.986
2015    9       19    15  39    3.0700   505.3    3.694      36.942
2015    9       19    15  45    3.0695   505.0    3.694      36.899
2015    9       19    15  52    3.0690   504.7    3.695      36.856
2015    9       19    15  58    3.0686   504.5    3.696      36.813
2015    9       19    16   4    3.0681   504.2    3.697      36.770
2015    9       19    16  11    3.0677   503.9    3.698      36.727
2015    9       19    16  17    3.0673   503.6    3.699      36.684
2015    9       19    16  23    3.0669   503.3    3.700      36.641
2015    9       19    16  30    3.0665   503.1    3.701      36.599
2015    9       19    16  36    3.0661   502.8    3.702      36.556
2015    9       19    16  42    3.0658   502.5    3.703      36.514
2015    9       19    16  48    3.0655   502.2    3.705      36.472
2015    9       19    16  55    3.0653   501.9    3.706      36.430
2015    9       19    17   1    3.0650   501.6    3.708      36.389
2015    9       19    17   7    3.0648   501.3    3.709      36.347
2015    9       19    17  14    3.0646   501.1    3.711      36.307
2015    9       19    17  20    3.0645   500.8    3.713      36.266
2015    9       19    17  26    3.0644   500.5    3.715      36.226
2015    9       19    17  33    3.0643   500.2    3.717      36.186
2015    9       19    17  39    3.0643   499.9    3.719      36.147
2015    9       19    17  45    3.0643   499.6    3.722      36.109
2015    9       19    17  51    3.0644   499.3    3.725      36.071
2015    9       19    17  58    3.0645   499.0    3.727      36.034
2015    9       19    18   4    3.0647   498.7    3.730      35.998
2015    9       19    18  10    3.0649   498.4    3.734      35.962
2015    9       19    18  17    3.0652   498.1    3.737      35.928
2015    9       19    18  23    3.0655   497.7    3.741      35.895
2015    9       19    18  29    3.0659   497.4    3.745      35.862
2015    9       19    18  35    3.0664   497.1    3.749      35.831
2015    9       19    18  42    3.0669   496.8    3.753      35.801
2015    9       19    18  48    3.0676   496.5    3.758      35.772
2015    9       19    18  54    3.0682   496.2    3.763      35.744
2015    9       19    19   1    3.0690   495.9    3.768      35.717
2015    9       19    19   7    3.0698   495.6    3.773      35.692
2015    9       19    19  13    3.0707   495.3    3.778      35.667
2015    9       19    19  19    3.0716   495.0    3.784      35.643
2015    9       19    19  26    3.0727   494.7    3.790      35.620
2015    9       19    19  32    3.0737   494.4    3.796      35.599
2015    9       19    19  38    3.0749   494.1    3.802      35.577
2015    9       19    19  45    3.0760   493.8    3.808      35.557
2015    9       19    19  51    3.0773   493.5    3.815      35.537
2015    9       19    19  57    3.0785   493.2    3.821      35.517
2015    9       19    20   4    3.0798   492.9    3.828      35.498
2015    9       19    20  10    3.0812   492.6    3.834      35.480
2015    9       19    20  16    3.0826   492.3    3.841      35.462
2015    9       19    20  22    3.0840   492.0    3.847      35.444
2015    9       19    20  29    3.0855   491.7    3.854      35.426
2015    9       19    20  35    3.0870   491.4    3.861      35.408
2015    9       19    20  41    3.0885   491.1    3.868      35.391
2015    9       19    20  48    3.0901   490.8    3.874      35.374
2015    9       19    20  54    3.0917   490.5    3.881      35.356
2015    9       19    21   0    3.0933   490.2    3.888      35.339
2015    9       19    21   7    3.0950   489.9    3.895      35.322
2015    9       19    21  13    3.0967   489.6    3.902      35.305
2015    9       19    21  19    3.0985   489.3    3.909      35.288
2015    9       19    21  25    3.1003   489.0    3.915      35.270
2015    9       19    21  32    3.1021   488.7    3.922      35.253
2015    9       19    21  38    3.1039   488.4    3.929      35.236
2015    9       19    21  44    3.1059   488.1    3.936      35.219
2015    9       19    21  51    3.1078   487.8    3.943      35.202
2015    9       19    21  57    3.1098   487.5    3.950      35.184
2015    9       19    22   3    3.1118   487.2    3.957      35.167
2015    9       19    22  10    3.1138   486.9    3.963      35.150
2015    9       19    22  16    3.1159   486.6    3.970      35.133
2015    9       19    22  22    3.1181   486.3    3.977      35.116
2015    9       19    22  28    3.1203   486.0    3.984      35.099
2015    9       19    22  35    3.1225   485.7    3.991      35.082
2015    9       19    22  41    3.1248   485.4    3.998      35.066
2015    9       19    22  47    3.1271   485.1    4.005      35.050
2015    9       19    22  54    3.1295   484.8    4.012      35.034
2015    9       19    23   0    3.1319   484.5    4.020      35.018
2015    9       19    23   6    3.1343   484.2    4.027      35.002
2015    9       19    23  13    3.1369   483.9    4.034      34.987
2015    9       19    23  19    3.1394   483.6    4.042      34.972
2015    9       19    23  25    3.1421   483.3    4.049      34.958
2015    9       19    23  31    3.1448   483.0    4.057      34.943
2015    9       19    23  38    3.1475   482.7    4.064      34.929
2015    9       19    23  44    3.1503   482.4    4.072      34.916
2015    9       19    23  50    3.1532   482.2    4.080      34.903
2015    9       19    23  57    3.1562   481.9    4.088      34.890
2015    9       20     0   3    3.1592   481.6    4.097      34.877
2015    9       20     0   9    3.1623   481.3    4.105      34.865
2015    9       20     0  15    3.1655   481.0    4.114      34.853
2015    9       20     0  22    3.1688   480.7    4.123      34.843
2015    9       20     0  28    3.1722   480.4    4.132      34.832
2015    9       20     0  34    3.1756   480.1    4.141      34.822
2015    9       20     0  41    3.1792   479.9    4.151      34.813
2015    9       20     0  47    3.1828   479.6    4.160      34.804
2015    9       20     0  53    3.1866   479.3    4.170      34.796
2015    9       20     1   0    3.1905   479.0    4.180      34.789
2015    9       20     1   6    3.1945   478.7    4.191      34.783
2015    9       20     1  12    3.1985   478.4    4.201      34.778
2015    9       20     1  18    3.2027   478.2    4.212      34.775
2015    9       20     1  25    3.2069   477.9    4.223      34.772
2015    9       20     1  31    3.2114   477.6    4.234      34.771
2015    9       20     1  37    3.2158   477.3    4.246      34.770
2015    9       20     1  44    3.2205   477.1    4.257      34.770
2015    9       20     1  50    3.2252   476.8    4.269      34.772
2015    9       20     1  56    3.2301   476.5    4.282      34.775
2015    9       20     2   2    3.2350   476.3    4.294      34.779
2015    9       20     2   9    3.2402   476.0    4.307      34.785
2015    9       20     2  15    3.2454   475.7    4.320      34.792
2015    9       20     2  21    3.2508   475.5    4.333      34.801
2015    9       20     2  28    3.2563   475.2    4.347      34.811
2015    9       20     2  34    3.2619   475.0    4.360      34.823
2015    9       20     2  40    3.2675   474.7    4.374      34.838
2015    9       20     2  47    3.2732   474.5    4.388      34.854
2015    9       20     2  53    3.2789   474.3    4.401      34.873
2015    9       20     2  59    3.2847   474.1    4.415      34.894
2015    9       20     3   5    3.2904   473.9    4.428      34.916
2015    9       20     3  12    3.2962   473.7    4.441      34.938
2015    9       20     3  18    3.3020   473.5    4.454      34.959
2015    9       20     3  24    3.3078   473.2    4.467      34.980
2015    9       20     3  31    3.3135   473.0    4.479      35.002
2015    9       20     3  37    3.3194   472.8    4.492      35.023
2015    9       20     3  43    3.3251   472.6    4.504      35.044
2015    9       20     3  49    3.3309   472.4    4.516      35.065
2015    9       20     3  56    3.3367   472.2    4.528      35.086
2015    9       20     4   2    3.3425   472.0    4.540      35.107
2015    9       20     4   8    3.3483   471.8    4.552      35.127
2015    9       20     4  15    3.3541   471.7    4.564      35.148
2015    9       20     4  21    3.3599   471.5    4.575      35.168
2015    9       20     4  27    3.3657   471.3    4.587      35.188
2015    9       20     4  34    3.3715   471.1    4.598      35.209
2015    9       20     4  40    3.3774   470.9    4.610      35.229
2015    9       20     4  46    3.3832   470.7    4.621      35.249
2015    9       20     4  52    3.3891   470.5    4.632      35.269
2015    9       20     4  59    3.3949   470.3    4.644      35.288
2015    9       20     5   5    3.4009   470.1    4.655      35.308
2015    9       20     5  11    3.4068   470.0    4.666      35.328
2015    9       20     5  18    3.4128   469.8    4.677      35.348
2015    9       20     5  24    3.4188   469.6    4.688      35.368
2015    9       20     5  30    3.4248   469.4    4.700      35.388
2015    9       20     5  37    3.4309   469.3    4.711      35.409
2015    9       20     5  43    3.4370   469.1    4.722      35.429
2015    9       20     5  49    3.4432   468.9    4.734      35.450
2015    9       20     5  55    3.4494   468.7    4.745      35.471
2015    9       20     6   2    3.4557   468.6    4.757      35.492
2015    9       20     6   8    3.4621   468.4    4.769      35.515
2015    9       20     6  14    3.4684   468.2    4.780      35.538
2015    9       20     6  21    3.4750   468.1    4.793      35.561
2015    9       20     6  27    3.4815   467.9    4.805      35.585
2015    9       20     6  33    3.4881   467.8    4.817      35.610
2015    9       20     6  40    3.4948   467.6    4.830      35.636
2015    9       20     6  46    3.5016   467.5    4.842      35.664
2015    9       20     6  52    3.5085   467.3    4.855      35.692
2015    9       20     6  58    3.5155   467.2    4.869      35.721
2015    9       20     7   5    3.5226   467.0    4.882      35.752
2015    9       20     7  11    3.5299   466.9    4.896      35.784
2015    9       20     7  17    3.5372   466.8    4.911      35.817
2015    9       20     7  24    3.5447   466.6    4.926      35.852
2015    9       20     7  30    3.5522   466.5    4.941      35.888
2015    9       20     7  36    3.5600   466.4    4.956      35.926
2015    9       20     7  43    3.5678   466.3    4.973      35.966
2015    9       20     7  49    3.5759   466.1    4.989      36.008
2015    9       20     7  55    3.5840   466.0    5.006      36.051
2015    9       20     8   1    3.5924   465.9    5.024      36.097
2015    9       20     8   8    3.6008   465.8    5.042      36.146
2015    9       20     8  14    3.6095   465.7    5.061      36.196
2015    9       20     8  20    3.6183   465.6    5.080      36.249
2015    9       20     8  27    3.6273   465.6    5.099      36.304
2015    9       20     8  33    3.6363   465.5    5.119      36.363
2015    9       20     8  39    3.6456   465.4    5.140      36.424
2015    9       20     8  45    3.6549   465.3    5.160      36.487
2015    9       20     8  52    3.6645   465.3    5.181      36.552
2015    9       20     8  58    3.6741   465.2    5.203      36.619
2015    9       20     9   4    3.6838   465.2    5.224      36.689
2015    9       20     9  11    3.6936   465.1    5.246      36.760
2015    9       20     9  17    3.7036   465.1    5.268      36.832
2015    9       20     9  23    3.7136   465.1    5.290      36.904
2015    9       20     9  30    3.7238   465.0    5.313      36.978
2015    9       20     9  36    3.7340   465.0    5.335      37.053
2015    9       20     9  42    3.7443   465.0    5.357      37.131
2015    9       20     9  48    3.7545   465.0    5.379      37.212
2015    9       20     9  55    3.7648   465.0    5.401      37.294
2015    9       20    10   1    3.7749   465.1    5.422      37.380
2015    9       20    10   7    3.7850   465.1    5.442      37.468
2015    9       20    10  14    3.7948   465.1    5.461      37.555
2015    9       20    10  20    3.8047   465.1    5.480      37.640
2015    9       20    10  26    3.8143   465.2    5.497      37.723
2015    9       20    10  32    3.8239   465.2    5.515      37.803
2015    9       20    10  39    3.8333   465.2    5.531      37.880
2015    9       20    10  45    3.8428   465.3    5.547      37.956
2015    9       20    10  51    3.8520   465.3    5.562      38.030
2015    9       20    10  58    3.8612   465.3    5.577      38.102
2015    9       20    11   4    3.8702   465.4    5.591      38.172
2015    9       20    11  10    3.8793   465.4    5.604      38.241
2015    9       20    11  17    3.8882   465.4    5.617      38.308
2015    9       20    11  23    3.8972   465.4    5.630      38.374
2015    9       20    11  29    3.9061   465.5    5.643      38.439
2015    9       20    11  35    3.9149   465.5    5.655      38.503
2015    9       20    11  42    3.9237   465.5    5.666      38.566
2015    9       20    11  48    3.9325   465.5    5.678      38.628
2015    9       20    11  54    3.9413   465.6    5.689      38.689
2015    9       20    12   1    3.9500   465.6    5.700      38.750
2015    9       20    12   7    3.9587   465.6    5.710      38.809
2015    9       20    12  13    3.9675   465.6    5.721      38.869
2015    9       20    12  20    3.9762   465.6    5.731      38.928
2015    9       20    12  26    3.9850   465.7    5.741      38.986
2015    9       20    12  32    3.9937   465.7    5.752      39.044
2015    9       20    12  38    4.0025   465.7    5.762      39.102
2015    9       20    12  45    4.0112   465.7    5.771      39.159
2015    9       20    12  51    4.0201   465.7    5.781      39.216
2015    9       20    12  57    4.0289   465.7    5.791      39.273
2015    9       20    13   4    4.0378   465.8    5.801      39.329
2015    9       20    13  10    4.0467   465.8    5.811      39.386
2015    9       20    13  16    4.0556   465.8    5.821      39.442
2015    9       20    13  22    4.0646   465.8    5.831      39.499
2015    9       20    13  29    4.0736   465.8    5.840      39.556
2015    9       20    13  35    4.0826   465.9    5.850      39.614
2015    9       20    13  41    4.0917   465.9    5.860      39.672
2015    9       20    13  48    4.1009   465.9    5.870      39.730
2015    9       20    13  54    4.1101   466.0    5.881      39.790
2015    9       20    14   0    4.1193   466.0    5.891      39.851
2015    9       20    14   7    4.1286   466.0    5.901      39.913
2015    9       20    14  13    4.1380   466.1    5.912      39.975
2015    9       20    14  19    4.1475   466.1    5.923      40.040
2015    9       20    14  25    4.1569   466.2    5.934      40.106
2015    9       20    14  32    4.1665   466.3    5.945      40.173
2015    9       20    14  38    4.1761   466.3    5.957      40.242
2015    9       20    14  44    4.1859   466.4    5.968      40.313
2015    9       20    14  51    4.1956   466.5    5.980      40.386
2015    9       20    14  57    4.2055   466.5    5.993      40.460
2015    9       20    15   3    4.2154   466.6    6.005      40.536
2015    9       20    15  10    4.2254   466.7    6.018      40.614
2015    9       20    15  16    4.2355   466.8    6.032      40.694
2015    9       20    15  22    4.2457   466.9    6.045      40.777
2015    9       20    15  28    4.2560   467.0    6.059      40.860
2015    9       20    15  35    4.2663   467.1    6.074      40.946
2015    9       20    15  41    4.2767   467.2    6.089      41.034
2015    9       20    15  47    4.2873   467.3    6.104      41.124
2015    9       20    15  54    4.2978   467.5    6.120      41.217
2015    9       20    16   0    4.3085   467.6    6.136      41.311
2015    9       20    16   6    4.3193   467.7    6.152      41.408
2015    9       20    16  13    4.3300   467.9    6.168      41.509
2015    9       20    16  19    4.3409   468.0    6.185      41.611
2015    9       20    16  25    4.3518   468.2    6.202      41.716
2015    9       20    16  31    4.3628   468.3    6.219      41.822
2015    9       20    16  38    4.3738   468.5    6.237      41.930
2015    9       20    16  44    4.3848   468.6    6.254      42.040
2015    9       20    16  50    4.3959   468.8    6.272      42.154
2015    9       20    16  57    4.4070   469.0    6.291      42.271
2015    9       20    17   3    4.4182   469.2    6.309      42.391
2015    9       20    17   9    4.4293   469.4    6.327      42.515
2015    9       20    17  15    4.4403   469.6    6.345      42.644
2015    9       20    17  22    4.4514   469.8    6.363      42.775
2015    9       20    17  28    4.4624   470.0    6.381      42.909
2015    9       20    17  34    4.4733   470.2    6.398      43.042
2015    9       20    17  41    4.4842   470.5    6.416      43.177
2015    9       20    17  47    4.4951   470.7    6.433      43.313
2015    9       20    17  53    4.5058   470.9    6.450      43.451
2015    9       20    17  59    4.5165   471.2    6.467      43.589
2015    9       20    18   6    4.5271   471.4    6.484      43.728
2015    9       20    18  12    4.5376   471.7    6.500      43.867
2015    9       20    18  18    4.5480   471.9    6.515      44.007
2015    9       20    18  25    4.5582   472.2    6.531      44.144
2015    9       20    18  31    4.5684   472.4    6.546      44.281
2015    9       20    18  37    4.5784   472.7    6.560      44.415
2015    9       20    18  44    4.5884   472.9    6.575      44.548
2015    9       20    18  50    4.5982   473.2    6.589      44.680
2015    9       20    18  56    4.6080   473.4    6.603      44.811
2015    9       20    19   2    4.6177   473.7    6.616      44.941
2015    9       20    19   9    4.6273   473.9    6.629      45.070
2015    9       20    19  15    4.6369   474.1    6.642      45.197
2015    9       20    19  21    4.6464   474.4    6.655      45.324
2015    9       20    19  28    4.6558   474.6    6.667      45.451
2015    9       20    19  34    4.6653   474.9    6.679      45.578
2015    9       20    19  40    4.6746   475.1    6.690      45.706
2015    9       20    19  47    4.6840   475.3    6.700      45.835
2015    9       20    19  53    4.6933   475.6    6.710      45.963
2015    9       20    19  59    4.7026   475.8    6.719      46.091
2015    9       20    20   5    4.7118   476.1    6.728      46.216
2015    9       20    20  12    4.7210   476.3    6.736      46.339
2015    9       20    20  18    4.7302   476.5    6.744      46.459
2015    9       20    20  24    4.7393   476.8    6.750      46.578
2015    9       20    20  31    4.7483   477.0    6.757      46.694
2015    9       20    20  37    4.7573   477.2    6.762      46.808
2015    9       20    20  43    4.7662   477.5    6.767      46.920
2015    9       20    20  50    4.7751   477.7    6.771      47.029
2015    9       20    20  56    4.7839   478.0    6.775      47.137
2015    9       20    21   2    4.7927   478.2    6.778      47.242
2015    9       20    21   8    4.8014   478.4    6.781      47.346
2015    9       20    21  15    4.8101   478.7    6.783      47.447
2015    9       20    21  21    4.8187   478.9    6.785      47.547
2015    9       20    21  27    4.8274   479.2    6.786      47.646
2015    9       20    21  34    4.8359   479.4    6.787      47.742
2015    9       20    21  40    4.8445   479.7    6.787      47.838
2015    9       20    21  46    4.8530   479.9    6.788      47.931
2015    9       20    21  53    4.8616   480.2    6.787      48.025
2015    9       20    21  59    4.8700   480.5    6.787      48.116
2015    9       20    22   5    4.8785   480.7    6.786      48.208
2015    9       20    22  11    4.8870   481.0    6.786      48.298
2015    9       20    22  18    4.8955   481.2    6.784      48.388
2015    9       20    22  24    4.9039   481.5    6.783      48.477
2015    9       20    22  30    4.9125   481.8    6.782      48.566
2015    9       20    22  37    4.9210   482.0    6.781      48.655
2015    9       20    22  43    4.9295   482.3    6.779      48.744
2015    9       20    22  49    4.9380   482.6    6.778      48.832
2015    9       20    22  56    4.9467   482.8    6.776      48.921
2015    9       20    23   2    4.9553   483.1    6.775      49.011
2015    9       20    23   8    4.9640   483.4    6.774      49.100
2015    9       20    23  14    4.9726   483.6    6.773      49.191
2015    9       20    23  21    4.9814   483.9    6.771      49.282
2015    9       20    23  27    4.9902   484.2    6.771      49.374
2015    9       20    23  33    4.9991   484.5    6.770      49.468
2015    9       20    23  40    5.0080   484.7    6.770      49.563
2015    9       20    23  46    5.0170   485.0    6.770      49.659
2015    9       20    23  52    5.0260   485.3    6.770      49.757
2015    9       20    23  59    5.0351   485.6    6.771      49.857
2015    9       21     0   5    5.0442   485.9    6.772      49.958
2015    9       21     0  11    5.0534   486.2    6.773      50.061
2015    9       21     0  17    5.0626   486.5    6.776      50.166
2015    9       21     0  24    5.0719   486.8    6.778      50.275
2015    9       21     0  30    5.0812   487.1    6.782      50.385
2015    9       21     0  36    5.0906   487.4    6.786      50.499
2015    9       21     0  43    5.1000   487.7    6.790      50.615
2015    9       21     0  49    5.1095   488.0    6.796      50.735
2015    9       21     0  55    5.1190   488.3    6.802      50.857
2015    9       21     1   2    5.1284   488.6    6.808      50.983
2015    9       21     1   8    5.1380   489.0    6.815      51.112
2015    9       21     1  14    5.1474   489.3    6.823      51.244
2015    9       21     1  20    5.1569   489.6    6.831      51.381
2015    9       21     1  27    5.1663   490.0    6.840      51.521
2015    9       21     1  33    5.1756   490.3    6.849      51.664
2015    9       21     1  39    5.1848   490.6    6.859      51.807
2015    9       21     1  46    5.1940   491.0    6.868      51.951
2015    9       21     1  52    5.2031   491.3    6.879      52.097
2015    9       21     1  58    5.2121   491.7    6.889      52.245
2015    9       21     2   5    5.2210   492.0    6.900      52.395
2015    9       21     2  11    5.2298   492.4    6.910      52.545
2015    9       21     2  17    5.2385   492.7    6.921      52.699
2015    9       21     2  23    5.2470   493.1    6.931      52.852
2015    9       21     2  30    5.2554   493.4    6.941      53.005
2015    9       21     2  36    5.2637   493.7    6.952      53.155
2015    9       21     2  42    5.2719   494.1    6.962      53.308
2015    9       21     2  49    5.2800   494.4    6.972      53.461
2015    9       21     2  55    5.2880   494.7    6.982      53.616
2015    9       21     3   1    5.2960   495.1    6.992      53.771
2015    9       21     3   8    5.3039   495.4    7.002      53.930
2015    9       21     3  14    5.3119   495.7    7.012      54.091
2015    9       21     3  20    5.3198   496.1    7.022      54.255
2015    9       21     3  26    5.3279   496.4    7.031      54.420
2015    9       21     3  33    5.3359   496.7    7.040      54.587
2015    9       21     3  39    5.3440   497.0    7.050      54.754
2015    9       21     3  45    5.3522   497.4    7.059      54.923
2015    9       21     3  52    5.3603   497.7    7.068      55.097
2015    9       21     3  58    5.3685   498.1    7.076      55.273
2015    9       21     4   4    5.3767   498.5    7.084      55.450
2015    9       21     4  11    5.3849   498.8    7.091      55.629
2015    9       21     4  17    5.3930   499.3    7.096      55.808
2015    9       21     4  23    5.4011   499.7    7.101      55.990
2015    9       21     4  29    5.4090   500.1    7.104      56.164
2015    9       21     4  36    5.4168   500.5    7.105      56.333
2015    9       21     4  42    5.4243   501.0    7.106      56.496
2015    9       21     4  48    5.4317   501.4    7.106      56.654
2015    9       21     4  55    5.4389   501.8    7.105      56.807
2015    9       21     5   1    5.4460   502.3    7.102      56.956
2015    9       21     5   7    5.4529   502.7    7.099      57.100
2015    9       21     5  14    5.4597   503.2    7.095      57.241
2015    9       21     5  20    5.4664   503.6    7.091      57.378
2015    9       21     5  26    5.4731   504.1    7.086      57.512
2015    9       21     5  32    5.4798   504.5    7.081      57.644
2015    9       21     5  39    5.4865   505.0    7.075      57.774
2015    9       21     5  45    5.4931   505.4    7.069      57.902
2015    9       21     5  51    5.4999   505.9    7.063      58.030
2015    9       21     5  58    5.5066   506.4    7.057      58.156
2015    9       21     6   4    5.5135   506.8    7.051      58.283
2015    9       21     6  10    5.5204   507.3    7.045      58.411
2015    9       21     6  16    5.5275   507.8    7.039      58.541
2015    9       21     6  23    5.5346   508.2    7.034      58.672
2015    9       21     6  29    5.5419   508.7    7.029      58.804
2015    9       21     6  35    5.5493   509.2    7.024      58.939
2015    9       21     6  42    5.5569   509.7    7.019      59.078
2015    9       21     6  48    5.5645   510.2    7.015      59.219
2015    9       21     6  54    5.5722   510.7    7.011      59.365
2015    9       21     7   1    5.5799   511.2    7.007      59.516
2015    9       21     7   7    5.5877   511.7    7.004      59.672
2015    9       21     7  13    5.5956   512.3    7.001      59.829
2015    9       21     7  19    5.6035   512.8    6.998      59.988
2015    9       21     7  26    5.6114   513.3    6.995      60.150
2015    9       21     7  32    5.6193   513.9    6.992      60.318
2015    9       21     7  38    5.6270   514.4    6.989      60.490
2015    9       21     7  45    5.6346   515.0    6.985      60.669
2015    9       21     7  51    5.6419   515.6    6.981      60.852
2015    9       21     7  57    5.6492   516.2    6.976      61.035
2015    9       21     8   4    5.6562   516.8    6.972      61.214
2015    9       21     8  10    5.6631   517.4    6.966      61.390
2015    9       21     8  16    5.6697   518.0    6.961      61.562
2015    9       21     8  22    5.6762   518.6    6.955      61.729
2015    9       21     8  29    5.6825   519.2    6.949      61.894
2015    9       21     8  35    5.6887   519.8    6.942      62.056
2015    9       21     8  41    5.6948   520.3    6.936      62.216
2015    9       21     8  48    5.7008   520.9    6.930      62.374
2015    9       21     8  54    5.7066   521.5    6.924      62.529
2015    9       21     9   0    5.7124   522.1    6.918      62.681
2015    9       21     9   7    5.7181   522.6    6.912      62.833
2015    9       21     9  13    5.7237   523.2    6.906      62.985
2015    9       21     9  19    5.7293   523.7    6.901      63.136
2015    9       21     9  25    5.7348   524.3    6.895      63.286
2015    9       21     9  32    5.7403   524.8    6.889      63.438
2015    9       21     9  38    5.7456   525.3    6.883      63.590
2015    9       21     9  44    5.7508   525.8    6.877      63.738
2015    9       21     9  51    5.7559   526.3    6.871      63.883
2015    9       21     9  57    5.7610   526.9    6.864      64.025
2015    9       21    10   3    5.7659   527.3    6.858      64.164
2015    9       21    10  10    5.7708   527.8    6.852      64.297
2015    9       21    10  16    5.7757   528.3    6.846      64.425
2015    9       21    10  22    5.7806   528.8    6.840      64.549
2015    9       21    10  28    5.7854   529.3    6.834      64.672
2015    9       21    10  35    5.7902   529.8    6.828      64.791
2015    9       21    10  41    5.7950   530.2    6.823      64.907
2015    9       21    10  47    5.7999   530.7    6.817      65.020
2015    9       21    10  54    5.8046   531.2    6.812      65.128
2015    9       21    11   0    5.8094   531.7    6.806      65.234
2015    9       21    11   6    5.8139   532.2    6.801      65.345
2015    9       21    11  13    5.8184   532.8    6.795      65.457
2015    9       21    11  19    5.8227   533.3    6.788      65.569
2015    9       21    11  25    5.8269   533.8    6.781      65.677
2015    9       21    11  31    5.8308   534.3    6.773      65.783
2015    9       21    11  38    5.8348   534.7    6.766      65.883
2015    9       21    11  44    5.8388   535.1    6.758      65.977
2015    9       21    11  50    5.8429   535.5    6.751      66.066
2015    9       21    11  57    5.8471   535.8    6.744      66.154
2015    9       21    12   3    5.8514   536.2    6.738      66.246
2015    9       21    12   9    5.8559   536.6    6.732      66.347
2015    9       21    12  16    5.8604   537.0    6.726      66.457
2015    9       21    12  22    5.8650   537.4    6.721      66.578
2015    9       21    12  28    5.8697   537.9    6.715      66.710
2015    9       21    12  34    5.8745   538.4    6.710      66.859
2015    9       21    12  41    5.8794   538.9    6.705      67.024
2015    9       21    12  47    5.8844   539.5    6.701      67.201
2015    9       21    12  53    5.8894   540.2    6.696      67.389
2015    9       21    13   0    5.8944   540.8    6.691      67.583
2015    9       21    13   6    5.8993   541.5    6.686      67.783
2015    9       21    13  12    5.9040   542.1    6.681      67.976
2015    9       21    13  19    5.9085   542.8    6.675      68.161
2015    9       21    13  25    5.9128   543.4    6.668      68.337
2015    9       21    13  31    5.9170   544.0    6.662      68.506
2015    9       21    13  37    5.9210   544.6    6.655      68.669
2015    9       21    13  44    5.9251   545.2    6.648      68.828
2015    9       21    13  50    5.9291   545.8    6.641      68.985
2015    9       21    13  56    5.9332   546.4    6.635      69.142
2015    9       21    14   3    5.9373   547.0    6.628      69.301
2015    9       21    14   9    5.9415   547.6    6.622      69.460
2015    9       21    14  15    5.9456   548.2    6.615      69.624
2015    9       21    14  22    5.9497   548.8    6.609      69.792
2015    9       21    14  28    5.9538   549.4    6.603      69.960
2015    9       21    14  34    5.9579   550.0    6.596      70.126
2015    9       21    14  40    5.9619   550.7    6.590      70.293
2015    9       21    14  47    5.9659   551.3    6.584      70.463
2015    9       21    14  53    5.9697   552.0    6.577      70.638
2015    9       21    14  59    5.9733   552.7    6.569      70.816
2015    9       21    15   6    5.9766   553.4    6.560      70.999
2015    9       21    15  12    5.9797   554.1    6.551      71.183
2015    9       21    15  18    5.9825   554.9    6.541      71.365
2015    9       21    15  25    5.9851   555.6    6.530      71.539
2015    9       21    15  31    5.9874   556.4    6.518      71.709
2015    9       21    15  37    5.9895   557.1    6.505      71.872
2015    9       21    15  43    5.9913   557.9    6.491      72.031
2015    9       21    15  50    5.9928   558.6    6.476      72.183
2015    9       21    15  56    5.9941   559.4    6.461      72.332
2015    9       21    16   2    5.9952   560.2    6.445      72.476
2015    9       21    16   9    5.9960   561.0    6.428      72.616
2015    9       21    16  15    5.9966   561.8    6.410      72.751
2015    9       21    16  21    5.9969   562.6    6.391      72.881
2015    9       21    16  28    5.9969   563.4    6.372      73.003
2015    9       21    16  34    5.9966   564.2    6.351      73.124
2015    9       21    16  40    5.9960   565.0    6.329      73.240
2015    9       21    16  46    5.9949   565.8    6.306      73.347
2015    9       21    16  53    5.9935   566.6    6.282      73.446
2015    9       21    16  59    5.9916   567.4    6.257      73.538
2015    9       21    17   5    5.9894   568.1    6.231      73.624
2015    9       21    17  12    5.9869   568.9    6.205      73.700
2015    9       21    17  18    5.9841   569.6    6.178      73.764
2015    9       21    17  24    5.9810   570.3    6.151      73.820
2015    9       21    17  30    5.9779   571.0    6.124      73.867
2015    9       21    17  37    5.9746   571.6    6.098      73.907
2015    9       21    17  43    5.9714   572.3    6.072      73.937
2015    9       21    17  49    5.9681   573.0    6.046      73.966
2015    9       21    17  56    5.9651   573.6    6.021      73.995
2015    9       21    18   2    5.9621   574.3    5.996      74.024
2015    9       21    18   8    5.9592   575.0    5.972      74.052
2015    9       21    18  15    5.9561   575.8    5.948      74.079
2015    9       21    18  21    5.9531   576.5    5.924      74.106
2015    9       21    18  27    5.9499   577.3    5.899      74.134
2015    9       21    18  33    5.9466   578.0    5.875      74.161
2015    9       21    18  40    5.9431   578.7    5.851      74.185
2015    9       21    18  46    5.9396   579.4    5.826      74.203
2015    9       21    18  52    5.9359   580.0    5.803      74.210
2015    9       21    18  59    5.9323   580.6    5.780      74.207
2015    9       21    19   5    5.9287   581.1    5.757      74.203
2015    9       21    19  11    5.9254   581.6    5.736      74.193
2015    9       21    19  18    5.9222   582.1    5.716      74.184
2015    9       21    19  24    5.9192   582.5    5.697      74.182
2015    9       21    19  30    5.9162   582.9    5.678      74.189
2015    9       21    19  36    5.9134   583.4    5.660      74.202
2015    9       21    19  43    5.9106   583.8    5.643      74.226
2015    9       21    19  49    5.9080   584.2    5.627      74.264
2015    9       21    19  55    5.9055   584.7    5.612      74.327
2015    9       21    20   2    5.9032   585.3    5.598      74.408
2015    9       21    20   8    5.9009   585.8    5.584      74.505
2015    9       21    20  14    5.8988   586.4    5.571      74.615
2015    9       21    20  21    5.8965   587.1    5.558      74.737
2015    9       21    20  27    5.8941   587.7    5.545      74.860
2015    9       21    20  33    5.8915   588.3    5.532      74.977
2015    9       21    20  39    5.8888   588.9    5.518      75.088
2015    9       21    20  46    5.8858   589.5    5.504      75.190
2015    9       21    20  52    5.8827   590.1    5.490      75.283
2015    9       21    20  58    5.8794   590.7    5.475      75.371
2015    9       21    21   5    5.8761   591.2    5.460      75.453
2015    9       21    21  11    5.8725   591.8    5.445      75.530
2015    9       21    21  17    5.8690   592.3    5.429      75.604
2015    9       21    21  24    5.8653   592.9    5.414      75.676
2015    9       21    21  30    5.8616   593.5    5.398      75.743
2015    9       21    21  36    5.8577   594.0    5.382      75.807
2015    9       21    21  42    5.8538   594.6    5.366      75.865
2015    9       21    21  49    5.8497   595.1    5.350      75.918
2015    9       21    21  55    5.8456   595.7    5.334      75.968
2015    9       21    22   1    5.8415   596.2    5.318      76.014
2015    9       21    22   8    5.8374   596.7    5.303      76.056
2015    9       21    22  14    5.8333   597.2    5.287      76.094
2015    9       21    22  20    5.8293   597.7    5.272      76.128
2015    9       21    22  27    5.8251   598.2    5.257      76.160
2015    9       21    22  33    5.8211   598.7    5.242      76.190
2015    9       21    22  39    5.8170   599.2    5.227      76.220
2015    9       21    22  45    5.8129   599.7    5.212      76.248
2015    9       21    22  52    5.8088   600.2    5.198      76.275
2015    9       21    22  58    5.8047   600.7    5.183      76.302
2015    9       21    23   4    5.8004   601.2    5.169      76.329
2015    9       21    23  11    5.7962   601.8    5.154      76.356
2015    9       21    23  17    5.7917   602.4    5.139      76.386
2015    9       21    23  23    5.7872   603.0    5.124      76.419
2015    9       21    23  30    5.7824   603.6    5.109      76.450
2015    9       21    23  36    5.7775   604.2    5.093      76.480
2015    9       21    23  42    5.7723   604.9    5.076      76.503
2015    9       21    23  48    5.7668   605.6    5.058      76.519
2015    9       21    23  55    5.7608   606.3    5.040      76.532
2015    9       22     0   1    5.7545   607.0    5.020      76.536
2015    9       22     0   7    5.7477   607.6    4.999      76.530
2015    9       22     0  14    5.7404   608.3    4.978      76.515
2015    9       22     0  20    5.7327   609.0    4.956      76.491
2015    9       22     0  26    5.7247   609.7    4.933      76.464
2015    9       22     0  33    5.7162   610.3    4.909      76.418
2015    9       22     0  39    5.7076   610.9    4.886      76.364
2015    9       22     0  45    5.6989   611.4    4.863      76.302
2015    9       22     0  51    5.6902   612.0    4.841      76.237
2015    9       22     0  58    5.6816   612.5    4.820      76.168
2015    9       22     1   4    5.6732   612.9    4.799      76.098
2015    9       22     1  10    5.6650   613.4    4.780      76.039
2015    9       22     1  17    5.6571   613.9    4.762      75.991
2015    9       22     1  23    5.6494   614.4    4.744      75.950
2015    9       22     1  29    5.6419   614.9    4.727      75.919
2015    9       22     1  36    5.6344   615.4    4.711      75.894
2015    9       22     1  42    5.6272   615.9    4.696      75.875
2015    9       22     1  48    5.6199   616.4    4.681      75.859
2015    9       22     1  54    5.6128   616.9    4.666      75.847
2015    9       22     2   1    5.6056   617.4    4.651      75.834
2015    9       22     2   7    5.5986   617.9    4.636      75.822
2015    9       22     2  13    5.5914   618.4    4.621      75.808
2015    9       22     2  20    5.5843   618.9    4.607      75.795
2015    9       22     2  26    5.5770   619.4    4.592      75.779
2015    9       22     2  32    5.5698   619.9    4.576      75.760
2015    9       22     2  38    5.5624   620.4    4.561      75.739
2015    9       22     2  45    5.5550   620.9    4.545      75.714
2015    9       22     2  51    5.5474   621.4    4.530      75.683
2015    9       22     2  57    5.5398   621.8    4.514      75.644
2015    9       22     3   4    5.5321   622.2    4.498      75.598
2015    9       22     3  10    5.5244   622.6    4.483      75.550
2015    9       22     3  16    5.5168   623.0    4.468      75.501
2015    9       22     3  23    5.5092   623.4    4.453      75.453
2015    9       22     3  29    5.5017   623.8    4.439      75.405
2015    9       22     3  35    5.4943   624.2    4.425      75.360
2015    9       22     3  41    5.4869   624.6    4.411      75.316
2015    9       22     3  48    5.4796   625.0    4.397      75.274
2015    9       22     3  54    5.4724   625.3    4.384      75.234
2015    9       22     4   0    5.4652   625.7    4.371      75.197
2015    9       22     4   7    5.4581   626.1    4.359      75.162
2015    9       22     4  13    5.4510   626.4    4.346      75.130
2015    9       22     4  19    5.4439   626.8    4.334      75.099
2015    9       22     4  26    5.4369   627.2    4.321      75.068
2015    9       22     4  32    5.4298   627.6    4.309      75.037
2015    9       22     4  38    5.4227   627.9    4.296      75.005
2015    9       22     4  44    5.4155   628.3    4.284      74.972
2015    9       22     4  51    5.4084   628.7    4.272      74.937
2015    9       22     4  57    5.4011   629.0    4.259      74.899
2015    9       22     5   3    5.3938   629.4    4.247      74.857
2015    9       22     5  10    5.3866   629.7    4.235      74.812
2015    9       22     5  16    5.3794   630.0    4.223      74.766
2015    9       22     5  22    5.3722   630.3    4.211      74.718
2015    9       22     5  29    5.3651   630.6    4.200      74.669
2015    9       22     5  35    5.3581   630.9    4.189      74.619
2015    9       22     5  41    5.3513   631.1    4.179      74.570
2015    9       22     5  47    5.3444   631.4    4.169      74.520
2015    9       22     5  54    5.3377   631.6    4.159      74.473
2015    9       22     6   0    5.3311   631.8    4.149      74.429
2015    9       22     6   6    5.3245   632.1    4.140      74.387
2015    9       22     6  13    5.3180   632.3    4.132      74.347
2015    9       22     6  19    5.3115   632.5    4.123      74.310
2015    9       22     6  25    5.3051   632.7    4.115      74.277
2015    9       22     6  32    5.2987   632.9    4.107      74.249
2015    9       22     6  38    5.2922   633.2    4.099      74.226
2015    9       22     6  44    5.2858   633.5    4.091      74.207
2015    9       22     6  50    5.2793   633.8    4.083      74.189
2015    9       22     6  57    5.2728   634.1    4.075      74.171
2015    9       22     7   3    5.2662   634.4    4.067      74.149
2015    9       22     7   9    5.2595   634.6    4.059      74.122
2015    9       22     7  16    5.2527   634.9    4.051      74.090
2015    9       22     7  22    5.2459   635.2    4.043      74.055
2015    9       22     7  28    5.2389   635.4    4.035      74.019
2015    9       22     7  34    5.2319   635.7    4.026      73.981
2015    9       22     7  41    5.2248   636.0    4.018      73.942
2015    9       22     7  47    5.2177   636.2    4.009      73.902
2015    9       22     7  53    5.2105   636.5    4.001      73.861
2015    9       22     8   0    5.2034   636.7    3.993      73.817
2015    9       22     8   6    5.1964   636.9    3.984      73.773
2015    9       22     8  12    5.1895   637.1    3.976      73.729
2015    9       22     8  19    5.1828   637.4    3.968      73.686
2015    9       22     8  25    5.1761   637.6    3.961      73.647
2015    9       22     8  31    5.1695   637.8    3.953      73.609
2015    9       22     8  37    5.1630   638.1    3.945      73.576
2015    9       22     8  44    5.1566   638.3    3.938      73.544
2015    9       22     8  50    5.1501   638.6    3.930      73.517
2015    9       22     8  56    5.1438   638.8    3.923      73.492
2015    9       22     9   3    5.1374   639.1    3.916      73.469
2015    9       22     9   9    5.1311   639.4    3.909      73.445
2015    9       22     9  15    5.1247   639.6    3.901      73.422
2015    9       22     9  22    5.1184   639.9    3.894      73.396
2015    9       22     9  28    5.1120   640.1    3.887      73.368
2015    9       22     9  34    5.1057   640.4    3.879      73.339
2015    9       22     9  40    5.0993   640.6    3.872      73.308
2015    9       22     9  47    5.0929   640.9    3.864      73.277
2015    9       22     9  53    5.0866   641.1    3.857      73.245
2015    9       22     9  59    5.0802   641.4    3.849      73.211
2015    9       22    10   6    5.0739   641.6    3.842      73.177
2015    9       22    10  12    5.0677   641.9    3.835      73.142
2015    9       22    10  18    5.0615   642.1    3.827      73.106
2015    9       22    10  25    5.0553   642.3    3.820      73.069
2015    9       22    10  31    5.0492   642.6    3.812      73.032
2015    9       22    10  37    5.0432   642.8    3.805      72.994
2015    9       22    10  43    5.0372   643.0    3.798      72.956
2015    9       22    10  50    5.0312   643.2    3.791      72.918
2015    9       22    10  56    5.0254   643.5    3.783      72.880
2015    9       22    11   2    5.0195   643.7    3.776      72.842
2015    9       22    11   9    5.0138   643.9    3.769      72.805
2015    9       22    11  15    5.0080   644.1    3.762      72.769
2015    9       22    11  21    5.0023   644.3    3.755      72.734
2015    9       22    11  28    4.9967   644.5    3.749      72.700
2015    9       22    11  34    4.9911   644.8    3.742      72.667
2015    9       22    11  40    4.9855   645.0    3.735      72.634
2015    9       22    11  46    4.9799   645.2    3.729      72.602
2015    9       22    11  53    4.9744   645.4    3.722      72.571
2015    9       22    11  59    4.9689   645.6    3.716      72.540
2015    9       22    12   5    4.9634   645.8    3.710      72.510
2015    9       22    12  12    4.9579   646.0    3.704      72.481
2015    9       22    12  18    4.9525   646.2    3.698      72.452
2015    9       22    12  24    4.9471   646.4    3.692      72.424
2015    9       22    12  31    4.9417   646.6    3.686      72.396
2015    9       22    12  37    4.9364   646.7    3.680      72.369
2015    9       22    12  43    4.9311   646.9    3.675      72.343
2015    9       22    12  49    4.9258   647.1    3.669      72.317
2015    9       22    12  56    4.9206   647.3    3.664      72.292
2015    9       22    13   2    4.9154   647.5    3.658      72.267
2015    9       22    13   8    4.9102   647.7    3.653      72.243
2015    9       22    13  15    4.9050   647.8    3.648      72.219
2015    9       22    13  21    4.8999   648.0    3.643      72.196
2015    9       22    13  27    4.8948   648.2    3.638      72.173
2015    9       22    13  33    4.8897   648.3    3.633      72.150
2015    9       22    13  40    4.8846   648.5    3.628      72.128
2015    9       22    13  46    4.8795   648.7    3.623      72.105
2015    9       22    13  52    4.8744   648.8    3.619      72.083
2015    9       22    13  59    4.8693   649.0    3.614      72.060
2015    9       22    14   5    4.8643   649.2    3.609      72.037
2015    9       22    14  11    4.8592   649.3    3.604      72.014
2015    9       22    14  18    4.8541   649.5    3.599      71.991
2015    9       22    14  24    4.8490   649.6    3.595      71.966
2015    9       22    14  30    4.8439   649.8    3.590      71.941
2015    9       22    14  36    4.8389   650.0    3.585      71.915
2015    9       22    14  43    4.8338   650.1    3.580      71.889
2015    9       22    14  49    4.8287   650.3    3.575      71.861
2015    9       22    14  55    4.8236   650.4    3.570      71.833
2015    9       22    15   2    4.8186   650.6    3.565      71.805
2015    9       22    15   8    4.8135   650.7    3.561      71.775
2015    9       22    15  14    4.8085   650.9    3.556      71.745
2015    9       22    15  21    4.8034   651.0    3.551      71.715
2015    9       22    15  27    4.7984   651.2    3.546      71.683
2015    9       22    15  33    4.7934   651.3    3.541      71.652
2015    9       22    15  39    4.7884   651.4    3.536      71.620
2015    9       22    15  46    4.7835   651.6    3.531      71.588
2015    9       22    15  52    4.7785   651.7    3.526      71.555
2015    9       22    15  58    4.7736   651.9    3.521      71.522
2015    9       22    16   5    4.7687   652.0    3.517      71.488
2015    9       22    16  11    4.7638   652.1    3.512      71.455
2015    9       22    16  17    4.7589   652.3    3.507      71.421
2015    9       22    16  24    4.7540   652.4    3.502      71.388
2015    9       22    16  30    4.7492   652.5    3.497      71.354
2015    9       22    16  36    4.7444   652.6    3.493      71.320
2015    9       22    16  42    4.7396   652.8    3.488      71.287
2015    9       22    16  49    4.7348   652.9    3.483      71.253
2015    9       22    16  55    4.7301   653.0    3.479      71.220
2015    9       22    17   1    4.7253   653.1    3.474      71.187
2015    9       22    17   8    4.7206   653.3    3.470      71.154
2015    9       22    17  14    4.7160   653.4    3.465      71.122
2015    9       22    17  20    4.7113   653.5    3.461      71.090
2015    9       22    17  27    4.7067   653.6    3.456      71.058
2015    9       22    17  33    4.7021   653.7    3.452      71.027
2015    9       22    17  39    4.6975   653.8    3.448      70.996
2015    9       22    17  45    4.6929   654.0    3.444      70.966
2015    9       22    17  52    4.6884   654.1    3.439      70.936
2015    9       22    17  58    4.6840   654.2    3.435      70.906
2015    9       22    18   4    4.6795   654.3    3.431      70.877
2015    9       22    18  11    4.6751   654.4    3.427      70.848
2015    9       22    18  17    4.6707   654.5    3.423      70.820
2015    9       22    18  23    4.6663   654.6    3.419      70.792
2015    9       22    18  29    4.6620   654.7    3.415      70.765
2015    9       22    18  36    4.6576   654.8    3.411      70.738
2015    9       22    18  42    4.6533   655.0    3.407      70.712
2015    9       22    18  48    4.6491   655.1    3.404      70.686
2015    9       22    18  55    4.6448   655.2    3.400      70.661
2015    9       22    19   1    4.6406   655.3    3.396      70.636
2015    9       22    19   7    4.6364   655.4    3.393      70.612
2015    9       22    19  14    4.6322   655.5    3.389      70.588
2015    9       22    19  20    4.6281   655.6    3.386      70.565
2015    9       22    19  26    4.6239   655.7    3.382      70.542
2015    9       22    19  32    4.6198   655.8    3.379      70.519
2015    9       22    19  39    4.6157   655.9    3.375      70.497
2015    9       22    19  45    4.6117   656.0    3.372      70.475
2015    9       22    19  51    4.6076   656.1    3.369      70.453
2015    9       22    19  58    4.6036   656.2    3.366      70.432
2015    9       22    20   4    4.5995   656.3    3.363      70.410
2015    9       22    20  10    4.5956   656.4    3.359      70.389
2015    9       22    20  17    4.5916   656.5    3.356      70.367
2015    9       22    20  23    4.5876   656.5    3.353      70.346
2015    9       22    20  29    4.5836   656.6    3.350      70.325
2015    9       22    20  35    4.5797   656.7    3.347      70.303
2015    9       22    20  42    4.5758   656.8    3.344      70.281
2015    9       22    20  48    4.5719   656.9    3.341      70.260
2015    9       22    20  54    4.5679   657.0    3.338      70.237
2015    9       22    21   1    4.5640   657.1    3.335      70.215
2015    9       22    21   7    4.5601   657.1    3.332      70.193
2015    9       22    21  13    4.5563   657.2    3.329      70.170
2015    9       22    21  20    4.5524   657.3    3.327      70.146
2015    9       22    21  26    4.5485   657.4    3.324      70.123
2015    9       22    21  32    4.5446   657.5    3.321      70.098
2015    9       22    21  38    4.5408   657.5    3.318      70.074
2015    9       22    21  45    4.5369   657.6    3.315      70.049
2015    9       22    21  51    4.5331   657.7    3.312      70.023
2015    9       22    21  57    4.5292   657.8    3.309      69.997
2015    9       22    22   4    4.5254   657.8    3.306      69.971
2015    9       22    22  10    4.5216   657.9    3.303      69.944
2015    9       22    22  16    4.5178   658.0    3.300      69.916
2015    9       22    22  23    4.5140   658.0    3.297      69.889
2015    9       22    22  29    4.5103   658.1    3.294      69.861
2015    9       22    22  35    4.5065   658.2    3.291      69.832
2015    9       22    22  41    4.5028   658.2    3.288      69.803
2015    9       22    22  48    4.4991   658.3    3.285      69.773
2015    9       22    22  54    4.4953   658.4    3.282      69.744
2015    9       22    23   0    4.4916   658.4    3.279      69.714
2015    9       22    23   7    4.4880   658.5    3.276      69.683
2015    9       22    23  13    4.4843   658.5    3.273      69.653
2015    9       22    23  19    4.4807   658.6    3.270      69.622
2015    9       22    23  25    4.4771   658.6    3.267      69.591
2015    9       22    23  32    4.4734   658.7    3.264      69.561
2015    9       22    23  38    4.4699   658.8    3.261      69.529
2015    9       22    23  44    4.4663   658.8    3.258      69.499
2015    9       22    23  51    4.4627   658.9    3.256      69.467
2015    9       22    23  57    4.4592   658.9    3.253      69.436
2015    9       23     0   3    4.4557   659.0    3.250      69.406
2015    9       23     0  10    4.4522   659.0    3.247      69.375
2015    9       23     0  16    4.4487   659.1    3.244      69.344
2015    9       23     0  22    4.4453   659.1    3.241      69.314
2015    9       23     0  28    4.4418   659.2    3.238      69.284
2015    9       23     0  35    4.4384   659.2    3.235      69.254
2015    9       23     0  41    4.4350   659.2    3.232      69.224
2015    9       23     0  47    4.4317   659.3    3.230      69.195
2015    9       23     0  54    4.4283   659.3    3.227      69.166
2015    9       23     1   0    4.4250   659.4    3.224      69.138
2015    9       23     1   6    4.4217   659.4    3.221      69.109
2015    9       23     1  13    4.4184   659.5    3.219      69.081
2015    9       23     1  19    4.4151   659.5    3.216      69.054
2015    9       23     1  25    4.4119   659.5    3.213      69.027
2015    9       23     1  31    4.4087   659.6    3.211      69.000
2015    9       23     1  38    4.4055   659.6    3.208      68.974
2015    9       23     1  44    4.4023   659.7    3.206      68.948
2015    9       23     1  50    4.3991   659.7    3.203      68.922
2015    9       23     1  57    4.3960   659.7    3.201      68.897
2015    9       23     2   3    4.3929   659.8    3.198      68.872
2015    9       23     2   9    4.3898   659.8    3.196      68.847
2015    9       23     2  15    4.3867   659.8    3.193      68.823
2015    9       23     2  22    4.3836   659.9    3.191      68.799
2015    9       23     2  28    4.3806   659.9    3.189      68.776
2015    9       23     2  34    4.3776   660.0    3.187      68.752
2015    9       23     2  41    4.3745   660.0    3.184      68.729
2015    9       23     2  47    4.3715   660.0    3.182      68.706
2015    9       23     2  53    4.3686   660.1    3.180      68.684
2015    9       23     3   0    4.3656   660.1    3.178      68.661
2015    9       23     3   6    4.3626   660.1    3.176      68.639
2015    9       23     3  12    4.3597   660.2    3.174      68.617
2015    9       23     3  18    4.3568   660.2    3.172      68.595
2015    9       23     3  25    4.3539   660.2    3.170      68.573
2015    9       23     3  31    4.3510   660.3    3.168      68.551
2015    9       23     3  37    4.3481   660.3    3.166      68.530
2015    9       23     3  44    4.3452   660.3    3.164      68.508
2015    9       23     3  50    4.3423   660.3    3.162      68.486
2015    9       23     3  56    4.3395   660.4    3.160      68.465
2015    9       23     4   3    4.3367   660.4    3.158      68.443
2015    9       23     4   9    4.3338   660.4    3.157      68.422
2015    9       23     4  15    4.3310   660.5    3.155      68.400
2015    9       23     4  21    4.3282   660.5    3.153      68.379
2015    9       23     4  28    4.3254   660.5    3.151      68.357
2015    9       23     4  34    4.3226   660.5    3.150      68.335
2015    9       23     4  40    4.3198   660.6    3.148      68.313
2015    9       23     4  47    4.3171   660.6    3.146      68.292
2015    9       23     4  53    4.3143   660.6    3.145      68.270
2015    9       23     4  59    4.3116   660.6    3.143      68.248
2015    9       23     5   6    4.3088   660.7    3.142      68.226
2015    9       23     5  12    4.3061   660.7    3.140      68.204
2015    9       23     5  18    4.3033   660.7    3.138      68.182
2015    9       23     5  24    4.3006   660.7    3.137      68.160
2015    9       23     5  31    4.2979   660.7    3.135      68.138
2015    9       23     5  37    4.2952   660.8    3.134      68.116
2015    9       23     5  43    4.2925   660.8    3.132      68.093
2015    9       23     5  50    4.2898   660.8    3.131      68.071
2015    9       23     5  56    4.2871   660.8    3.129      68.049
2015    9       23     6   2    4.2845   660.9    3.128      68.027
2015    9       23     6   8    4.2818   660.9    3.126      68.004
2015    9       23     6  15    4.2791   660.9    3.125      67.982
2015    9       23     6  21    4.2765   660.9    3.123      67.960
2015    9       23     6  27    4.2738   660.9    3.122      67.937
2015    9       23     6  34    4.2712   660.9    3.121      67.915
2015    9       23     6  40    4.2685   661.0    3.119      67.893
2015    9       23     6  46    4.2659   661.0    3.118      67.870
2015    9       23     6  53    4.2633   661.0    3.116      67.848
2015    9       23     6  59    4.2607   661.0    3.115      67.825
2015    9       23     7   5    4.2581   661.0    3.113      67.803
2015    9       23     7  11    4.2555   661.0    3.112      67.781
2015    9       23     7  18    4.2529   661.0    3.110      67.758
2015    9       23     7  24    4.2503   661.1    3.109      67.736
2015    9       23     7  30    4.2477   661.1    3.108      67.713
2015    9       23     7  37    4.2451   661.1    3.106      67.691
2015    9       23     7  43    4.2426   661.1    3.105      67.669
2015    9       23     7  49    4.2401   661.1    3.103      67.646
2015    9       23     7  56    4.2375   661.1    3.102      67.624
2015    9       23     8   2    4.2350   661.1    3.100      67.601
2015    9       23     8   8    4.2325   661.1    3.099      67.579
2015    9       23     8  14    4.2299   661.1    3.097      67.556
2015    9       23     8  21    4.2275   661.1    3.096      67.534
2015    9       23     8  27    4.2250   661.1    3.094      67.511
2015    9       23     8  33    4.2225   661.1    3.093      67.489
2015    9       23     8  40    4.2200   661.1    3.091      67.466
2015    9       23     8  46    4.2176   661.1    3.090      67.443
2015    9       23     8  52    4.2151   661.1    3.088      67.421
2015    9       23     8  59    4.2127   661.1    3.087      67.398
2015    9       23     9   5    4.2103   661.1    3.085      67.376
2015    9       23     9  11    4.2079   661.1    3.084      67.354
2015    9       23     9  17    4.2055   661.1    3.082      67.331
2015    9       23     9  24    4.2032   661.1    3.081      67.309
2015    9       23     9  30    4.2008   661.1    3.079      67.287
2015    9       23     9  36    4.1985   661.1    3.078      67.264
2015    9       23     9  43    4.1961   661.1    3.076      67.242
2015    9       23     9  49    4.1938   661.1    3.075      67.221
2015    9       23     9  55    4.1915   661.1    3.073      67.199
2015    9       23    10   1    4.1893   661.1    3.072      67.177
2015    9       23    10   8    4.1870   661.1    3.070      67.155
2015    9       23    10  14    4.1848   661.1    3.069      67.134
2015    9       23    10  20    4.1825   661.1    3.068      67.113
2015    9       23    10  27    4.1803   661.1    3.066      67.091
2015    9       23    10  33    4.1781   661.1    3.065      67.070
2015    9       23    10  39    4.1759   661.1    3.063      67.050
2015    9       23    10  46    4.1737   661.1    3.062      67.029
2015    9       23    10  52    4.1715   661.1    3.061      67.008
2015    9       23    10  58    4.1694   661.0    3.059      66.988
2015    9       23    11   4    4.1673   661.0    3.058      66.968
2015    9       23    11  11    4.1651   661.0    3.057      66.947
2015    9       23    11  17    4.1630   661.0    3.056      66.927
2015    9       23    11  23    4.1609   661.0    3.054      66.907
2015    9       23    11  30    4.1588   661.0    3.053      66.888
2015    9       23    11  36    4.1567   661.0    3.052      66.868
2015    9       23    11  42    4.1546   661.0    3.051      66.848
2015    9       23    11  49    4.1525   661.0    3.050      66.828
2015    9       23    11  55    4.1505   660.9    3.048      66.809
2015    9       23    12   1    4.1484   660.9    3.047      66.789
2015    9       23    12   7    4.1463   660.9    3.046      66.769
2015    9       23    12  14    4.1443   660.9    3.045      66.750
2015    9       23    12  20    4.1422   660.9    3.044      66.730
2015    9       23    12  26    4.1402   660.9    3.043      66.710
2015    9       23    12  33    4.1381   660.9    3.042      66.691
2015    9       23    12  39    4.1361   660.9    3.041      66.671
2015    9       23    12  45    4.1341   660.8    3.040      66.651
2015    9       23    12  51    4.1320   660.8    3.039      66.632
2015    9       23    12  58    4.1300   660.8    3.038      66.612
2015    9       23    13   4    4.1280   660.8    3.037      66.592
2015    9       23    13  10    4.1259   660.8    3.036      66.572
2015    9       23    13  17    4.1239   660.8    3.035      66.552
2015    9       23    13  23    4.1219   660.7    3.034      66.532
2015    9       23    13  29    4.1199   660.7    3.033      66.511
2015    9       23    13  36    4.1179   660.7    3.032      66.491
2015    9       23    13  42    4.1159   660.7    3.031      66.471
2015    9       23    13  48    4.1139   660.7    3.030      66.451
2015    9       23    13  54    4.1118   660.7    3.029      66.430
2015    9       23    14   1    4.1099   660.6    3.028      66.410
2015    9       23    14   7    4.1079   660.6    3.027      66.390
2015    9       23    14  13    4.1059   660.6    3.026      66.370
2015    9       23    14  20    4.1039   660.6    3.025      66.349
2015    9       23    14  26    4.1020   660.6    3.024      66.329
2015    9       23    14  32    4.1000   660.5    3.023      66.308
2015    9       23    14  39    4.0981   660.5    3.022      66.288
2015    9       23    14  45    4.0961   660.5    3.021      66.268
2015    9       23    14  51    4.0942   660.5    3.020      66.248
2015    9       23    14  57    4.0923   660.5    3.019      66.228
2015    9       23    15   4    4.0904   660.4    3.018      66.208
2015    9       23    15  10    4.0885   660.4    3.018      66.188
2015    9       23    15  16    4.0866   660.4    3.017      66.168
2015    9       23    15  23    4.0847   660.4    3.016      66.148
2015    9       23    15  29    4.0828   660.4    3.015      66.128
2015    9       23    15  35    4.0810   660.3    3.014      66.108
2015    9       23    15  42    4.0791   660.3    3.013      66.089
2015    9       23    15  48    4.0773   660.3    3.013      66.069
2015    9       23    15  54    4.0755   660.3    3.012      66.049
2015    9       23    16   0    4.0736   660.2    3.011      66.029
2015    9       23    16   7    4.0718   660.2    3.010      66.010
2015    9       23    16  13    4.0700   660.2    3.009      65.990
2015    9       23    16  19    4.0682   660.2    3.009      65.970
2015    9       23    16  26    4.0664   660.1    3.008      65.951
2015    9       23    16  32    4.0646   660.1    3.007      65.931
2015    9       23    16  38    4.0628   660.1    3.006      65.911
2015    9       23    16  44    4.0610   660.1    3.006      65.891
2015    9       23    16  51    4.0592   660.0    3.005      65.871
2015    9       23    16  57    4.0575   660.0    3.004      65.851
2015    9       23    17   3    4.0557   660.0    3.003      65.830
2015    9       23    17  10    4.0539   660.0    3.003      65.810
2015    9       23    17  16    4.0522   659.9    3.002      65.790
2015    9       23    17  22    4.0504   659.9    3.001      65.769
2015    9       23    17  29    4.0486   659.9    3.000      65.749
2015    9       23    17  35    4.0469   659.9    3.000      65.728
2015    9       23    17  41    4.0451   659.8    2.999      65.707
2015    9       23    17  47    4.0434   659.8    2.998      65.687
2015    9       23    17  54    4.0416   659.8    2.997      65.666
2015    9       23    18   0    4.0399   659.7    2.996      65.645
2015    9       23    18   6    4.0381   659.7    2.996      65.624
2015    9       23    18  13    4.0364   659.7    2.995      65.604
2015    9       23    18  19    4.0347   659.6    2.994      65.583
2015    9       23    18  25    4.0329   659.6    2.993      65.562
2015    9       23    18  31    4.0312   659.6    2.992      65.541
2015    9       23    18  38    4.0295   659.6    2.992      65.520
2015    9       23    18  44    4.0278   659.5    2.991      65.499
2015    9       23    18  50    4.0261   659.5    2.990      65.478
2015    9       23    18  57    4.0244   659.4    2.989      65.457
2015    9       23    19   3    4.0227   659.4    2.988      65.437
2015    9       23    19   9    4.0210   659.4    2.988      65.416
2015    9       23    19  16    4.0193   659.3    2.987      65.395
2015    9       23    19  22    4.0176   659.3    2.986      65.374
2015    9       23    19  28    4.0159   659.3    2.985      65.354
2015    9       23    19  34    4.0142   659.2    2.985      65.333
2015    9       23    19  41    4.0126   659.2    2.984      65.312
2015    9       23    19  47    4.0109   659.2    2.983      65.292
2015    9       23    19  53    4.0093   659.1    2.982      65.271
2015    9       23    20   0    4.0076   659.1    2.981      65.251
2015    9       23    20   6    4.0060   659.0    2.981      65.231
2015    9       23    20  12    4.0043   659.0    2.980      65.210
2015    9       23    20  19    4.0027   659.0    2.979      65.190
2015    9       23    20  25    4.0010   658.9    2.979      65.170
2015    9       23    20  31    3.9994   658.9    2.978      65.150
2015    9       23    20  37    3.9978   658.8    2.977      65.130
2015    9       23    20  44    3.9962   658.8    2.976      65.111
2015    9       23    20  50    3.9945   658.7    2.976      65.091
2015    9       23    20  56    3.9929   658.7    2.975      65.072
2015    9       23    21   3    3.9913   658.7    2.974      65.052
2015    9       23    21   9    3.9897   658.6    2.974      65.033
2015    9       23    21  15    3.9882   658.6    2.973      65.014
2015    9       23    21  22    3.9866   658.5    2.972      64.995
2015    9       23    21  28    3.9850   658.5    2.972      64.975
2015    9       23    21  34    3.9834   658.5    2.971      64.956
2015    9       23    21  40    3.9818   658.4    2.971      64.937
2015    9       23    21  47    3.9802   658.4    2.970      64.917
2015    9       23    21  53    3.9787   658.3    2.969      64.898
2015    9       23    21  59    3.9771   658.3    2.969      64.878
2015    9       23    22   6    3.9755   658.2    2.968      64.858
2015    9       23    22  12    3.9740   658.2    2.967      64.838
2015    9       23    22  18    3.9724   658.2    2.967      64.817
2015    9       23    22  24    3.9708   658.1    2.966      64.797
2015    9       23    22  31    3.9693   658.1    2.966      64.776
2015    9       23    22  37    3.9677   658.0    2.965      64.755
2015    9       23    22  43    3.9662   658.0    2.964      64.733
2015    9       23    22  50    3.9646   657.9    2.964      64.712
2015    9       23    22  56    3.9631   657.9    2.963      64.690
2015    9       23    23   2    3.9615   657.8    2.962      64.668
2015    9       23    23   9    3.9600   657.8    2.961      64.646
2015    9       23    23  15    3.9584   657.8    2.961      64.624
2015    9       23    23  21    3.9569   657.7    2.960      64.601
2015    9       23    23  27    3.9554   657.7    2.959      64.579
2015    9       23    23  34    3.9538   657.6    2.959      64.556
2015    9       23    23  40    3.9523   657.6    2.958      64.534
2015    9       23    23  46    3.9508   657.5    2.958      64.512
2015    9       23    23  53    3.9493   657.5    2.957      64.490
2015    9       23    23  59    3.9478   657.4    2.956      64.467
2015    9       24     0   5    3.9463   657.4    2.956      64.445
2015    9       24     0  12    3.9448   657.3    2.955      64.424
2015    9       24     0  18    3.9434   657.3    2.955      64.402
2015    9       24     0  24    3.9419   657.2    2.954      64.381
2015    9       24     0  30    3.9404   657.2    2.954      64.360
2015    9       24     0  37    3.9390   657.1    2.953      64.338
2015    9       24     0  43    3.9375   657.1    2.953      64.318
2015    9       24     0  49    3.9360   657.0    2.952      64.297
2015    9       24     0  56    3.9346   657.0    2.952      64.277
2015    9       24     1   2    3.9331   656.9    2.951      64.256
2015    9       24     1   8    3.9317   656.9    2.951      64.236
2015    9       24     1  14    3.9303   656.8    2.951      64.216
2015    9       24     1  21    3.9288   656.8    2.950      64.197
2015    9       24     1  27    3.9274   656.7    2.950      64.177
2015    9       24     1  33    3.9259   656.7    2.949      64.158
2015    9       24     1  40    3.9245   656.6    2.949      64.138
2015    9       24     1  46    3.9230   656.6    2.949      64.119
2015    9       24     1  52    3.9216   656.5    2.948      64.100
2015    9       24     1  59    3.9202   656.5    2.948      64.081
2015    9       24     2   5    3.9187   656.4    2.948      64.063
2015    9       24     2  11    3.9173   656.4    2.948      64.044
2015    9       24     2  17    3.9159   656.3    2.947      64.026
2015    9       24     2  24    3.9145   656.3    2.947      64.008
2015    9       24     2  30    3.9130   656.2    2.947      63.989
2015    9       24     2  36    3.9116   656.2    2.947      63.972
2015    9       24     2  43    3.9102   656.1    2.946      63.954
2015    9       24     2  49    3.9088   656.0    2.946      63.937
2015    9       24     2  55    3.9074   656.0    2.946      63.919
2015    9       24     3   1    3.9060   655.9    2.946      63.902
2015    9       24     3   8    3.9046   655.9    2.946      63.885
2015    9       24     3  14    3.9032   655.8    2.946      63.868
2015    9       24     3  20    3.9018   655.8    2.945      63.851
2015    9       24     3  27    3.9004   655.7    2.945      63.834
2015    9       24     3  33    3.8990   655.7    2.945      63.817
2015    9       24     3  39    3.8976   655.6    2.945      63.800
2015    9       24     3  46    3.8963   655.5    2.945      63.783
2015    9       24     3  52    3.8949   655.5    2.944      63.767
2015    9       24     3  58    3.8935   655.4    2.944      63.750
2015    9       24     4   4    3.8921   655.4    2.944      63.734
2015    9       24     4  11    3.8908   655.3    2.944      63.717
2015    9       24     4  17    3.8894   655.2    2.944      63.701
2015    9       24     4  23    3.8881   655.2    2.943      63.684
2015    9       24     4  30    3.8868   655.1    2.943      63.668
2015    9       24     4  36    3.8854   655.1    2.943      63.652
2015    9       24     4  42    3.8841   655.0    2.943      63.635
2015    9       24     4  49    3.8828   654.9    2.943      63.619
2015    9       24     4  55    3.8815   654.9    2.942      63.602
2015    9       24     5   1    3.8801   654.8    2.942      63.586
2015    9       24     5   7    3.8788   654.8    2.942      63.569
2015    9       24     5  14    3.8775   654.7    2.941      63.552
2015    9       24     5  20    3.8762   654.6    2.941      63.535
2015    9       24     5  26    3.8749   654.6    2.941      63.517
2015    9       24     5  33    3.8737   654.5    2.940      63.499
2015    9       24     5  39    3.8723   654.4    2.940      63.481
2015    9       24     5  45    3.8710   654.4    2.940      63.462
2015    9       24     5  52    3.8697   654.3    2.939      63.443
2015    9       24     5  58    3.8684   654.3    2.939      63.423
2015    9       24     6   4    3.8671   654.2    2.938      63.402
2015    9       24     6  10    3.8658   654.1    2.938      63.381
2015    9       24     6  17    3.8645   654.1    2.937      63.359
2015    9       24     6  23    3.8632   654.0    2.937      63.337
2015    9       24     6  29    3.8619   653.9    2.936      63.314
2015    9       24     6  36    3.8606   653.9    2.936      63.291
2015    9       24     6  42    3.8593   653.8    2.935      63.268
2015    9       24     6  48    3.8580   653.7    2.935      63.244
2015    9       24     6  54    3.8567   653.7    2.934      63.220
2015    9       24     7   1    3.8554   653.6    2.934      63.196
2015    9       24     7   7    3.8541   653.5    2.933      63.171
2015    9       24     7  13    3.8529   653.5    2.933      63.146
2015    9       24     7  20    3.8516   653.4    2.932      63.121
2015    9       24     7  26    3.8503   653.4    2.932      63.096
2015    9       24     7  32    3.8490   653.3    2.931      63.071
2015    9       24     7  38    3.8477   653.2    2.931      63.047
2015    9       24     7  45    3.8464   653.2    2.930      63.021
2015    9       24     7  51    3.8451   653.1    2.930      62.997
2015    9       24     7  57    3.8438   653.0    2.929      62.972
2015    9       24     8   4    3.8426   652.9    2.929      62.947
2015    9       24     8  10    3.8413   652.9    2.928      62.922
2015    9       24     8  16    3.8400   652.8    2.928      62.898
2015    9       24     8  23    3.8387   652.7    2.928      62.873
2015    9       24     8  29    3.8375   652.7    2.927      62.849
2015    9       24     8  35    3.8362   652.6    2.927      62.825
2015    9       24     8  41    3.8349   652.5    2.926      62.801
2015    9       24     8  48    3.8337   652.5    2.926      62.777
2015    9       24     8  54    3.8324   652.4    2.926      62.754
2015    9       24     9   0    3.8311   652.3    2.925      62.731
2015    9       24     9   7    3.8299   652.2    2.925      62.709
2015    9       24     9  13    3.8286   652.2    2.925      62.686
2015    9       24     9  19    3.8274   652.1    2.924      62.664
2015    9       24     9  26    3.8262   652.0    2.924      62.643
2015    9       24     9  32    3.8249   652.0    2.924      62.622
2015    9       24     9  38    3.8237   651.9    2.924      62.600
2015    9       24     9  44    3.8225   651.8    2.923      62.580
2015    9       24     9  51    3.8212   651.7    2.923      62.559
2015    9       24     9  57    3.8200   651.7    2.923      62.540
2015    9       24    10   3    3.8188   651.6    2.923      62.520
2015    9       24    10  10    3.8176   651.5    2.923      62.500
2015    9       24    10  16    3.8164   651.4    2.923      62.481
2015    9       24    10  22    3.8152   651.4    2.922      62.462
2015    9       24    10  28    3.8140   651.3    2.922      62.443
2015    9       24    10  35    3.8127   651.2    2.922      62.424
2015    9       24    10  41    3.8115   651.2    2.922      62.405
2015    9       24    10  47    3.8103   651.1    2.922      62.386
2015    9       24    10  54    3.8091   651.0    2.922      62.368
2015    9       24    11   0    3.8079   650.9    2.922      62.349
2015    9       24    11   6    3.8067   650.9    2.922      62.331
2015    9       24    11  13    3.8055   650.8    2.922      62.313
2015    9       24    11  19    3.8043   650.7    2.922      62.294
2015    9       24    11  25    3.8031   650.6    2.922      62.276
2015    9       24    11  31    3.8018   650.6    2.922      62.258
2015    9       24    11  38    3.8006   650.5    2.922      62.240
2015    9       24    11  44    3.7994   650.4    2.922      62.222
2015    9       24    11  50    3.7982   650.3    2.923      62.204
2015    9       24    11  57    3.7970   650.3    2.923      62.186
2015    9       24    12   3    3.7958   650.2    2.923      62.169
2015    9       24    12   9    3.7946   650.1    2.923      62.151
2015    9       24    12  16    3.7934   650.0    2.923      62.134
2015    9       24    12  22    3.7922   649.9    2.923      62.116
2015    9       24    12  28    3.7910   649.9    2.924      62.100
2015    9       24    12  34    3.7898   649.8    2.924      62.083
2015    9       24    12  41    3.7887   649.7    2.924      62.066
2015    9       24    12  47    3.7875   649.6    2.924      62.050
2015    9       24    12  53    3.7863   649.5    2.924      62.034
2015    9       24    13   0    3.7851   649.5    2.924      62.018
2015    9       24    13   6    3.7839   649.4    2.924      62.002
2015    9       24    13  12    3.7828   649.3    2.925      61.987
2015    9       24    13  18    3.7816   649.2    2.925      61.971
2015    9       24    13  25    3.7804   649.1    2.925      61.955
2015    9       24    13  31    3.7793   649.1    2.925      61.938
2015    9       24    13  37    3.7781   649.0    2.925      61.920
2015    9       24    13  44    3.7770   648.9    2.925      61.903
2015    9       24    13  50    3.7758   648.8    2.925      61.885
2015    9       24    13  56    3.7747   648.7    2.925      61.867
2015    9       24    14   3    3.7735   648.6    2.925      61.849
2015    9       24    14   9    3.7724   648.6    2.924      61.829
2015    9       24    14  15    3.7712   648.5    2.924      61.809
2015    9       24    14  21    3.7700   648.4    2.924      61.789
2015    9       24    14  28    3.7689   648.3    2.924      61.767
2015    9       24    14  34    3.7677   648.3    2.924      61.745
2015    9       24    14  40    3.7665   648.2    2.923      61.723
2015    9       24    14  47    3.7654   648.1    2.923      61.700
2015    9       24    14  53    3.7642   648.0    2.923      61.675
2015    9       24    14  59    3.7630   647.9    2.923      61.651
2015    9       24    15   5    3.7618   647.9    2.922      61.626
2015    9       24    15  12    3.7607   647.8    2.922      61.601
2015    9       24    15  18    3.7595   647.7    2.922      61.575
2015    9       24    15  24    3.7583   647.6    2.921      61.549
2015    9       24    15  31    3.7571   647.5    2.921      61.522
2015    9       24    15  37    3.7559   647.4    2.920      61.495
2015    9       24    15  43    3.7548   647.3    2.920      61.468
2015    9       24    15  50    3.7536   647.3    2.920      61.440
2015    9       24    15  56    3.7524   647.2    2.919      61.413
2015    9       24    16   2    3.7512   647.1    2.919      61.385
2015    9       24    16   8    3.7501   647.0    2.918      61.358
2015    9       24    16  15    3.7489   646.9    2.918      61.331
2015    9       24    16  21    3.7478   646.8    2.918      61.303
2015    9       24    16  27    3.7466   646.7    2.917      61.277
2015    9       24    16  34    3.7455   646.6    2.917      61.250
2015    9       24    16  40    3.7443   646.6    2.917      61.224
2015    9       24    16  46    3.7432   646.5    2.916      61.198
2015    9       24    16  52    3.7421   646.4    2.916      61.172
2015    9       24    16  59    3.7410   646.3    2.916      61.147
2015    9       24    17   5    3.7399   646.2    2.916      61.122
2015    9       24    17  11    3.7387   646.1    2.916      61.097
2015    9       24    17  18    3.7376   646.0    2.915      61.073
2015    9       24    17  24    3.7365   645.9    2.915      61.049
2015    9       24    17  30    3.7354   645.8    2.915      61.026
2015    9       24    17  37    3.7342   645.7    2.915      61.002
2015    9       24    17  43    3.7331   645.6    2.915      60.979
2015    9       24    17  49    3.7320   645.6    2.915      60.956
2015    9       24    17  55    3.7309   645.5    2.914      60.934
2015    9       24    18   2    3.7298   645.4    2.914      60.911
2015    9       24    18   8    3.7286   645.3    2.914      60.888
2015    9       24    18  14    3.7275   645.2    2.914      60.866
2015    9       24    18  21    3.7264   645.1    2.914      60.843
2015    9       24    18  27    3.7252   645.0    2.914      60.820
2015    9       24    18  33    3.7241   644.9    2.914      60.798
2015    9       24    18  40    3.7230   644.8    2.914      60.775
2015    9       24    18  46    3.7218   644.7    2.914      60.752
2015    9       24    18  52    3.7207   644.6    2.913      60.728
2015    9       24    18  58    3.7195   644.5    2.913      60.705
2015    9       24    19   5    3.7184   644.4    2.913      60.681
2015    9       24    19  11    3.7172   644.3    2.913      60.657
2015    9       24    19  17    3.7161   644.2    2.913      60.633
2015    9       24    19  24    3.7149   644.1    2.913      60.608
2015    9       24    19  30    3.7138   644.1    2.913      60.583
2015    9       24    19  36    3.7126   644.0    2.913      60.559
2015    9       24    19  43    3.7114   643.9    2.913      60.534
2015    9       24    19  49    3.7103   643.8    2.913      60.510
2015    9       24    19  55    3.7091   643.7    2.913      60.485
2015    9       24    20   1    3.7080   643.6    2.914      60.462
2015    9       24    20   8    3.7068   643.5    2.914      60.438
2015    9       24    20  14    3.7057   643.4    2.914      60.415
2015    9       24    20  20    3.7045   643.3    2.914      60.393
2015    9       24    20  27    3.7034   643.2    2.914      60.371
2015    9       24    20  33    3.7023   643.1    2.915      60.350
2015    9       24    20  39    3.7012   643.0    2.915      60.330
2015    9       24    20  45    3.7001   642.9    2.915      60.309
2015    9       24    20  52    3.6990   642.8    2.916      60.289
2015    9       24    20  58    3.6979   642.7    2.916      60.269
2015    9       24    21   4    3.6969   642.6    2.916      60.250
2015    9       24    21  11    3.6958   642.5    2.917      60.230
2015    9       24    21  17    3.6947   642.4    2.917      60.211
2015    9       24    21  23    3.6937   642.3    2.917      60.192
2015    9       24    21  30    3.6926   642.2    2.918      60.173
2015    9       24    21  36    3.6916   642.1    2.918      60.154
2015    9       24    21  42    3.6905   642.0    2.919      60.135
2015    9       24    21  48    3.6895   641.9    2.919      60.115
2015    9       24    21  55    3.6884   641.8    2.919      60.096
2015    9       24    22   1    3.6874   641.7    2.920      60.077
2015    9       24    22   7    3.6863   641.6    2.920      60.058
2015    9       24    22  14    3.6853   641.5    2.920      60.039
2015    9       24    22  20    3.6842   641.4    2.920      60.021
2015    9       24    22  26    3.6831   641.3    2.921      60.002
2015    9       24    22  32    3.6821   641.1    2.921      59.983
2015    9       24    22  39    3.6810   641.0    2.921      59.964
2015    9       24    22  45    3.6799   640.9    2.921      59.944
2015    9       24    22  51    3.6789   640.8    2.921      59.923
2015    9       24    22  58    3.6778   640.7    2.921      59.902
2015    9       24    23   4    3.6767   640.6    2.921      59.881
2015    9       24    23  10    3.6757   640.5    2.921      59.859
2015    9       24    23  17    3.6746   640.4    2.921      59.837
2015    9       24    23  23    3.6735   640.3    2.921      59.814
2015    9       24    23  29    3.6724   640.2    2.921      59.790
2015    9       24    23  35    3.6713   640.1    2.921      59.767
2015    9       24    23  42    3.6702   640.0    2.921      59.742
2015    9       24    23  48    3.6692   639.9    2.921      59.718
2015    9       24    23  54    3.6681   639.8    2.921      59.693
2015    9       25     0   1    3.6670   639.7    2.921      59.668
2015    9       25     0   7    3.6659   639.6    2.921      59.643
2015    9       25     0  13    3.6648   639.5    2.921      59.618
2015    9       25     0  19    3.6637   639.4    2.921      59.592
2015    9       25     0  26    3.6626   639.3    2.921      59.567
2015    9       25     0  32    3.6615   639.2    2.921      59.541
2015    9       25     0  38    3.6604   639.1    2.921      59.516
2015    9       25     0  45    3.6593   639.0    2.921      59.490
2015    9       25     0  51    3.6582   638.9    2.921      59.464
2015    9       25     0  57    3.6571   638.8    2.921      59.439
2015    9       25     1   4    3.6560   638.7    2.921      59.413
2015    9       25     1  10    3.6549   638.6    2.921      59.388
2015    9       25     1  16    3.6538   638.5    2.921      59.363
2015    9       25     1  22    3.6526   638.4    2.921      59.337
2015    9       25     1  29    3.6515   638.3    2.921      59.312
2015    9       25     1  35    3.6505   638.2    2.921      59.287
2015    9       25     1  41    3.6494   638.1    2.921      59.262
2015    9       25     1  48    3.6483   638.0    2.922      59.236
2015    9       25     1  54    3.6472   637.8    2.922      59.211
2015    9       25     2   0    3.6461   637.7    2.922      59.185
2015    9       25     2   7    3.6450   637.6    2.922      59.159
2015    9       25     2  13    3.6439   637.5    2.922      59.133
2015    9       25     2  19    3.6429   637.4    2.922      59.107
2015    9       25     2  25    3.6418   637.3    2.922      59.080
2015    9       25     2  32    3.6407   637.2    2.922      59.054
2015    9       25     2  38    3.6396   637.1    2.922      59.027
2015    9       25     2  44    3.6385   637.0    2.921      58.999
2015    9       25     2  51    3.6374   636.8    2.921      58.972
2015    9       25     2  57    3.6364   636.7    2.921      58.944
2015    9       25     3   3    3.6353   636.6    2.921      58.916
2015    9       25     3   9    3.6342   636.5    2.921      58.889
2015    9       25     3  16    3.6331   636.4    2.921      58.861
2015    9       25     3  22    3.6320   636.3    2.921      58.833
2015    9       25     3  28    3.6309   636.2    2.921      58.804
2015    9       25     3  35    3.6299   636.0    2.921      58.776
2015    9       25     3  41    3.6288   635.9    2.920      58.747
2015    9       25     3  47    3.6277   635.8    2.920      58.718
2015    9       25     3  54    3.6267   635.7    2.920      58.689
2015    9       25     4   0    3.6256   635.6    2.920      58.660
2015    9       25     4   6    3.6246   635.5    2.920      58.631
2015    9       25     4  12    3.6235   635.3    2.920      58.601
2015    9       25     4  19    3.6225   635.2    2.920      58.572
2015    9       25     4  25    3.6214   635.1    2.920      58.543
2015    9       25     4  31    3.6204   635.0    2.920      58.514
2015    9       25     4  38    3.6194   634.9    2.921      58.486
2015    9       25     4  44    3.6184   634.7    2.921      58.458
2015    9       25     4  50    3.6174   634.6    2.921      58.431
2015    9       25     4  56    3.6164   634.5    2.921      58.405
2015    9       25     5   3    3.6154   634.4    2.922      58.379
2015    9       25     5   9    3.6145   634.2    2.922      58.355
2015    9       25     5  15    3.6135   634.1    2.923      58.331
2015    9       25     5  22    3.6125   634.0    2.923      58.308
2015    9       25     5  28    3.6116   633.9    2.924      58.287
2015    9       25     5  34    3.6107   633.8    2.925      58.267
2015    9       25     5  40    3.6097   633.6    2.925      58.248
2015    9       25     5  47    3.6088   633.5    2.926      58.229
2015    9       25     5  53    3.6078   633.4    2.927      58.211
2015    9       25     5  59    3.6069   633.3    2.928      58.193
2015    9       25     6   6    3.6060   633.2    2.928      58.176
2015    9       25     6  12    3.6050   633.0    2.929      58.159
2015    9       25     6  18    3.6041   632.9    2.930      58.142
2015    9       25     6  25    3.6032   632.8    2.931      58.125
2015    9       25     6  31    3.6022   632.7    2.932      58.108
2015    9       25     6  37    3.6013   632.6    2.932      58.091
2015    9       25     6  43    3.6003   632.4    2.933      58.074
2015    9       25     6  50    3.5993   632.3    2.933      58.057
2015    9       25     6  56    3.5984   632.2    2.934      58.040
2015    9       25     7   2    3.5974   632.1    2.935      58.022
2015    9       25     7   9    3.5964   632.0    2.935      58.003
2015    9       25     7  15    3.5954   631.8    2.936      57.983
2015    9       25     7  21    3.5945   631.7    2.936      57.963
2015    9       25     7  27    3.5935   631.6    2.936      57.942
2015    9       25     7  34    3.5925   631.5    2.937      57.920
2015    9       25     7  40    3.5915   631.3    2.937      57.898
2015    9       25     7  46    3.5905   631.2    2.938      57.875
2015    9       25     7  53    3.5895   631.1    2.938      57.851
2015    9       25     7  59    3.5886   631.0    2.938      57.827
2015    9       25     8   5    3.5876   630.9    2.938      57.802
2015    9       25     8  12    3.5866   630.7    2.939      57.777
2015    9       25     8  18    3.5856   630.6    2.939      57.751
2015    9       25     8  24    3.5846   630.5    2.939      57.725
2015    9       25     8  30    3.5836   630.4    2.939      57.698
2015    9       25     8  37    3.5826   630.2    2.940      57.671
2015    9       25     8  43    3.5816   630.1    2.940      57.643
2015    9       25     8  49    3.5806   630.0    2.940      57.616
2015    9       25     8  56    3.5797   629.9    2.940      57.588
2015    9       25     9   2    3.5787   629.7    2.940      57.560
2015    9       25     9   8    3.5777   629.6    2.941      57.533
2015    9       25     9  15    3.5768   629.5    2.941      57.505
2015    9       25     9  21    3.5758   629.4    2.941      57.478
2015    9       25     9  27    3.5749   629.2    2.942      57.451
2015    9       25     9  33    3.5739   629.1    2.942      57.424
2015    9       25     9  40    3.5730   629.0    2.942      57.398
2015    9       25     9  46    3.5720   628.9    2.943      57.372
2015    9       25     9  52    3.5711   628.7    2.943      57.347
2015    9       25     9  59    3.5702   628.6    2.943      57.322
2015    9       25    10   5    3.5693   628.5    2.944      57.298
2015    9       25    10  11    3.5684   628.3    2.944      57.275
2015    9       25    10  18    3.5675   628.2    2.945      57.252
2015    9       25    10  24    3.5666   628.1    2.945      57.230
2015    9       25    10  30    3.5657   628.0    2.946      57.208
2015    9       25    10  36    3.5648   627.8    2.946      57.187
2015    9       25    10  43    3.5640   627.7    2.947      57.166
2015    9       25    10  49    3.5631   627.6    2.947      57.145
2015    9       25    10  55    3.5621   627.5    2.948      57.124
2015    9       25    11   2    3.5612   627.3    2.948      57.103
2015    9       25    11   8    3.5603   627.2    2.949      57.082
2015    9       25    11  14    3.5594   627.1    2.949      57.060
2015    9       25    11  20    3.5585   626.9    2.950      57.038
2015    9       25    11  27    3.5575   626.8    2.950      57.015
2015    9       25    11  33    3.5566   626.7    2.951      56.992
2015    9       25    11  39    3.5556   626.6    2.951      56.968
2015    9       25    11  46    3.5547   626.4    2.951      56.944
2015    9       25    11  52    3.5538   626.3    2.952      56.919
2015    9       25    11  58    3.5528   626.2    2.952      56.893
2015    9       25    12   5    3.5519   626.0    2.952      56.866
2015    9       25    12  11    3.5510   625.9    2.953      56.840
2015    9       25    12  17    3.5501   625.8    2.953      56.813
2015    9       25    12  23    3.5492   625.6    2.953      56.785
2015    9       25    12  30    3.5483   625.5    2.954      56.758
2015    9       25    12  36    3.5474   625.3    2.954      56.731
2015    9       25    12  42    3.5465   625.2    2.955      56.703
2015    9       25    12  49    3.5456   625.1    2.955      56.676
2015    9       25    12  55    3.5447   624.9    2.955      56.648
2015    9       25    13   1    3.5438   624.8    2.956      56.621
2015    9       25    13   7    3.5429   624.7    2.956      56.593
2015    9       25    13  14    3.5421   624.5    2.957      56.566
2015    9       25    13  20    3.5412   624.4    2.958      56.539
2015    9       25    13  26    3.5404   624.3    2.958      56.512
2015    9       25    13  33    3.5395   624.1    2.959      56.486
2015    9       25    13  39    3.5386   624.0    2.959      56.460
2015    9       25    13  45    3.5378   623.8    2.960      56.434
2015    9       25    13  51    3.5369   623.7    2.961      56.408
2015    9       25    13  58    3.5361   623.6    2.962      56.383
2015    9       25    14   4    3.5352   623.4    2.962      56.359
2015    9       25    14  10    3.5344   623.3    2.963      56.335
2015    9       25    14  17    3.5335   623.1    2.964      56.312
2015    9       25    14  23    3.5327   623.0    2.964      56.289
2015    9       25    14  29    3.5319   622.8    2.965      56.267
2015    9       25    14  36    3.5311   622.7    2.966      56.244
2015    9       25    14  42    3.5303   622.6    2.967      56.222
2015    9       25    14  48    3.5295   622.4    2.968      56.201
2015    9       25    14  54    3.5288   622.3    2.968      56.179
2015    9       25    15   1    3.5280   622.1    2.969      56.158
2015    9       25    15   7    3.5273   622.0    2.970      56.138
2015    9       25    15  13    3.5265   621.9    2.971      56.118
2015    9       25    15  20    3.5258   621.7    2.972      56.098
2015    9       25    15  26    3.5250   621.6    2.973      56.078
2015    9       25    15  32    3.5243   621.4    2.974      56.059
2015    9       25    15  38    3.5235   621.3    2.975      56.039
2015    9       25    15  45    3.5227   621.2    2.976      56.019
2015    9       25    15  51    3.5219   621.0    2.977      55.999
2015    9       25    15  57    3.5211   620.9    2.977      55.980
2015    9       25    16   4    3.5203   620.7    2.978      55.959
2015    9       25    16  10    3.5195   620.6    2.979      55.939
2015    9       25    16  16    3.5187   620.5    2.980      55.918
2015    9       25    16  23    3.5179   620.3    2.980      55.898
2015    9       25    16  29    3.5171   620.2    2.981      55.877
2015    9       25    16  35    3.5163   620.0    2.982      55.855
2015    9       25    16  41    3.5155   619.9    2.983      55.833
2015    9       25    16  48    3.5147   619.8    2.983      55.811
2015    9       25    16  54    3.5139   619.6    2.984      55.788
2015    9       25    17   0    3.5131   619.5    2.985      55.766
2015    9       25    17   7    3.5123   619.3    2.985      55.743
2015    9       25    17  13    3.5115   619.2    2.986      55.720
2015    9       25    17  19    3.5107   619.1    2.987      55.697
2015    9       25    17  26    3.5099   618.9    2.987      55.674
2015    9       25    17  32    3.5091   618.8    2.988      55.652
2015    9       25    17  38    3.5084   618.6    2.989      55.629
2015    9       25    17  44    3.5076   618.5    2.990      55.607
2015    9       25    17  51    3.5068   618.4    2.990      55.585
2015    9       25    17  57    3.5061   618.2    2.991      55.562
2015    9       25    18   3    3.5053   618.1    2.992      55.540
2015    9       25    18  10    3.5045   617.9    2.993      55.518
2015    9       25    18  16    3.5037   617.8    2.994      55.496
2015    9       25    18  22    3.5029   617.7    2.994      55.474
2015    9       25    18  28    3.5021   617.5    2.995      55.452
2015    9       25    18  35    3.5013   617.4    2.996      55.430
2015    9       25    18  41    3.5005   617.2    2.997      55.408
2015    9       25    18  47    3.4997   617.1    2.998      55.386
2015    9       25    18  54    3.4989   616.9    2.998      55.364
2015    9       25    19   0    3.4981   616.8    2.999      55.341
2015    9       25    19   6    3.4973   616.7    3.000      55.319
2015    9       25    19  13    3.4965   616.5    3.001      55.296
2015    9       25    19  19    3.4957   616.4    3.002      55.273
2015    9       25    19  25    3.4950   616.2    3.002      55.250
2015    9       25    19  31    3.4942   616.1    3.003      55.227
2015    9       25    19  38    3.4935   615.9    3.004      55.203
2015    9       25    19  44    3.4927   615.8    3.005      55.180
2015    9       25    19  50    3.4919   615.7    3.006      55.156
2015    9       25    19  57    3.4912   615.5    3.006      55.132
2015    9       25    20   3    3.4904   615.4    3.007      55.108
2015    9       25    20   9    3.4897   615.2    3.008      55.083
2015    9       25    20  15    3.4889   615.1    3.009      55.058
2015    9       25    20  22    3.4881   614.9    3.009      55.033
2015    9       25    20  28    3.4873   614.8    3.010      55.007
2015    9       25    20  34    3.4865   614.7    3.011      54.981
2015    9       25    20  41    3.4857   614.5    3.011      54.954
2015    9       25    20  47    3.4849   614.4    3.012      54.927
2015    9       25    20  53    3.4841   614.2    3.013      54.900
2015    9       25    20  59    3.4833   614.1    3.013      54.872
2015    9       25    21   6    3.4825   613.9    3.014      54.844
2015    9       25    21  12    3.4817   613.8    3.014      54.816
2015    9       25    21  18    3.4809   613.6    3.015      54.787
2015    9       25    21  25    3.4802   613.5    3.015      54.759
2015    9       25    21  31    3.4794   613.3    3.016      54.731
2015    9       25    21  37    3.4786   613.2    3.016      54.703
2015    9       25    21  44    3.4778   613.0    3.017      54.675
2015    9       25    21  50    3.4771   612.9    3.018      54.647
2015    9       25    21  56    3.4763   612.7    3.018      54.620
2015    9       25    22   2    3.4756   612.6    3.019      54.593
2015    9       25    22   9    3.4748   612.4    3.020      54.566
2015    9       25    22  15    3.4741   612.3    3.020      54.540
2015    9       25    22  21    3.4734   612.1    3.021      54.515
2015    9       25    22  28    3.4726   612.0    3.022      54.489
2015    9       25    22  34    3.4719   611.8    3.023      54.465
2015    9       25    22  40    3.4712   611.7    3.024      54.440
2015    9       25    22  47    3.4704   611.5    3.025      54.416
2015    9       25    22  53    3.4697   611.4    3.025      54.393
2015    9       25    22  59    3.4690   611.2    3.026      54.370
2015    9       25    23   5    3.4682   611.1    3.027      54.347
2015    9       25    23  12    3.4675   610.9    3.028      54.325
2015    9       25    23  18    3.4667   610.8    3.029      54.303
2015    9       25    23  24    3.4660   610.6    3.030      54.281
2015    9       25    23  31    3.4653   610.5    3.031      54.261
2015    9       25    23  37    3.4645   610.3    3.032      54.240
2015    9       25    23  43    3.4638   610.2    3.033      54.219
2015    9       25    23  50    3.4630   610.0    3.034      54.199
2015    9       25    23  56    3.4623   609.9    3.035      54.180
2015    9       26     0   2    3.4616   609.7    3.036      54.160
2015    9       26     0   8    3.4609   609.6    3.037      54.140
2015    9       26     0  15    3.4602   609.4    3.038      54.120
2015    9       26     0  21    3.4595   609.3    3.039      54.100
2015    9       26     0  27    3.4588   609.1    3.040      54.080
2015    9       26     0  34    3.4580   609.0    3.041      54.059
2015    9       26     0  40    3.4573   608.8    3.042      54.038
2015    9       26     0  46    3.4566   608.7    3.043      54.017
2015    9       26     0  52    3.4559   608.5    3.044      53.996
2015    9       26     0  59    3.4551   608.4    3.044      53.974
2015    9       26     1   5    3.4544   608.2    3.045      53.952
2015    9       26     1  11    3.4536   608.1    3.046      53.929
2015    9       26     1  18    3.4529   607.9    3.047      53.906
2015    9       26     1  24    3.4521   607.8    3.048      53.882
2015    9       26     1  30    3.4514   607.6    3.048      53.857
2015    9       26     1  37    3.4506   607.5    3.049      53.833
2015    9       26     1  43    3.4498   607.3    3.050      53.807
2015    9       26     1  49    3.4491   607.2    3.051      53.782
2015    9       26     1  55    3.4483   607.0    3.051      53.756
2015    9       26     2   2    3.4475   606.9    3.052      53.730
2015    9       26     2   8    3.4467   606.7    3.053      53.704
2015    9       26     2  14    3.4460   606.6    3.054      53.678
2015    9       26     2  21    3.4452   606.4    3.054      53.652
2015    9       26     2  27    3.4444   606.3    3.055      53.626
2015    9       26     2  33    3.4437   606.1    3.056      53.599
2015    9       26     2  39    3.4429   606.0    3.057      53.574
2015    9       26     2  46    3.4422   605.8    3.058      53.548
2015    9       26     2  52    3.4414   605.7    3.058      53.522
2015    9       26     2  58    3.4407   605.5    3.059      53.496
2015    9       26     3   5    3.4399   605.4    3.060      53.471
2015    9       26     3  11    3.4392   605.2    3.061      53.446
2015    9       26     3  17    3.4384   605.1    3.062      53.421
2015    9       26     3  24    3.4377   604.9    3.063      53.396
2015    9       26     3  30    3.4369   604.8    3.063      53.372
2015    9       26     3  36    3.4361   604.6    3.064      53.347
2015    9       26     3  42    3.4353   604.5    3.065      53.322
2015    9       26     3  49    3.4346   604.3    3.066      53.298
2015    9       26     3  55    3.4338   604.2    3.067      53.273
2015    9       26     4   1    3.4330   604.0    3.068      53.248
2015    9       26     4   8    3.4322   603.9    3.069      53.224
2015    9       26     4  14    3.4314   603.7    3.069      53.199
2015    9       26     4  20    3.4307   603.6    3.070      53.175
2015    9       26     4  26    3.4299   603.4    3.071      53.150
2015    9       26     4  33    3.4291   603.3    3.072      53.125
2015    9       26     4  39    3.4283   603.1    3.072      53.099
2015    9       26     4  45    3.4275   603.0    3.073      53.074
2015    9       26     4  52    3.4267   602.8    3.074      53.048
2015    9       26     4  58    3.4259   602.7    3.075      53.023
2015    9       26     5   4    3.4251   602.5    3.075      52.997
2015    9       26     5  10    3.4243   602.4    3.076      52.971
2015    9       26     5  17    3.4235   602.2    3.077      52.944
2015    9       26     5  23    3.4227   602.1    3.077      52.917
2015    9       26     5  29    3.4219   601.9    3.078      52.890
2015    9       26     5  36    3.4211   601.8    3.079      52.863
2015    9       26     5  42    3.4203   601.6    3.079      52.836
2015    9       26     5  48    3.4195   601.5    3.080      52.808
2015    9       26     5  55    3.4187   601.3    3.080      52.780
2015    9       26     6   1    3.4179   601.2    3.081      52.753
2015    9       26     6   7    3.4171   601.0    3.082      52.725
2015    9       26     6  13    3.4163   600.8    3.082      52.698
2015    9       26     6  20    3.4155   600.7    3.083      52.670
2015    9       26     6  26    3.4147   600.5    3.084      52.643
2015    9       26     6  32    3.4139   600.4    3.084      52.616
2015    9       26     6  39    3.4131   600.2    3.085      52.589
2015    9       26     6  45    3.4123   600.1    3.086      52.562
2015    9       26     6  51    3.4115   599.9    3.087      52.536
2015    9       26     6  58    3.4108   599.8    3.087      52.510
2015    9       26     7   4    3.4100   599.6    3.088      52.484
2015    9       26     7  10    3.4092   599.5    3.089      52.458
2015    9       26     7  16    3.4085   599.3    3.090      52.433
2015    9       26     7  23    3.4077   599.1    3.091      52.408
2015    9       26     7  29    3.4069   599.0    3.091      52.383
2015    9       26     7  35    3.4062   598.8    3.092      52.358
2015    9       26     7  42    3.4054   598.7    3.093      52.334
2015    9       26     7  48    3.4046   598.5    3.094      52.310
2015    9       26     7  54    3.4038   598.4    3.095      52.285
2015    9       26     8   1    3.4031   598.2    3.095      52.261
2015    9       26     8   7    3.4023   598.1    3.096      52.237
2015    9       26     8  13    3.4015   597.9    3.097      52.212
2015    9       26     8  19    3.4007   597.8    3.098      52.188
2015    9       26     8  26    3.3999   597.6    3.099      52.164
2015    9       26     8  32    3.3991   597.5    3.099      52.140
2015    9       26     8  38    3.3983   597.3    3.100      52.115
2015    9       26     8  45    3.3975   597.2    3.101      52.090
2015    9       26     8  51    3.3967   597.0    3.102      52.066
2015    9       26     8  57    3.3959   596.9    3.102      52.041
2015    9       26     9   3    3.3950   596.7    3.103      52.016
2015    9       26     9  10    3.3942   596.6    3.104      51.991
2015    9       26     9  16    3.3934   596.4    3.105      51.965
2015    9       26     9  22    3.3925   596.3    3.105      51.940
2015    9       26     9  29    3.3917   596.1    3.106      51.914
2015    9       26     9  35    3.3909   595.9    3.107      51.889
2015    9       26     9  41    3.3900   595.8    3.107      51.863
2015    9       26     9  47    3.3892   595.6    3.108      51.837
2015    9       26     9  54    3.3883   595.5    3.109      51.811
2015    9       26    10   0    3.3875   595.3    3.109      51.785
2015    9       26    10   6    3.3866   595.2    3.110      51.759
2015    9       26    10  13    3.3858   595.0    3.111      51.733
2015    9       26    10  19    3.3849   594.9    3.111      51.707
2015    9       26    10  25    3.3841   594.7    3.112      51.681
2015    9       26    10  32    3.3832   594.5    3.113      51.655
2015    9       26    10  38    3.3824   594.4    3.114      51.629
2015    9       26    10  44    3.3815   594.2    3.114      51.603
2015    9       26    10  50    3.3807   594.1    3.115      51.577
2015    9       26    10  57    3.3798   593.9    3.116      51.551
2015    9       26    11   3    3.3790   593.8    3.117      51.526
2015    9       26    11   9    3.3782   593.6    3.117      51.500
2015    9       26    11  16    3.3773   593.5    3.118      51.475
2015    9       26    11  22    3.3765   593.3    3.119      51.449
2015    9       26    11  28    3.3757   593.1    3.120      51.424
2015    9       26    11  34    3.3748   593.0    3.121      51.399
2015    9       26    11  41    3.3740   592.8    3.121      51.374
2015    9       26    11  47    3.3732   592.7    3.122      51.349
2015    9       26    11  53    3.3723   592.5    3.123      51.324
2015    9       26    12   0    3.3715   592.4    3.124      51.299
2015    9       26    12   6    3.3707   592.2    3.125      51.274
2015    9       26    12  12    3.3698   592.1    3.125      51.249
2015    9       26    12  19    3.3690   591.9    3.126      51.224
2015    9       26    12  25    3.3681   591.8    3.127      51.198
2015    9       26    12  31    3.3673   591.6    3.128      51.173
2015    9       26    12  37    3.3664   591.4    3.128      51.147
2015    9       26    12  44    3.3656   591.3    3.129      51.122
2015    9       26    12  50    3.3647   591.1    3.130      51.096
2015    9       26    12  56    3.3638   591.0    3.131      51.070
2015    9       26    13   3    3.3630   590.8    3.131      51.044
2015    9       26    13   9    3.3621   590.7    3.132      51.018
2015    9       26    13  15    3.3612   590.5    3.133      50.991
2015    9       26    13  21    3.3603   590.4    3.133      50.965
2015    9       26    13  28    3.3594   590.2    3.134      50.938
2015    9       26    13  34    3.3585   590.1    3.134      50.911
2015    9       26    13  40    3.3576   589.9    3.135      50.884
2015    9       26    13  47    3.3567   589.8    3.136      50.857
2015    9       26    13  53    3.3558   589.6    3.136      50.829
2015    9       26    13  59    3.3549   589.5    3.137      50.802
2015    9       26    14   6    3.3540   589.3    3.137      50.775
2015    9       26    14  12    3.3531   589.1    3.138      50.747
2015    9       26    14  18    3.3522   589.0    3.138      50.719
2015    9       26    14  24    3.3513   588.8    3.139      50.691
2015    9       26    14  31    3.3504   588.7    3.140      50.663
2015    9       26    14  37    3.3494   588.5    3.140      50.635
2015    9       26    14  43    3.3485   588.4    3.141      50.607
2015    9       26    14  50    3.3476   588.2    3.141      50.579
2015    9       26    14  56    3.3466   588.1    3.142      50.550
2015    9       26    15   2    3.3457   587.9    3.142      50.522
2015    9       26    15   9    3.3447   587.8    3.142      50.493
2015    9       26    15  15    3.3438   587.6    3.143      50.465
2015    9       26    15  21    3.3428   587.4    3.143      50.436
2015    9       26    15  27    3.3419   587.3    3.144      50.408
2015    9       26    15  34    3.3409   587.1    3.144      50.379
2015    9       26    15  40    3.3399   587.0    3.145      50.351
2015    9       26    15  46    3.3390   586.8    3.145      50.322
2015    9       26    15  53    3.3380   586.6    3.146      50.293
2015    9       26    15  59    3.3370   586.5    3.146      50.265
2015    9       26    16   5    3.3361   586.3    3.147      50.236
2015    9       26    16  11    3.3351   586.2    3.147      50.207
2015    9       26    16  18    3.3341   586.0    3.148      50.178
2015    9       26    16  24    3.3331   585.8    3.148      50.150
2015    9       26    16  30    3.3321   585.7    3.149      50.121
2015    9       26    16  37    3.3311   585.5    3.149      50.092
2015    9       26    16  43    3.3302   585.4    3.149      50.063
2015    9       26    16  49    3.3291   585.2    3.150      50.034
2015    9       26    16  56    3.3282   585.0    3.150      50.005
2015    9       26    17   2    3.3272   584.9    3.151      49.976
2015    9       26    17   8    3.3262   584.7    3.151      49.947
2015    9       26    17  14    3.3252   584.6    3.152      49.919
2015    9       26    17  21    3.3242   584.4    3.153      49.890
2015    9       26    17  27    3.3232   584.2    3.153      49.861
2015    9       26    17  33    3.3222   584.1    3.154      49.833
2015    9       26    17  40    3.3213   583.9    3.154      49.804
2015    9       26    17  46    3.3203   583.7    3.155      49.776
2015    9       26    17  52    3.3193   583.6    3.156      49.748
2015    9       26    17  58    3.3184   583.4    3.156      49.720
2015    9       26    18   5    3.3174   583.3    3.157      49.693
2015    9       26    18  11    3.3164   583.1    3.158      49.666
2015    9       26    18  17    3.3155   582.9    3.158      49.638
2015    9       26    18  24    3.3145   582.8    3.159      49.612
2015    9       26    18  30    3.3136   582.6    3.160      49.585
2015    9       26    18  36    3.3127   582.4    3.161      49.559
2015    9       26    18  42    3.3117   582.3    3.162      49.533
2015    9       26    18  49    3.3108   582.1    3.163      49.508
2015    9       26    18  55    3.3099   582.0    3.163      49.482
2015    9       26    19   1    3.3089   581.8    3.164      49.457
2015    9       26    19   8    3.3080   581.6    3.165      49.432
2015    9       26    19  14    3.3071   581.5    3.166      49.408
2015    9       26    19  20    3.3062   581.3    3.167      49.383
2015    9       26    19  27    3.3052   581.2    3.168      49.358
2015    9       26    19  33    3.3043   581.0    3.168      49.334
2015    9       26    19  39    3.3034   580.9    3.169      49.309
2015    9       26    19  45    3.3024   580.7    3.170      49.285
2015    9       26    19  52    3.3015   580.5    3.171      49.260
2015    9       26    19  58    3.3005   580.4    3.171      49.235
2015    9       26    20   4    3.2995   580.2    3.172      49.210
2015    9       26    20  11    3.2985   580.1    3.173      49.185
2015    9       26    20  17    3.2976   579.9    3.173      49.159
2015    9       26    20  23    3.2965   579.8    3.174      49.133
2015    9       26    20  30    3.2955   579.6    3.174      49.108
2015    9       26    20  36    3.2946   579.4    3.175      49.081
2015    9       26    20  42    3.2935   579.3    3.175      49.055
2015    9       26    20  48    3.2925   579.1    3.176      49.028
2015    9       26    20  55    3.2915   579.0    3.176      49.000
2015    9       26    21   1    3.2905   578.8    3.176      48.972
2015    9       26    21   7    3.2894   578.7    3.177      48.944
2015    9       26    21  14    3.2884   578.5    3.177      48.916
2015    9       26    21  20    3.2874   578.3    3.177      48.887
2015    9       26    21  26    3.2863   578.2    3.177      48.858
2015    9       26    21  32    3.2853   578.0    3.178      48.828
2015    9       26    21  39    3.2842   577.9    3.178      48.798
2015    9       26    21  45    3.2832   577.7    3.178      48.767
2015    9       26    21  51    3.2821   577.6    3.178      48.736
2015    9       26    21  58    3.2811   577.4    3.178      48.706
2015    9       26    22   4    3.2800   577.2    3.178      48.674
2015    9       26    22  10    3.2789   577.1    3.179      48.642
2015    9       26    22  17    3.2779   576.9    3.179      48.610
2015    9       26    22  23    3.2768   576.8    3.179      48.578
2015    9       26    22  29    3.2757   576.6    3.179      48.545
2015    9       26    22  35    3.2747   576.4    3.179      48.513
2015    9       26    22  42    3.2736   576.3    3.179      48.481
2015    9       26    22  48    3.2725   576.1    3.180      48.448
2015    9       26    22  54    3.2715   575.9    3.180      48.416
2015    9       26    23   1    3.2704   575.8    3.180      48.383
2015    9       26    23   7    3.2693   575.6    3.181      48.351
2015    9       26    23  13    3.2683   575.4    3.181      48.319
2015    9       26    23  20    3.2672   575.2    3.181      48.287
2015    9       26    23  26    3.2662   575.1    3.182      48.255
2015    9       26    23  32    3.2651   574.9    3.182      48.224
2015    9       26    23  38    3.2641   574.7    3.183      48.193
2015    9       26    23  45    3.2631   574.6    3.183      48.161
2015    9       26    23  51    3.2620   574.4    3.184      48.130
2015    9       26    23  57    3.2610   574.2    3.185      48.100
2015    9       27     0   4    3.2600   574.1    3.185      48.069
2015    9       27     0  10    3.2590   573.9    3.186      48.039
2015    9       27     0  16    3.2580   573.7    3.186      48.009
2015    9       27     0  22    3.2569   573.6    3.187      47.978
2015    9       27     0  29    3.2559   573.4    3.188      47.948
2015    9       27     0  35    3.2549   573.2    3.188      47.918
2015    9       27     0  41    3.2539   573.0    3.189      47.888
2015    9       27     0  48    3.2529   572.9    3.189      47.858
2015    9       27     0  54    3.2518   572.7    3.190      47.828
2015    9       27     1   0    3.2508   572.5    3.190      47.798
2015    9       27     1   6    3.2498   572.4    3.191      47.768
2015    9       27     1  13    3.2487   572.2    3.192      47.737
2015    9       27     1  19    3.2477   572.0    3.192      47.707
2015    9       27     1  25    3.2467   571.9    3.193      47.677
2015    9       27     1  32    3.2457   571.7    3.193      47.646
2015    9       27     1  38    3.2447   571.5    3.194      47.616
2015    9       27     1  44    3.2436   571.3    3.194      47.586
2015    9       27     1  51    3.2426   571.2    3.195      47.555
2015    9       27     1  57    3.2416   571.0    3.195      47.525
2015    9       27     2   3    3.2406   570.8    3.196      47.495
2015    9       27     2   9    3.2395   570.7    3.196      47.465
2015    9       27     2  16    3.2385   570.5    3.197      47.434
2015    9       27     2  22    3.2375   570.3    3.197      47.404
2015    9       27     2  28    3.2365   570.2    3.197      47.374
2015    9       27     2  35    3.2355   570.0    3.198      47.345
2015    9       27     2  41    3.2345   569.8    3.199      47.315
2015    9       27     2  47    3.2335   569.7    3.199      47.285
2015    9       27     2  53    3.2325   569.5    3.200      47.255
2015    9       27     3   0    3.2315   569.3    3.200      47.226
2015    9       27     3   6    3.2305   569.2    3.201      47.197
2015    9       27     3  12    3.2294   569.0    3.201      47.167
2015    9       27     3  19    3.2285   568.8    3.202      47.138
2015    9       27     3  25    3.2275   568.7    3.202      47.109
2015    9       27     3  31    3.2264   568.5    3.203      47.080
2015    9       27     3  38    3.2254   568.3    3.203      47.051
2015    9       27     3  44    3.2245   568.2    3.204      47.022
2015    9       27     3  50    3.2235   568.0    3.204      46.994
2015    9       27     3  56    3.2225   567.8    3.205      46.965
2015    9       27     4   3    3.2215   567.6    3.206      46.937
2015    9       27     4   9    3.2205   567.5    3.206      46.908
2015    9       27     4  15    3.2195   567.3    3.207      46.880
2015    9       27     4  22    3.2186   567.1    3.208      46.852
2015    9       27     4  28    3.2176   567.0    3.208      46.825
2015    9       27     4  34    3.2167   566.8    3.209      46.797
2015    9       27     4  41    3.2157   566.6    3.210      46.769
2015    9       27     4  47    3.2148   566.5    3.210      46.742
2015    9       27     4  53    3.2139   566.3    3.211      46.714
2015    9       27     4  59    3.2129   566.1    3.212      46.687
2015    9       27     5   6    3.2120   566.0    3.212      46.660
2015    9       27     5  12    3.2111   565.8    3.213      46.632
2015    9       27     5  18    3.2102   565.6    3.214      46.605
2015    9       27     5  25    3.2092   565.5    3.214      46.577
2015    9       27     5  31    3.2083   565.3    3.215      46.549
2015    9       27     5  37    3.2074   565.1    3.216      46.521
2015    9       27     5  43    3.2064   565.0    3.216      46.494
2015    9       27     5  50    3.2055   564.8    3.217      46.465
2015    9       27     5  56    3.2045   564.6    3.218      46.437
2015    9       27     6   2    3.2036   564.5    3.218      46.409
2015    9       27     6   9    3.2026   564.3    3.219      46.381
2015    9       27     6  15    3.2016   564.1    3.220      46.352
2015    9       27     6  21    3.2007   564.0    3.220      46.323
2015    9       27     6  28    3.1997   563.8    3.221      46.294
2015    9       27     6  34    3.1988   563.6    3.222      46.265
2015    9       27     6  40    3.1978   563.5    3.222      46.235
2015    9       27     6  46    3.1968   563.3    3.223      46.206
2015    9       27     6  53    3.1959   563.1    3.224      46.176
2015    9       27     6  59    3.1949   563.0    3.225      46.147
2015    9       27     7   5    3.1940   562.8    3.225      46.117
2015    9       27     7  12    3.1930   562.6    3.226      46.087
2015    9       27     7  18    3.1920   562.5    3.227      46.057
2015    9       27     7  24    3.1911   562.3    3.227      46.027
2015    9       27     7  31    3.1901   562.1    3.228      45.997
2015    9       27     7  37    3.1892   562.0    3.229      45.967
2015    9       27     7  43    3.1882   561.8    3.229      45.937
2015    9       27     7  49    3.1873   561.6    3.230      45.907
2015    9       27     7  56    3.1863   561.5    3.230      45.876
2015    9       27     8   2    3.1853   561.3    3.231      45.846
2015    9       27     8   8    3.1843   561.1    3.232      45.815
2015    9       27     8  15    3.1834   561.0    3.232      45.784
2015    9       27     8  21    3.1824   560.8    3.233      45.753
2015    9       27     8  27    3.1814   560.6    3.233      45.722
2015    9       27     8  33    3.1805   560.5    3.234      45.691
2015    9       27     8  40    3.1795   560.3    3.234      45.660
2015    9       27     8  46    3.1785   560.1    3.235      45.628
2015    9       27     8  52    3.1775   559.9    3.235      45.596
2015    9       27     8  59    3.1766   559.8    3.235      45.565
2015    9       27     9   5    3.1756   559.6    3.236      45.533
2015    9       27     9  11    3.1746   559.4    3.236      45.501
2015    9       27     9  17    3.1736   559.3    3.237      45.469
2015    9       27     9  24    3.1727   559.1    3.237      45.436
2015    9       27     9  30    3.1717   558.9    3.237      45.404
2015    9       27     9  36    3.1707   558.7    3.238      45.372
2015    9       27     9  43    3.1698   558.6    3.238      45.340
2015    9       27     9  49    3.1688   558.4    3.239      45.307
2015    9       27     9  55    3.1679   558.2    3.239      45.275
2015    9       27    10   2    3.1669   558.0    3.239      45.243
2015    9       27    10   8    3.1660   557.9    3.240      45.211
2015    9       27    10  14    3.1650   557.7    3.240      45.178
2015    9       27    10  20    3.1641   557.5    3.240      45.146
2015    9       27    10  27    3.1632   557.4    3.241      45.114
2015    9       27    10  33    3.1623   557.2    3.241      45.081
2015    9       27    10  39    3.1614   557.0    3.242      45.049
2015    9       27    10  46    3.1605   556.8    3.242      45.017
2015    9       27    10  52    3.1596   556.7    3.243      44.985
2015    9       27    10  58    3.1587   556.5    3.243      44.954
2015    9       27    11   4    3.1578   556.3    3.244      44.922
2015    9       27    11  11    3.1569   556.1    3.245      44.891
2015    9       27    11  17    3.1560   556.0    3.245      44.859
2015    9       27    11  23    3.1552   555.8    3.246      44.828
2015    9       27    11  30    3.1543   555.6    3.247      44.797
2015    9       27    11  36    3.1535   555.4    3.247      44.767
2015    9       27    11  42    3.1526   555.2    3.248      44.737
2015    9       27    11  49    3.1518   555.1    3.249      44.707
2015    9       27    11  55    3.1510   554.9    3.250      44.677
2015    9       27    12   1    3.1502   554.7    3.251      44.648
2015    9       27    12   7    3.1494   554.5    3.252      44.620
2015    9       27    12  14    3.1486   554.4    3.253      44.592
2015    9       27    12  20    3.1478   554.2    3.254      44.564
2015    9       27    12  26    3.1470   554.0    3.255      44.536
2015    9       27    12  33    3.1463   553.8    3.256      44.509
2015    9       27    12  39    3.1455   553.7    3.257      44.483
2015    9       27    12  45    3.1447   553.5    3.258      44.457
2015    9       27    12  52    3.1440   553.3    3.260      44.431
2015    9       27    12  58    3.1432   553.1    3.261      44.406
2015    9       27    13   4    3.1425   553.0    3.262      44.380
2015    9       27    13  10    3.1417   552.8    3.263      44.355
2015    9       27    13  17    3.1409   552.6    3.265      44.331
2015    9       27    13  23    3.1401   552.5    3.266      44.306
2015    9       27    13  29    3.1393   552.3    3.267      44.282
2015    9       27    13  36    3.1385   552.1    3.269      44.258
2015    9       27    13  42    3.1377   552.0    3.270      44.234
2015    9       27    13  48    3.1369   551.8    3.271      44.209
2015    9       27    13  54    3.1361   551.6    3.272      44.185
2015    9       27    14   1    3.1353   551.4    3.273      44.160
2015    9       27    14   7    3.1345   551.3    3.275      44.136
2015    9       27    14  13    3.1337   551.1    3.276      44.111
2015    9       27    14  20    3.1329   550.9    3.277      44.087
2015    9       27    14  26    3.1321   550.8    3.278      44.062
2015    9       27    14  32    3.1313   550.6    3.279      44.038
2015    9       27    14  39    3.1304   550.4    3.280      44.012
2015    9       27    14  45    3.1296   550.3    3.281      43.987
2015    9       27    14  51    3.1288   550.1    3.282      43.962
2015    9       27    14  57    3.1279   549.9    3.283      43.937
2015    9       27    15   4    3.1271   549.8    3.284      43.911
2015    9       27    15  10    3.1263   549.6    3.285      43.886
2015    9       27    15  16    3.1254   549.4    3.286      43.860
2015    9       27    15  23    3.1246   549.3    3.287      43.834
2015    9       27    15  29    3.1238   549.1    3.288      43.808
2015    9       27    15  35    3.1229   548.9    3.288      43.782
2015    9       27    15  41    3.1221   548.8    3.289      43.755
2015    9       27    15  48    3.1212   548.6    3.290      43.729
2015    9       27    15  54    3.1204   548.4    3.291      43.702
2015    9       27    16   0    3.1195   548.3    3.292      43.675
2015    9       27    16   7    3.1187   548.1    3.292      43.648
2015    9       27    16  13    3.1178   547.9    3.293      43.621
2015    9       27    16  19    3.1170   547.8    3.294      43.594
2015    9       27    16  25    3.1161   547.6    3.295      43.566
2015    9       27    16  32    3.1152   547.4    3.295      43.539
2015    9       27    16  38    3.1144   547.3    3.296      43.511
2015    9       27    16  44    3.1135   547.1    3.297      43.483
2015    9       27    16  51    3.1126   546.9    3.297      43.455
2015    9       27    16  57    3.1118   546.8    3.298      43.427
2015    9       27    17   3    3.1109   546.6    3.298      43.399
2015    9       27    17  10    3.1101   546.4    3.299      43.370
2015    9       27    17  16    3.1092   546.2    3.299      43.342
2015    9       27    17  22    3.1084   546.1    3.300      43.313
2015    9       27    17  28    3.1075   545.9    3.301      43.284
2015    9       27    17  35    3.1067   545.7    3.301      43.256
2015    9       27    17  41    3.1059   545.6    3.302      43.227
2015    9       27    17  47    3.1050   545.4    3.302      43.198
2015    9       27    17  54    3.1042   545.2    3.303      43.169
2015    9       27    18   0    3.1034   545.0    3.303      43.140
2015    9       27    18   6    3.1025   544.9    3.304      43.111
2015    9       27    18  13    3.1017   544.7    3.304      43.082
2015    9       27    18  19    3.1009   544.5    3.305      43.052
2015    9       27    18  25    3.1001   544.3    3.305      43.023
2015    9       27    18  31    3.0993   544.2    3.306      42.994
2015    9       27    18  38    3.0985   544.0    3.306      42.964
2015    9       27    18  44    3.0977   543.8    3.307      42.935
2015    9       27    18  50    3.0969   543.6    3.307      42.905
2015    9       27    18  57    3.0961   543.5    3.308      42.876
2015    9       27    19   3    3.0953   543.3    3.309      42.846
2015    9       27    19   9    3.0945   543.1    3.309      42.816
2015    9       27    19  15    3.0936   542.9    3.310      42.787
2015    9       27    19  22    3.0928   542.7    3.310      42.758
2015    9       27    19  28    3.0920   542.6    3.311      42.728
2015    9       27    19  34    3.0913   542.4    3.312      42.699
2015    9       27    19  41    3.0905   542.2    3.312      42.669
2015    9       27    19  47    3.0897   542.0    3.313      42.641
2015    9       27    19  53    3.0889   541.9    3.314      42.612
2015    9       27    20   0    3.0881   541.7    3.315      42.584
2015    9       27    20   6    3.0873   541.5    3.315      42.555
2015    9       27    20  12    3.0865   541.3    3.316      42.528
2015    9       27    20  18    3.0858   541.1    3.317      42.500
2015    9       27    20  25    3.0850   541.0    3.318      42.473
2015    9       27    20  31    3.0842   540.8    3.319      42.446
2015    9       27    20  37    3.0835   540.6    3.320      42.420
2015    9       27    20  44    3.0827   540.4    3.321      42.394
2015    9       27    20  50    3.0820   540.2    3.322      42.369
2015    9       27    20  56    3.0813   540.1    3.323      42.344
2015    9       27    21   3    3.0805   539.9    3.324      42.319
2015    9       27    21   9    3.0798   539.7    3.326      42.295
2015    9       27    21  15    3.0791   539.5    3.327      42.272
2015    9       27    21  21    3.0784   539.3    3.328      42.249
2015    9       27    21  28    3.0777   539.2    3.329      42.226
2015    9       27    21  34    3.0770   539.0    3.331      42.204
2015    9       27    21  40    3.0763   538.8    3.332      42.182
2015    9       27    21  47    3.0756   538.6    3.333      42.160
2015    9       27    21  53    3.0749   538.5    3.335      42.139
2015    9       27    21  59    3.0743   538.3    3.336      42.118
2015    9       27    22   5    3.0736   538.1    3.337      42.098
2015    9       27    22  12    3.0729   537.9    3.339      42.078
2015    9       27    22  18    3.0723   537.8    3.340      42.057
2015    9       27    22  24    3.0716   537.6    3.342      42.037
2015    9       27    22  31    3.0710   537.4    3.343      42.018
2015    9       27    22  37    3.0703   537.2    3.345      41.998
2015    9       27    22  43    3.0696   537.1    3.346      41.978
2015    9       27    22  50    3.0690   536.9    3.347      41.958
2015    9       27    22  56    3.0683   536.7    3.349      41.939
2015    9       27    23   2    3.0676   536.6    3.350      41.919
2015    9       27    23   8    3.0670   536.4    3.351      41.899
2015    9       27    23  15    3.0663   536.2    3.353      41.879
2015    9       27    23  21    3.0656   536.0    3.354      41.859
2015    9       27    23  27    3.0649   535.9    3.355      41.839
2015    9       27    23  34    3.0642   535.7    3.357      41.819
2015    9       27    23  40    3.0636   535.5    3.358      41.798
2015    9       27    23  46    3.0629   535.3    3.359      41.778
2015    9       27    23  52    3.0622   535.2    3.360      41.757
2015    9       27    23  59    3.0615   535.0    3.362      41.736
2015    9       28     0   5    3.0608   534.8    3.363      41.714
2015    9       28     0  11    3.0601   534.6    3.364      41.693
2015    9       28     0  18    3.0594   534.5    3.365      41.671
2015    9       28     0  24    3.0587   534.3    3.366      41.650
2015    9       28     0  30    3.0580   534.1    3.367      41.628
2015    9       28     0  36    3.0574   533.9    3.368      41.606
2015    9       28     0  43    3.0567   533.7    3.370      41.584
2015    9       28     0  49    3.0560   533.6    3.371      41.562
2015    9       28     0  55    3.0553   533.4    3.372      41.539
2015    9       28     1   2    3.0546   533.2    3.373      41.517
2015    9       28     1   8    3.0539   533.0    3.374      41.495
2015    9       28     1  14    3.0533   532.9    3.375      41.472
2015    9       28     1  21    3.0526   532.7    3.376      41.450
2015    9       28     1  27    3.0519   532.5    3.377      41.428
2015    9       28     1  33    3.0512   532.3    3.378      41.405
2015    9       28     1  39    3.0506   532.1    3.379      41.383
2015    9       28     1  46    3.0499   532.0    3.380      41.361
2015    9       28     1  52    3.0492   531.8    3.381      41.338
2015    9       28     1  58    3.0486   531.6    3.382      41.316
2015    9       28     2   5    3.0479   531.4    3.383      41.294
2015    9       28     2  11    3.0472   531.2    3.384      41.271
2015    9       28     2  17    3.0465   531.1    3.385      41.249
2015    9       28     2  24    3.0459   530.9    3.386      41.227
2015    9       28     2  30    3.0452   530.7    3.387      41.205
2015    9       28     2  36    3.0445   530.5    3.388      41.182
2015    9       28     2  42    3.0438   530.4    3.389      41.160
2015    9       28     2  49    3.0431   530.2    3.390      41.138
2015    9       28     2  55    3.0425   530.0    3.391      41.116
2015    9       28     3   1    3.0418   529.8    3.392      41.093
2015    9       28     3   8    3.0411   529.6    3.393      41.071
2015    9       28     3  14    3.0404   529.5    3.394      41.049
2015    9       28     3  20    3.0398   529.3    3.395      41.026
2015    9       28     3  26    3.0391   529.1    3.396      41.004
2015    9       28     3  33    3.0384   528.9    3.397      40.982
2015    9       28     3  39    3.0377   528.8    3.398      40.959
2015    9       28     3  45    3.0371   528.6    3.399      40.937
2015    9       28     3  52    3.0364   528.4    3.400      40.915
2015    9       28     3  58    3.0358   528.2    3.401      40.893
2015    9       28     4   4    3.0351   528.0    3.402      40.871
2015    9       28     4  11    3.0345   527.9    3.404      40.849
2015    9       28     4  17    3.0339   527.7    3.405      40.828
2015    9       28     4  23    3.0333   527.5    3.406      40.806
2015    9       28     4  29    3.0326   527.3    3.407      40.785
2015    9       28     4  36    3.0320   527.1    3.408      40.764
2015    9       28     4  42    3.0314   527.0    3.409      40.743
2015    9       28     4  48    3.0309   526.8    3.411      40.722
2015    9       28     4  55    3.0303   526.6    3.412      40.702
2015    9       28     5   1    3.0297   526.4    3.413      40.681
2015    9       28     5   7    3.0292   526.2    3.415      40.661
2015    9       28     5  13    3.0286   526.1    3.416      40.641
2015    9       28     5  20    3.0281   525.9    3.418      40.621
2015    9       28     5  26    3.0275   525.7    3.419      40.602
2015    9       28     5  32    3.0270   525.5    3.421      40.583
2015    9       28     5  39    3.0265   525.4    3.422      40.563
2015    9       28     5  45    3.0260   525.2    3.424      40.544
2015    9       28     5  51    3.0255   525.0    3.425      40.526
2015    9       28     5  58    3.0250   524.8    3.427      40.507
2015    9       28     6   4    3.0244   524.6    3.429      40.489
2015    9       28     6  10    3.0240   524.4    3.430      40.470
2015    9       28     6  16    3.0235   524.3    3.432      40.452
2015    9       28     6  23    3.0230   524.1    3.434      40.434
2015    9       28     6  29    3.0225   523.9    3.435      40.416
2015    9       28     6  35    3.0221   523.7    3.437      40.398
2015    9       28     6  42    3.0216   523.5    3.439      40.380
2015    9       28     6  48    3.0211   523.3    3.441      40.362
2015    9       28     6  54    3.0207   523.2    3.443      40.345
2015    9       28     7   0    3.0202   523.0    3.444      40.327
2015    9       28     7   7    3.0198   522.8    3.446      40.310
2015    9       28     7  13    3.0194   522.6    3.448      40.292
2015    9       28     7  19    3.0190   522.4    3.450      40.275
2015    9       28     7  26    3.0185   522.2    3.452      40.257
2015    9       28     7  32    3.0181   522.1    3.454      40.240
2015    9       28     7  38    3.0177   521.9    3.455      40.223
2015    9       28     7  44    3.0173   521.7    3.457      40.206
2015    9       28     7  51    3.0169   521.5    3.459      40.188
2015    9       28     7  57    3.0165   521.3    3.461      40.171
2015    9       28     8   3    3.0161   521.1    3.463      40.154
2015    9       28     8  10    3.0157   521.0    3.465      40.136
2015    9       28     8  16    3.0154   520.8    3.467      40.119
2015    9       28     8  22    3.0150   520.6    3.469      40.102
2015    9       28     8  29    3.0146   520.4    3.471      40.084
2015    9       28     8  35    3.0142   520.2    3.472      40.067
2015    9       28     8  41    3.0138   520.0    3.474      40.050
2015    9       28     8  47    3.0135   519.9    3.476      40.033
2015    9       28     8  54    3.0131   519.7    3.478      40.016
2015    9       28     9   0    3.0128   519.5    3.480      39.999
2015    9       28     9   6    3.0124   519.3    3.482      39.982
2015    9       28     9  13    3.0120   519.1    3.484      39.965
2015    9       28     9  19    3.0117   518.9    3.486      39.948
2015    9       28     9  25    3.0113   518.8    3.488      39.931
2015    9       28     9  32    3.0110   518.6    3.490      39.915
2015    9       28     9  38    3.0107   518.4    3.492      39.899
2015    9       28     9  44    3.0103   518.2    3.494      39.882
2015    9       28     9  50    3.0100   518.0    3.496      39.866
2015    9       28     9  57    3.0097   517.9    3.498      39.850
2015    9       28    10   3    3.0093   517.7    3.500      39.834
2015    9       28    10   9    3.0090   517.5    3.502      39.818
2015    9       28    10  16    3.0086   517.3    3.504      39.802
2015    9       28    10  22    3.0083   517.1    3.506      39.786
2015    9       28    10  28    3.0080   517.0    3.508      39.770
2015    9       28    10  35    3.0076   516.8    3.510      39.753
2015    9       28    10  41    3.0073   516.6    3.512      39.737
2015    9       28    10  47    3.0070   516.4    3.514      39.721
2015    9       28    10  53    3.0066   516.3    3.516      39.704
2015    9       28    11   0    3.0063   516.1    3.518      39.688
2015    9       28    11   6    3.0059   515.9    3.520      39.671
2015    9       28    11  12    3.0056   515.7    3.522      39.654
2015    9       28    11  19    3.0053   515.6    3.523      39.637
2015    9       28    11  25    3.0049   515.4    3.525      39.620
2015    9       28    11  31    3.0046   515.2    3.527      39.603
2015    9       28    11  37    3.0043   515.0    3.529      39.586
2015    9       28    11  44    3.0039   514.9    3.531      39.569
2015    9       28    11  50    3.0036   514.7    3.533      39.551
2015    9       28    11  56    3.0033   514.5    3.535      39.534
2015    9       28    12   3    3.0029   514.3    3.537      39.516
2015    9       28    12   9    3.0026   514.1    3.539      39.499
2015    9       28    12  15    3.0023   514.0    3.540      39.481
2015    9       28    12  22    3.0020   513.8    3.542      39.464
2015    9       28    12  28    3.0017   513.6    3.544      39.446
2015    9       28    12  34    3.0014   513.4    3.546      39.429
2015    9       28    12  40    3.0011   513.3    3.548      39.411
2015    9       28    12  47    3.0008   513.1    3.550      39.394
2015    9       28    12  53    3.0005   512.9    3.552      39.377
2015    9       28    12  59    3.0003   512.7    3.554      39.360
2015    9       28    13   6    3.0000   512.5    3.556      39.343
2015    9       28    13  12    2.9998   512.4    3.558      39.326
2015    9       28    13  18    2.9995   512.2    3.560      39.309
2015    9       28    13  24    2.9993   512.0    3.562      39.292
2015    9       28    13  31    2.9991   511.8    3.565      39.276
2015    9       28    13  37    2.9989   511.6    3.567      39.260
2015    9       28    13  43    2.9987   511.5    3.569      39.244
2015    9       28    13  50    2.9985   511.3    3.571      39.228
2015    9       28    13  56    2.9983   511.1    3.574      39.212
2015    9       28    14   2    2.9981   510.9    3.576      39.197
2015    9       28    14   8    2.9980   510.7    3.578      39.182
2015    9       28    14  15    2.9978   510.6    3.581      39.166
2015    9       28    14  21    2.9977   510.4    3.583      39.151
2015    9       28    14  27    2.9976   510.2    3.585      39.137
2015    9       28    14  34    2.9975   510.0    3.588      39.122
2015    9       28    14  40    2.9973   509.8    3.590      39.107
2015    9       28    14  46    2.9972   509.6    3.593      39.092
2015    9       28    14  53    2.9971   509.5    3.595      39.078
2015    9       28    14  59    2.9970   509.3    3.597      39.063
2015    9       28    15   5    2.9969   509.1    3.600      39.048
2015    9       28    15  11    2.9967   508.9    3.602      39.034
2015    9       28    15  18    2.9966   508.8    3.605      39.019
2015    9       28    15  24    2.9965   508.6    3.607      39.004
2015    9       28    15  30    2.9964   508.4    3.610      38.989
2015    9       28    15  37    2.9962   508.2    3.612      38.974
2015    9       28    15  43    2.9961   508.0    3.615      38.959
2015    9       28    15  49    2.9960   507.9    3.617      38.944
2015    9       28    15  55    2.9959   507.7    3.619      38.929
2015    9       28    16   2    2.9957   507.5    3.622      38.913
2015    9       28    16   8    2.9956   507.3    3.624      38.898
2015    9       28    16  14    2.9955   507.1    3.627      38.882
2015    9       28    16  21    2.9953   507.0    3.629      38.867
2015    9       28    16  27    2.9952   506.8    3.632      38.851
2015    9       28    16  33    2.9951   506.6    3.634      38.835
2015    9       28    16  40    2.9949   506.4    3.636      38.819
2015    9       28    16  46    2.9948   506.2    3.639      38.804
2015    9       28    16  52    2.9947   506.1    3.641      38.788
2015    9       28    16  58    2.9945   505.9    3.644      38.772
2015    9       28    17   5    2.9944   505.7    3.646      38.756
2015    9       28    17  11    2.9943   505.5    3.649      38.741
2015    9       28    17  17    2.9941   505.4    3.651      38.725
2015    9       28    17  24    2.9940   505.2    3.654      38.709
2015    9       28    17  30    2.9939   505.0    3.656      38.694
2015    9       28    17  36    2.9938   504.8    3.659      38.678
2015    9       28    17  43    2.9936   504.6    3.661      38.663
2015    9       28    17  49    2.9935   504.5    3.664      38.647
2015    9       28    17  55    2.9934   504.3    3.666      38.632
2015    9       28    18   1    2.9933   504.1    3.669      38.617
2015    9       28    18   8    2.9931   503.9    3.671      38.602
2015    9       28    18  14    2.9930   503.8    3.674      38.587
2015    9       28    18  20    2.9929   503.6    3.677      38.572
2015    9       28    18  27    2.9928   503.4    3.679      38.557
2015    9       28    18  33    2.9926   503.2    3.682      38.543
2015    9       28    18  39    2.9925   503.1    3.685      38.528
2015    9       28    18  46    2.9924   502.9    3.687      38.514
2015    9       28    18  52    2.9923   502.7    3.690      38.499
2015    9       28    18  58    2.9922   502.6    3.693      38.485
2015    9       28    19   4    2.9921   502.4    3.695      38.471
2015    9       28    19  11    2.9919   502.2    3.698      38.457
2015    9       28    19  17    2.9918   502.0    3.701      38.444
2015    9       28    19  23    2.9917   501.9    3.704      38.430
2015    9       28    19  30    2.9916   501.7    3.706      38.416
2015    9       28    19  36    2.9915   501.5    3.709      38.403
2015    9       28    19  42    2.9914   501.3    3.712      38.390
2015    9       28    19  48    2.9913   501.2    3.715      38.377
2015    9       28    19  55    2.9912   501.0    3.718      38.364
2015    9       28    20   1    2.9911   500.8    3.720      38.351
2015    9       28    20   7    2.9910   500.6    3.723      38.338
2015    9       28    20  14    2.9910   500.5    3.726      38.325
2015    9       28    20  20    2.9909   500.3    3.729      38.313
2015    9       28    20  26    2.9908   500.1    3.732      38.300
2015    9       28    20  32    2.9908   499.9    3.735      38.288
2015    9       28    20  39    2.9907   499.8    3.738      38.276
2015    9       28    20  45    2.9907   499.6    3.741      38.264
2015    9       28    20  51    2.9907   499.4    3.743      38.252
2015    9       28    20  58    2.9907   499.2    3.746      38.241
2015    9       28    21   4    2.9907   499.0    3.749      38.229
2015    9       28    21  10    2.9906   498.9    3.752      38.218
2015    9       28    21  17    2.9906   498.7    3.755      38.206
2015    9       28    21  23    2.9907   498.5    3.758      38.195
2015    9       28    21  29    2.9907   498.3    3.761      38.183
2015    9       28    21  35    2.9907   498.2    3.764      38.172
2015    9       28    21  42    2.9907   498.0    3.767      38.161
2015    9       28    21  48    2.9907   497.8    3.770      38.149
2015    9       28    21  54    2.9907   497.6    3.773      38.138
2015    9       28    22   1    2.9907   497.5    3.776      38.127
2015    9       28    22   7    2.9906   497.3    3.779      38.115
2015    9       28    22  13    2.9906   497.1    3.782      38.104
2015    9       28    22  19    2.9906   496.9    3.785      38.092
2015    9       28    22  26    2.9905   496.8    3.788      38.080
2015    9       28    22  32    2.9905   496.6    3.791      38.068
2015    9       28    22  38    2.9904   496.4    3.794      38.056
2015    9       28    22  45    2.9903   496.2    3.797      38.044
2015    9       28    22  51    2.9903   496.1    3.800      38.031
2015    9       28    22  57    2.9902   495.9    3.803      38.019
2015    9       28    23   3    2.9901   495.7    3.805      38.006
2015    9       28    23  10    2.9900   495.5    3.808      37.993
2015    9       28    23  16    2.9899   495.4    3.811      37.979
2015    9       28    23  22    2.9898   495.2    3.814      37.966
2015    9       28    23  29    2.9896   495.0    3.817      37.952
2015    9       28    23  35    2.9895   494.9    3.819      37.938
2015    9       28    23  41    2.9894   494.7    3.822      37.924
2015    9       28    23  48    2.9892   494.5    3.825      37.910
2015    9       28    23  54    2.9891   494.3    3.827      37.895
2015    9       29     0   0    2.9889   494.2    3.830      37.880
