year    month   day   hour  minute  B_enl V_enl   n_enl       T_enl
[year] [month] [day] [hour][minute] [nT]  [km/s]  [cm-3]      [kK]
2015    9       17     0   0    4.1067   526.3    4.637      46.474
2015    9       17     0   6    4.1074   526.4    4.637      46.494
2015    9       17     0  12    4.1082   526.5    4.636      46.514
2015    9       17     0  18    4.1089   526.6    4.636      46.535
2015    9       17     0  25    4.1096   526.7    4.636      46.556
2015    9       17     0  31    4.1103   526.7    4.636      46.577
2015    9       17     0  37    4.1110   526.8    4.636      46.599
2015    9       17     0  43    4.1117   526.9    4.636      46.620
2015    9       17     0  50    4.1124   527.0    4.636      46.642
2015    9       17     0  56    4.1131   527.1    4.636      46.664
2015    9       17     1   2    4.1138   527.2    4.636      46.687
2015    9       17     1   8    4.1145   527.3    4.637      46.709
2015    9       17     1  14    4.1151   527.3    4.637      46.732
2015    9       17     1  21    4.1158   527.4    4.638      46.755
2015    9       17     1  27    4.1164   527.5    4.638      46.778
2015    9       17     1  33    4.1170   527.6    4.639      46.801
2015    9       17     1  39    4.1176   527.7    4.639      46.825
2015    9       17     1  46    4.1182   527.8    4.640      46.849
2015    9       17     1  52    4.1187   527.9    4.641      46.874
2015    9       17     1  58    4.1193   528.0    4.641      46.900
2015    9       17     2   4    4.1198   528.0    4.642      46.926
2015    9       17     2  11    4.1204   528.1    4.643      46.953
2015    9       17     2  17    4.1209   528.2    4.644      46.981
2015    9       17     2  23    4.1214   528.3    4.645      47.009
2015    9       17     2  29    4.1219   528.4    4.645      47.036
2015    9       17     2  36    4.1224   528.5    4.646      47.064
2015    9       17     2  42    4.1230   528.6    4.647      47.093
2015    9       17     2  48    4.1235   528.7    4.648      47.122
2015    9       17     2  54    4.1239   528.8    4.649      47.151
2015    9       17     3   1    4.1244   528.9    4.649      47.180
2015    9       17     3   7    4.1249   529.0    4.650      47.210
2015    9       17     3  13    4.1254   529.1    4.650      47.240
2015    9       17     3  19    4.1258   529.2    4.650      47.268
2015    9       17     3  25    4.1262   529.3    4.650      47.296
2015    9       17     3  32    4.1266   529.4    4.650      47.322
2015    9       17     3  38    4.1270   529.5    4.649      47.348
2015    9       17     3  44    4.1273   529.6    4.649      47.373
2015    9       17     3  50    4.1276   529.7    4.648      47.396
2015    9       17     3  57    4.1280   529.8    4.647      47.419
2015    9       17     4   3    4.1283   529.9    4.646      47.441
2015    9       17     4   9    4.1285   530.0    4.645      47.462
2015    9       17     4  15    4.1288   530.1    4.643      47.482
2015    9       17     4  22    4.1290   530.2    4.642      47.502
2015    9       17     4  28    4.1293   530.3    4.641      47.521
2015    9       17     4  34    4.1295   530.4    4.639      47.539
2015    9       17     4  40    4.1297   530.5    4.637      47.556
2015    9       17     4  47    4.1299   530.6    4.635      47.573
2015    9       17     4  53    4.1301   530.7    4.634      47.590
2015    9       17     4  59    4.1302   530.8    4.632      47.605
2015    9       17     5   5    4.1304   530.9    4.630      47.621
2015    9       17     5  12    4.1305   531.0    4.628      47.636
2015    9       17     5  18    4.1306   531.2    4.625      47.650
2015    9       17     5  24    4.1307   531.3    4.623      47.664
2015    9       17     5  30    4.1308   531.4    4.621      47.678
2015    9       17     5  36    4.1309   531.5    4.619      47.691
2015    9       17     5  43    4.1310   531.6    4.617      47.704
2015    9       17     5  49    4.1310   531.7    4.614      47.716
2015    9       17     5  55    4.1311   531.8    4.612      47.728
2015    9       17     6   1    4.1311   531.9    4.610      47.740
2015    9       17     6   8    4.1311   532.0    4.607      47.752
2015    9       17     6  14    4.1311   532.1    4.605      47.764
2015    9       17     6  20    4.1311   532.3    4.603      47.775
2015    9       17     6  26    4.1311   532.4    4.601      47.787
2015    9       17     6  33    4.1310   532.5    4.598      47.798
2015    9       17     6  39    4.1310   532.6    4.596      47.810
2015    9       17     6  45    4.1308   532.7    4.594      47.823
2015    9       17     6  51    4.1307   532.8    4.592      47.836
2015    9       17     6  57    4.1306   533.0    4.589      47.849
2015    9       17     7   4    4.1304   533.1    4.587      47.863
2015    9       17     7  10    4.1302   533.2    4.585      47.876
2015    9       17     7  16    4.1300   533.3    4.582      47.890
2015    9       17     7  22    4.1298   533.4    4.580      47.904
2015    9       17     7  29    4.1295   533.6    4.578      47.917
2015    9       17     7  35    4.1292   533.7    4.575      47.931
2015    9       17     7  41    4.1289   533.8    4.573      47.944
2015    9       17     7  47    4.1286   533.9    4.571      47.958
2015    9       17     7  54    4.1283   534.0    4.569      47.972
2015    9       17     8   0    4.1279   534.2    4.566      47.986
2015    9       17     8   6    4.1276   534.3    4.564      48.000
2015    9       17     8  12    4.1272   534.4    4.562      48.014
2015    9       17     8  19    4.1268   534.5    4.560      48.029
2015    9       17     8  25    4.1263   534.6    4.558      48.044
2015    9       17     8  31    4.1258   534.7    4.556      48.059
2015    9       17     8  37    4.1253   534.9    4.554      48.074
2015    9       17     8  43    4.1248   535.0    4.553      48.089
2015    9       17     8  50    4.1242   535.1    4.551      48.105
2015    9       17     8  56    4.1236   535.2    4.549      48.121
2015    9       17     9   2    4.1230   535.3    4.547      48.138
2015    9       17     9   8    4.1224   535.4    4.546      48.155
2015    9       17     9  15    4.1217   535.5    4.544      48.173
2015    9       17     9  21    4.1211   535.7    4.542      48.193
2015    9       17     9  27    4.1204   535.8    4.540      48.212
2015    9       17     9  33    4.1197   535.9    4.538      48.231
2015    9       17     9  40    4.1190   536.0    4.537      48.250
2015    9       17     9  46    4.1183   536.1    4.535      48.269
2015    9       17     9  52    4.1176   536.2    4.533      48.288
2015    9       17     9  58    4.1169   536.3    4.531      48.307
2015    9       17    10   5    4.1161   536.4    4.529      48.325
2015    9       17    10  11    4.1153   536.5    4.526      48.343
2015    9       17    10  17    4.1146   536.6    4.524      48.360
2015    9       17    10  23    4.1138   536.7    4.522      48.377
2015    9       17    10  30    4.1130   536.9    4.520      48.393
2015    9       17    10  36    4.1121   537.0    4.517      48.408
2015    9       17    10  42    4.1113   537.1    4.515      48.423
2015    9       17    10  48    4.1104   537.2    4.512      48.437
2015    9       17    10  54    4.1095   537.3    4.509      48.450
2015    9       17    11   1    4.1086   537.4    4.507      48.462
2015    9       17    11   7    4.1077   537.5    4.504      48.473
2015    9       17    11  13    4.1068   537.6    4.501      48.483
2015    9       17    11  19    4.1058   537.7    4.498      48.493
2015    9       17    11  26    4.1048   537.8    4.494      48.502
2015    9       17    11  32    4.1038   537.9    4.491      48.510
2015    9       17    11  38    4.1027   538.0    4.488      48.518
2015    9       17    11  44    4.1016   538.1    4.484      48.525
2015    9       17    11  51    4.1005   538.2    4.481      48.531
2015    9       17    11  57    4.0994   538.3    4.478      48.536
2015    9       17    12   3    4.0983   538.4    4.474      48.541
2015    9       17    12   9    4.0971   538.5    4.470      48.545
2015    9       17    12  16    4.0959   538.5    4.467      48.549
2015    9       17    12  22    4.0946   538.6    4.463      48.552
2015    9       17    12  28    4.0933   538.7    4.459      48.554
2015    9       17    12  34    4.0920   538.8    4.455      48.556
2015    9       17    12  40    4.0907   538.9    4.451      48.558
2015    9       17    12  47    4.0893   539.0    4.447      48.559
2015    9       17    12  53    4.0879   539.1    4.443      48.560
2015    9       17    12  59    4.0865   539.2    4.439      48.560
2015    9       17    13   5    4.0851   539.3    4.435      48.559
2015    9       17    13  12    4.0836   539.4    4.431      48.559
2015    9       17    13  18    4.0821   539.5    4.427      48.557
2015    9       17    13  24    4.0806   539.6    4.423      48.556
2015    9       17    13  30    4.0790   539.7    4.418      48.554
2015    9       17    13  37    4.0774   539.8    4.414      48.552
2015    9       17    13  43    4.0759   539.9    4.410      48.549
2015    9       17    13  49    4.0742   540.0    4.406      48.546
2015    9       17    13  55    4.0726   540.1    4.401      48.543
2015    9       17    14   2    4.0709   540.1    4.397      48.539
2015    9       17    14   8    4.0692   540.2    4.393      48.535
2015    9       17    14  14    4.0675   540.3    4.388      48.531
2015    9       17    14  20    4.0657   540.4    4.384      48.526
2015    9       17    14  26    4.0640   540.5    4.379      48.521
2015    9       17    14  33    4.0622   540.6    4.375      48.516
2015    9       17    14  39    4.0603   540.7    4.371      48.511
2015    9       17    14  45    4.0585   540.8    4.366      48.505
2015    9       17    14  51    4.0567   540.9    4.362      48.499
2015    9       17    14  58    4.0548   540.9    4.357      48.493
2015    9       17    15   4    4.0529   541.0    4.353      48.487
2015    9       17    15  10    4.0510   541.1    4.349      48.481
2015    9       17    15  16    4.0491   541.2    4.344      48.475
2015    9       17    15  23    4.0471   541.3    4.340      48.468
2015    9       17    15  29    4.0451   541.3    4.335      48.462
2015    9       17    15  35    4.0432   541.4    4.331      48.455
2015    9       17    15  41    4.0412   541.5    4.327      48.449
2015    9       17    15  47    4.0392   541.6    4.322      48.442
2015    9       17    15  54    4.0371   541.7    4.318      48.435
2015    9       17    16   0    4.0351   541.7    4.314      48.428
2015    9       17    16   6    4.0330   541.8    4.309      48.421
2015    9       17    16  12    4.0309   541.9    4.305      48.414
2015    9       17    16  19    4.0288   541.9    4.301      48.406
2015    9       17    16  25    4.0267   542.0    4.297      48.399
2015    9       17    16  31    4.0246   542.1    4.293      48.391
2015    9       17    16  37    4.0225   542.1    4.289      48.383
2015    9       17    16  44    4.0203   542.2    4.285      48.375
2015    9       17    16  50    4.0182   542.3    4.281      48.367
2015    9       17    16  56    4.0160   542.3    4.277      48.360
2015    9       17    17   2    4.0139   542.4    4.273      48.352
2015    9       17    17   9    4.0117   542.5    4.269      48.344
2015    9       17    17  15    4.0095   542.5    4.265      48.336
2015    9       17    17  21    4.0073   542.6    4.261      48.328
2015    9       17    17  27    4.0050   542.6    4.258      48.320
2015    9       17    17  34    4.0028   542.7    4.254      48.312
2015    9       17    17  40    4.0006   542.7    4.250      48.303
2015    9       17    17  46    3.9983   542.8    4.247      48.295
2015    9       17    17  52    3.9960   542.8    4.243      48.287
2015    9       17    17  58    3.9938   542.9    4.239      48.278
2015    9       17    18   5    3.9915   542.9    4.235      48.269
2015    9       17    18  11    3.9892   543.0    4.232      48.259
2015    9       17    18  17    3.9869   543.0    4.228      48.249
2015    9       17    18  23    3.9846   543.0    4.224      48.239
2015    9       17    18  30    3.9823   543.1    4.221      48.228
2015    9       17    18  36    3.9800   543.1    4.217      48.217
2015    9       17    18  42    3.9777   543.1    4.213      48.206
2015    9       17    18  48    3.9753   543.2    4.210      48.194
2015    9       17    18  55    3.9730   543.2    4.206      48.182
2015    9       17    19   1    3.9706   543.2    4.202      48.169
2015    9       17    19   7    3.9683   543.3    4.199      48.156
2015    9       17    19  13    3.9659   543.3    4.195      48.143
2015    9       17    19  20    3.9636   543.3    4.191      48.130
2015    9       17    19  26    3.9612   543.3    4.188      48.116
2015    9       17    19  32    3.9588   543.3    4.184      48.101
2015    9       17    19  38    3.9564   543.4    4.181      48.087
2015    9       17    19  45    3.9541   543.4    4.177      48.072
2015    9       17    19  51    3.9517   543.4    4.174      48.057
2015    9       17    19  57    3.9493   543.4    4.170      48.042
2015    9       17    20   3    3.9469   543.4    4.167      48.026
2015    9       17    20   9    3.9445   543.4    4.164      48.011
2015    9       17    20  16    3.9421   543.5    4.160      47.995
2015    9       17    20  22    3.9398   543.5    4.157      47.979
2015    9       17    20  28    3.9374   543.5    4.154      47.963
2015    9       17    20  34    3.9350   543.5    4.151      47.947
2015    9       17    20  41    3.9327   543.5    4.148      47.931
2015    9       17    20  47    3.9303   543.5    4.144      47.914
2015    9       17    20  53    3.9279   543.5    4.141      47.898
2015    9       17    20  59    3.9256   543.5    4.138      47.882
2015    9       17    21   6    3.9232   543.5    4.135      47.866
2015    9       17    21  12    3.9208   543.5    4.133      47.850
2015    9       17    21  18    3.9184   543.5    4.130      47.835
2015    9       17    21  24    3.9160   543.5    4.127      47.819
2015    9       17    21  30    3.9137   543.5    4.124      47.804
2015    9       17    21  37    3.9113   543.5    4.121      47.788
2015    9       17    21  43    3.9089   543.5    4.118      47.772
2015    9       17    21  49    3.9065   543.5    4.115      47.756
2015    9       17    21  55    3.9040   543.5    4.112      47.740
2015    9       17    22   2    3.9017   543.5    4.109      47.723
2015    9       17    22   8    3.8992   543.5    4.106      47.707
2015    9       17    22  14    3.8968   543.5    4.103      47.690
2015    9       17    22  20    3.8944   543.5    4.100      47.673
2015    9       17    22  27    3.8920   543.5    4.097      47.657
2015    9       17    22  33    3.8896   543.5    4.095      47.641
2015    9       17    22  39    3.8871   543.5    4.092      47.625
2015    9       17    22  45    3.8847   543.5    4.089      47.609
2015    9       17    22  52    3.8822   543.5    4.086      47.593
2015    9       17    22  58    3.8797   543.5    4.083      47.577
2015    9       17    23   4    3.8773   543.5    4.080      47.561
2015    9       17    23  10    3.8748   543.5    4.077      47.544
2015    9       17    23  16    3.8723   543.5    4.074      47.528
2015    9       17    23  23    3.8697   543.5    4.071      47.510
2015    9       17    23  29    3.8672   543.5    4.068      47.493
2015    9       17    23  35    3.8647   543.5    4.065      47.475
2015    9       17    23  41    3.8621   543.5    4.062      47.457
2015    9       17    23  48    3.8596   543.5    4.059      47.438
2015    9       17    23  54    3.8570   543.5    4.056      47.419
2015    9       18     0   0    3.8544   543.5    4.053      47.400
2015    9       18     0   6    3.8521   543.5    4.050      47.383
2015    9       18     0  13    3.8497   543.5    4.047      47.364
2015    9       18     0  19    3.8474   543.5    4.044      47.346
2015    9       18     0  25    3.8450   543.5    4.041      47.328
2015    9       18     0  31    3.8426   543.5    4.038      47.309
2015    9       18     0  38    3.8402   543.4    4.035      47.291
2015    9       18     0  44    3.8378   543.4    4.033      47.272
2015    9       18     0  50    3.8354   543.4    4.030      47.253
2015    9       18     0  56    3.8330   543.4    4.027      47.234
2015    9       18     1   2    3.8306   543.4    4.024      47.215
2015    9       18     1   9    3.8283   543.4    4.021      47.196
2015    9       18     1  15    3.8259   543.4    4.019      47.177
2015    9       18     1  21    3.8235   543.3    4.016      47.157
2015    9       18     1  27    3.8211   543.3    4.013      47.138
2015    9       18     1  34    3.8187   543.3    4.010      47.119
2015    9       18     1  40    3.8163   543.3    4.008      47.099
2015    9       18     1  46    3.8140   543.3    4.005      47.080
2015    9       18     1  52    3.8116   543.3    4.002      47.060
2015    9       18     1  59    3.8093   543.2    4.000      47.041
2015    9       18     2   5    3.8070   543.2    3.997      47.021
2015    9       18     2  11    3.8047   543.2    3.995      47.001
2015    9       18     2  17    3.8024   543.2    3.992      46.982
2015    9       18     2  24    3.8001   543.1    3.990      46.962
2015    9       18     2  30    3.7978   543.1    3.988      46.943
2015    9       18     2  36    3.7955   543.1    3.985      46.923
2015    9       18     2  42    3.7933   543.0    3.983      46.903
2015    9       18     2  49    3.7911   543.0    3.981      46.884
2015    9       18     2  55    3.7888   543.0    3.978      46.864
2015    9       18     3   1    3.7866   542.9    3.976      46.844
2015    9       18     3   7    3.7844   542.9    3.974      46.825
2015    9       18     3  13    3.7822   542.9    3.972      46.805
2015    9       18     3  20    3.7801   542.8    3.970      46.785
2015    9       18     3  26    3.7779   542.8    3.968      46.766
2015    9       18     3  32    3.7758   542.7    3.967      46.746
2015    9       18     3  38    3.7736   542.7    3.965      46.727
2015    9       18     3  45    3.7715   542.7    3.963      46.707
2015    9       18     3  51    3.7694   542.6    3.962      46.688
2015    9       18     3  57    3.7673   542.6    3.960      46.669
2015    9       18     4   3    3.7652   542.5    3.959      46.650
2015    9       18     4  10    3.7631   542.5    3.957      46.631
2015    9       18     4  16    3.7610   542.5    3.956      46.613
2015    9       18     4  22    3.7588   542.4    3.955      46.595
2015    9       18     4  28    3.7567   542.4    3.954      46.577
2015    9       18     4  35    3.7546   542.3    3.952      46.559
2015    9       18     4  41    3.7525   542.3    3.951      46.542
2015    9       18     4  47    3.7503   542.2    3.950      46.524
2015    9       18     4  53    3.7482   542.2    3.949      46.507
2015    9       18     4  59    3.7460   542.1    3.948      46.489
2015    9       18     5   6    3.7439   542.1    3.947      46.471
2015    9       18     5  12    3.7417   542.0    3.946      46.453
2015    9       18     5  18    3.7395   542.0    3.945      46.436
2015    9       18     5  24    3.7374   541.9    3.944      46.418
2015    9       18     5  31    3.7351   541.9    3.944      46.401
2015    9       18     5  37    3.7329   541.8    3.943      46.384
2015    9       18     5  43    3.7306   541.8    3.942      46.367
2015    9       18     5  49    3.7283   541.7    3.941      46.350
2015    9       18     5  56    3.7260   541.7    3.940      46.334
2015    9       18     6   2    3.7237   541.6    3.939      46.318
2015    9       18     6   8    3.7214   541.6    3.938      46.301
2015    9       18     6  14    3.7190   541.5    3.937      46.285
2015    9       18     6  20    3.7167   541.5    3.936      46.268
2015    9       18     6  27    3.7143   541.4    3.935      46.251
2015    9       18     6  33    3.7119   541.4    3.934      46.234
2015    9       18     6  39    3.7094   541.3    3.933      46.217
2015    9       18     6  45    3.7070   541.3    3.932      46.200
2015    9       18     6  52    3.7046   541.2    3.930      46.182
2015    9       18     6  58    3.7022   541.2    3.929      46.164
2015    9       18     7   4    3.6997   541.1    3.928      46.146
2015    9       18     7  10    3.6973   541.1    3.926      46.128
2015    9       18     7  17    3.6948   541.0    3.925      46.110
2015    9       18     7  23    3.6924   541.0    3.923      46.091
2015    9       18     7  29    3.6899   540.9    3.921      46.072
2015    9       18     7  35    3.6875   540.8    3.920      46.053
2015    9       18     7  42    3.6850   540.8    3.918      46.033
2015    9       18     7  48    3.6826   540.7    3.916      46.013
2015    9       18     7  54    3.6802   540.7    3.914      45.992
2015    9       18     8   0    3.6778   540.6    3.912      45.971
2015    9       18     8   7    3.6753   540.5    3.911      45.949
2015    9       18     8  13    3.6729   540.5    3.909      45.927
2015    9       18     8  19    3.6705   540.4    3.907      45.904
2015    9       18     8  25    3.6681   540.4    3.905      45.882
2015    9       18     8  31    3.6658   540.3    3.903      45.858
2015    9       18     8  38    3.6634   540.2    3.900      45.835
2015    9       18     8  44    3.6610   540.2    3.898      45.811
2015    9       18     8  50    3.6587   540.1    3.896      45.786
2015    9       18     8  56    3.6563   540.1    3.894      45.762
2015    9       18     9   3    3.6540   540.0    3.892      45.737
2015    9       18     9   9    3.6517   539.9    3.890      45.712
2015    9       18     9  15    3.6494   539.9    3.887      45.686
2015    9       18     9  21    3.6471   539.8    3.885      45.660
2015    9       18     9  28    3.6448   539.7    3.883      45.635
2015    9       18     9  34    3.6425   539.7    3.881      45.608
2015    9       18     9  40    3.6402   539.6    3.878      45.582
2015    9       18     9  46    3.6380   539.5    3.876      45.555
2015    9       18     9  53    3.6357   539.5    3.874      45.529
2015    9       18     9  59    3.6334   539.4    3.871      45.501
2015    9       18    10   5    3.6311   539.3    3.869      45.474
2015    9       18    10  11    3.6289   539.3    3.867      45.447
2015    9       18    10  18    3.6266   539.2    3.864      45.419
2015    9       18    10  24    3.6243   539.1    3.862      45.391
2015    9       18    10  30    3.6221   539.1    3.860      45.363
2015    9       18    10  36    3.6198   539.0    3.858      45.335
2015    9       18    10  42    3.6175   538.9    3.856      45.306
2015    9       18    10  49    3.6152   538.9    3.853      45.278
2015    9       18    10  55    3.6129   538.8    3.851      45.249
2015    9       18    11   1    3.6106   538.7    3.849      45.220
2015    9       18    11   7    3.6083   538.7    3.847      45.191
2015    9       18    11  14    3.6060   538.6    3.845      45.161
2015    9       18    11  20    3.6037   538.5    3.843      45.132
2015    9       18    11  26    3.6014   538.4    3.841      45.103
2015    9       18    11  32    3.5990   538.4    3.839      45.073
2015    9       18    11  39    3.5967   538.3    3.838      45.043
2015    9       18    11  45    3.5943   538.2    3.836      45.014
2015    9       18    11  51    3.5920   538.1    3.834      44.984
2015    9       18    11  57    3.5896   538.1    3.833      44.954
2015    9       18    12   3    3.5872   538.0    3.831      44.924
2015    9       18    12  10    3.5848   537.9    3.830      44.895
2015    9       18    12  16    3.5824   537.8    3.829      44.865
2015    9       18    12  22    3.5800   537.7    3.827      44.836
2015    9       18    12  28    3.5775   537.7    3.826      44.806
2015    9       18    12  35    3.5751   537.6    3.825      44.777
2015    9       18    12  41    3.5726   537.5    3.824      44.748
2015    9       18    12  47    3.5702   537.4    3.823      44.719
2015    9       18    12  53    3.5677   537.3    3.822      44.690
2015    9       18    13   0    3.5652   537.2    3.821      44.661
2015    9       18    13   6    3.5627   537.1    3.820      44.633
2015    9       18    13  12    3.5602   537.0    3.820      44.605
2015    9       18    13  18    3.5577   536.9    3.819      44.576
2015    9       18    13  24    3.5552   536.8    3.818      44.549
2015    9       18    13  31    3.5527   536.7    3.817      44.521
2015    9       18    13  37    3.5502   536.6    3.817      44.493
2015    9       18    13  43    3.5477   536.5    3.816      44.466
2015    9       18    13  49    3.5452   536.4    3.815      44.439
2015    9       18    13  56    3.5427   536.3    3.814      44.412
2015    9       18    14   2    3.5402   536.2    3.814      44.386
2015    9       18    14   8    3.5377   536.1    3.813      44.359
2015    9       18    14  14    3.5353   536.0    3.812      44.332
2015    9       18    14  21    3.5328   535.9    3.811      44.306
2015    9       18    14  27    3.5304   535.8    3.811      44.279
2015    9       18    14  33    3.5279   535.7    3.810      44.252
2015    9       18    14  39    3.5255   535.6    3.809      44.225
2015    9       18    14  45    3.5231   535.5    3.808      44.198
2015    9       18    14  52    3.5207   535.3    3.807      44.170
2015    9       18    14  58    3.5183   535.2    3.806      44.142
2015    9       18    15   4    3.5160   535.1    3.805      44.114
2015    9       18    15  10    3.5136   535.0    3.804      44.086
2015    9       18    15  17    3.5113   534.9    3.803      44.057
2015    9       18    15  23    3.5090   534.8    3.802      44.028
2015    9       18    15  29    3.5067   534.6    3.801      43.999
2015    9       18    15  35    3.5044   534.5    3.800      43.969
2015    9       18    15  41    3.5022   534.4    3.799      43.939
2015    9       18    15  48    3.4999   534.3    3.798      43.909
2015    9       18    15  54    3.4977   534.1    3.797      43.878
2015    9       18    16   0    3.4955   534.0    3.796      43.847
2015    9       18    16   6    3.4933   533.9    3.794      43.815
2015    9       18    16  13    3.4911   533.8    3.793      43.783
2015    9       18    16  19    3.4889   533.7    3.792      43.750
2015    9       18    16  25    3.4867   533.5    3.790      43.717
2015    9       18    16  31    3.4846   533.4    3.789      43.684
2015    9       18    16  37    3.4824   533.3    3.788      43.649
2015    9       18    16  44    3.4803   533.2    3.786      43.615
2015    9       18    16  50    3.4781   533.0    3.785      43.580
2015    9       18    16  56    3.4759   532.9    3.783      43.544
2015    9       18    17   2    3.4737   532.8    3.782      43.508
2015    9       18    17   9    3.4716   532.6    3.780      43.472
2015    9       18    17  15    3.4694   532.5    3.779      43.435
2015    9       18    17  21    3.4672   532.4    3.777      43.397
2015    9       18    17  27    3.4650   532.3    3.775      43.359
2015    9       18    17  33    3.4628   532.1    3.774      43.321
2015    9       18    17  40    3.4606   532.0    3.772      43.282
2015    9       18    17  46    3.4584   531.9    3.771      43.243
2015    9       18    17  52    3.4561   531.7    3.769      43.204
2015    9       18    17  58    3.4539   531.6    3.767      43.164
2015    9       18    18   5    3.4517   531.5    3.766      43.124
2015    9       18    18  11    3.4494   531.3    3.764      43.083
2015    9       18    18  17    3.4472   531.2    3.762      43.042
2015    9       18    18  23    3.4449   531.1    3.761      43.001
2015    9       18    18  29    3.4427   530.9    3.759      42.960
2015    9       18    18  36    3.4404   530.8    3.758      42.919
2015    9       18    18  42    3.4382   530.7    3.756      42.877
2015    9       18    18  48    3.4359   530.5    3.755      42.835
2015    9       18    18  54    3.4337   530.4    3.753      42.794
2015    9       18    19   1    3.4314   530.2    3.752      42.752
2015    9       18    19   7    3.4291   530.1    3.750      42.710
2015    9       18    19  13    3.4269   530.0    3.749      42.668
2015    9       18    19  19    3.4246   529.8    3.748      42.626
2015    9       18    19  26    3.4224   529.7    3.746      42.585
2015    9       18    19  32    3.4201   529.5    3.745      42.543
2015    9       18    19  38    3.4179   529.4    3.744      42.502
2015    9       18    19  44    3.4157   529.2    3.743      42.461
2015    9       18    19  50    3.4134   529.1    3.742      42.420
2015    9       18    19  57    3.4112   528.9    3.741      42.380
2015    9       18    20   3    3.4090   528.8    3.740      42.340
2015    9       18    20   9    3.4068   528.6    3.740      42.300
2015    9       18    20  15    3.4046   528.5    3.739      42.260
2015    9       18    20  22    3.4025   528.3    3.738      42.221
2015    9       18    20  28    3.4003   528.2    3.738      42.181
2015    9       18    20  34    3.3982   528.0    3.737      42.142
2015    9       18    20  40    3.3960   527.9    3.737      42.104
2015    9       18    20  47    3.3939   527.7    3.737      42.065
2015    9       18    20  53    3.3918   527.6    3.736      42.027
2015    9       18    20  59    3.3897   527.4    3.736      41.989
2015    9       18    21   5    3.3876   527.3    3.736      41.951
2015    9       18    21  11    3.3855   527.1    3.735      41.913
2015    9       18    21  18    3.3834   526.9    3.735      41.874
2015    9       18    21  24    3.3814   526.8    3.735      41.836
2015    9       18    21  30    3.3793   526.6    3.735      41.798
2015    9       18    21  36    3.3773   526.5    3.734      41.760
2015    9       18    21  43    3.3752   526.3    3.734      41.722
2015    9       18    21  49    3.3731   526.1    3.734      41.683
2015    9       18    21  55    3.3711   526.0    3.734      41.644
2015    9       18    22   1    3.3691   525.8    3.733      41.605
2015    9       18    22   8    3.3670   525.6    3.733      41.567
2015    9       18    22  14    3.3650   525.5    3.733      41.528
2015    9       18    22  20    3.3630   525.3    3.733      41.489
2015    9       18    22  26    3.3610   525.1    3.732      41.449
2015    9       18    22  32    3.3590   525.0    3.732      41.410
2015    9       18    22  39    3.3570   524.8    3.732      41.371
2015    9       18    22  45    3.3550   524.6    3.731      41.331
2015    9       18    22  51    3.3531   524.5    3.731      41.292
2015    9       18    22  57    3.3511   524.3    3.731      41.253
2015    9       18    23   4    3.3492   524.1    3.731      41.213
2015    9       18    23  10    3.3472   523.9    3.730      41.173
2015    9       18    23  16    3.3453   523.8    3.730      41.134
2015    9       18    23  22    3.3434   523.6    3.730      41.094
2015    9       18    23  29    3.3415   523.4    3.730      41.054
2015    9       18    23  35    3.3396   523.2    3.730      41.014
2015    9       18    23  41    3.3378   523.0    3.730      40.975
2015    9       18    23  47    3.3359   522.9    3.730      40.935
2015    9       18    23  54    3.3341   522.7    3.730      40.895
2015    9       19     0   0    3.3322   522.5    3.730      40.855
2015    9       19     0   6    3.3302   522.3    3.729      40.814
2015    9       19     0  12    3.3282   522.2    3.729      40.773
2015    9       19     0  19    3.3261   522.0    3.729      40.732
2015    9       19     0  25    3.3241   521.8    3.729      40.691
2015    9       19     0  31    3.3221   521.6    3.729      40.650
2015    9       19     0  37    3.3201   521.5    3.729      40.609
2015    9       19     0  43    3.3181   521.3    3.728      40.567
2015    9       19     0  50    3.3161   521.1    3.728      40.526
2015    9       19     0  56    3.3142   520.9    3.728      40.484
2015    9       19     1   2    3.3122   520.7    3.728      40.443
2015    9       19     1   8    3.3102   520.6    3.728      40.401
2015    9       19     1  15    3.3083   520.4    3.728      40.359
2015    9       19     1  21    3.3063   520.2    3.728      40.316
2015    9       19     1  27    3.3044   520.0    3.728      40.274
2015    9       19     1  33    3.3024   519.8    3.728      40.231
2015    9       19     1  40    3.3005   519.6    3.728      40.189
2015    9       19     1  46    3.2985   519.4    3.727      40.145
2015    9       19     1  52    3.2966   519.2    3.727      40.102
2015    9       19     1  58    3.2946   519.0    3.727      40.059
2015    9       19     2   5    3.2927   518.8    3.727      40.015
2015    9       19     2  11    3.2908   518.6    3.726      39.972
2015    9       19     2  17    3.2889   518.4    3.726      39.928
2015    9       19     2  23    3.2870   518.2    3.726      39.884
2015    9       19     2  30    3.2851   518.0    3.726      39.840
2015    9       19     2  36    3.2832   517.8    3.725      39.795
2015    9       19     2  42    3.2813   517.6    3.725      39.751
2015    9       19     2  48    3.2794   517.4    3.724      39.707
2015    9       19     2  55    3.2776   517.2    3.724      39.662
2015    9       19     3   1    3.2758   517.0    3.724      39.618
2015    9       19     3   7    3.2739   516.8    3.723      39.574
2015    9       19     3  13    3.2721   516.6    3.723      39.529
2015    9       19     3  20    3.2704   516.4    3.723      39.484
2015    9       19     3  26    3.2686   516.2    3.722      39.440
2015    9       19     3  32    3.2668   516.0    3.722      39.395
2015    9       19     3  38    3.2651   515.8    3.721      39.350
2015    9       19     3  44    3.2634   515.6    3.721      39.305
2015    9       19     3  51    3.2617   515.4    3.721      39.260
2015    9       19     3  57    3.2600   515.2    3.720      39.215
2015    9       19     4   3    3.2583   515.0    3.720      39.169
2015    9       19     4   9    3.2566   514.8    3.719      39.124
2015    9       19     4  16    3.2549   514.5    3.719      39.078
2015    9       19     4  22    3.2533   514.3    3.718      39.032
2015    9       19     4  28    3.2516   514.1    3.718      38.986
2015    9       19     4  34    3.2499   513.9    3.717      38.940
2015    9       19     4  41    3.2483   513.7    3.717      38.892
2015    9       19     4  47    3.2466   513.5    3.716      38.845
2015    9       19     4  53    3.2449   513.3    3.716      38.798
2015    9       19     4  59    3.2432   513.1    3.715      38.750
2015    9       19     5   5    3.2416   512.9    3.715      38.701
2015    9       19     5  12    3.2399   512.6    3.714      38.653
2015    9       19     5  18    3.2382   512.4    3.714      38.604
2015    9       19     5  24    3.2365   512.2    3.713      38.556
2015    9       19     5  30    3.2349   512.0    3.713      38.507
2015    9       19     5  37    3.2332   511.8    3.712      38.458
2015    9       19     5  43    3.2315   511.6    3.711      38.408
2015    9       19     5  49    3.2299   511.3    3.711      38.359
2015    9       19     5  55    3.2283   511.1    3.710      38.309
2015    9       19     6   2    3.2266   510.9    3.710      38.260
2015    9       19     6   8    3.2250   510.7    3.709      38.211
2015    9       19     6  14    3.2233   510.4    3.709      38.161
2015    9       19     6  20    3.2217   510.2    3.708      38.111
2015    9       19     6  27    3.2201   510.0    3.708      38.062
2015    9       19     6  33    3.2186   509.7    3.708      38.013
2015    9       19     6  39    3.2170   509.5    3.708      37.964
2015    9       19     6  45    3.2154   509.3    3.708      37.915
2015    9       19     6  51    3.2139   509.0    3.708      37.866
2015    9       19     6  58    3.2124   508.8    3.708      37.818
2015    9       19     7   4    3.2109   508.6    3.708      37.770
2015    9       19     7  10    3.2094   508.3    3.708      37.722
2015    9       19     7  16    3.2080   508.1    3.709      37.675
2015    9       19     7  23    3.2066   507.9    3.710      37.629
2015    9       19     7  29    3.2052   507.6    3.710      37.583
2015    9       19     7  35    3.2038   507.4    3.711      37.537
2015    9       19     7  41    3.2025   507.1    3.712      37.492
2015    9       19     7  48    3.2012   506.9    3.714      37.448
2015    9       19     7  54    3.1999   506.6    3.715      37.405
2015    9       19     8   0    3.1987   506.4    3.717      37.361
2015    9       19     8   6    3.1974   506.1    3.718      37.319
2015    9       19     8  13    3.1963   505.9    3.720      37.277
2015    9       19     8  19    3.1951   505.7    3.722      37.236
2015    9       19     8  25    3.1940   505.4    3.724      37.195
2015    9       19     8  31    3.1929   505.2    3.726      37.155
2015    9       19     8  38    3.1918   504.9    3.729      37.115
2015    9       19     8  44    3.1908   504.7    3.731      37.076
2015    9       19     8  50    3.1898   504.4    3.733      37.037
2015    9       19     8  56    3.1888   504.1    3.736      36.998
2015    9       19     9   3    3.1878   503.9    3.739      36.960
2015    9       19     9   9    3.1868   503.6    3.741      36.922
2015    9       19     9  15    3.1858   503.4    3.744      36.885
2015    9       19     9  21    3.1849   503.1    3.747      36.847
2015    9       19     9  28    3.1840   502.9    3.750      36.810
2015    9       19     9  34    3.1831   502.6    3.752      36.773
2015    9       19     9  40    3.1822   502.3    3.755      36.735
2015    9       19     9  46    3.1813   502.1    3.758      36.698
2015    9       19     9  52    3.1804   501.8    3.761      36.661
2015    9       19     9  59    3.1796   501.5    3.763      36.624
2015    9       19    10   5    3.1788   501.3    3.766      36.586
2015    9       19    10  11    3.1779   501.0    3.769      36.549
2015    9       19    10  17    3.1771   500.7    3.771      36.511
2015    9       19    10  24    3.1763   500.4    3.774      36.474
2015    9       19    10  30    3.1756   500.2    3.777      36.436
2015    9       19    10  36    3.1748   499.9    3.779      36.398
2015    9       19    10  42    3.1741   499.6    3.782      36.360
2015    9       19    10  49    3.1734   499.3    3.784      36.322
2015    9       19    10  55    3.1727   499.1    3.787      36.283
2015    9       19    11   1    3.1720   498.8    3.789      36.244
2015    9       19    11   7    3.1714   498.5    3.792      36.206
2015    9       19    11  14    3.1708   498.2    3.794      36.167
2015    9       19    11  20    3.1702   497.9    3.796      36.128
2015    9       19    11  26    3.1696   497.7    3.799      36.089
2015    9       19    11  32    3.1691   497.4    3.801      36.050
2015    9       19    11  38    3.1686   497.1    3.803      36.011
2015    9       19    11  45    3.1681   496.8    3.806      35.972
2015    9       19    11  51    3.1677   496.5    3.808      35.933
2015    9       19    11  57    3.1673   496.2    3.810      35.894
2015    9       19    12   3    3.1669   496.0    3.813      35.855
2015    9       19    12  10    3.1666   495.7    3.815      35.815
2015    9       19    12  16    3.1663   495.4    3.817      35.776
2015    9       19    12  22    3.1660   495.1    3.820      35.737
2015    9       19    12  28    3.1658   494.8    3.822      35.698
2015    9       19    12  35    3.1656   494.5    3.825      35.659
2015    9       19    12  41    3.1654   494.2    3.827      35.620
2015    9       19    12  47    3.1653   493.9    3.829      35.581
2015    9       19    12  53    3.1652   493.7    3.832      35.542
2015    9       19    13   0    3.1651   493.4    3.834      35.503
2015    9       19    13   6    3.1651   493.1    3.837      35.464
2015    9       19    13  12    3.1651   492.8    3.840      35.425
2015    9       19    13  18    3.1651   492.5    3.842      35.386
2015    9       19    13  24    3.1652   492.2    3.845      35.347
2015    9       19    13  31    3.1652   491.9    3.848      35.308
2015    9       19    13  37    3.1654   491.6    3.851      35.269
2015    9       19    13  43    3.1655   491.3    3.854      35.230
2015    9       19    13  49    3.1657   491.0    3.857      35.191
2015    9       19    13  56    3.1659   490.7    3.860      35.151
2015    9       19    14   2    3.1662   490.4    3.863      35.112
2015    9       19    14   8    3.1664   490.1    3.866      35.074
2015    9       19    14  14    3.1668   489.8    3.869      35.035
2015    9       19    14  21    3.1671   489.5    3.873      34.997
2015    9       19    14  27    3.1675   489.2    3.877      34.959
2015    9       19    14  33    3.1680   488.9    3.880      34.921
2015    9       19    14  39    3.1685   488.5    3.884      34.884
2015    9       19    14  46    3.1690   488.2    3.888      34.847
2015    9       19    14  52    3.1696   487.9    3.893      34.811
2015    9       19    14  58    3.1702   487.6    3.897      34.775
2015    9       19    15   4    3.1709   487.3    3.902      34.740
2015    9       19    15  11    3.1717   487.0    3.907      34.706
2015    9       19    15  17    3.1725   486.7    3.912      34.672
2015    9       19    15  23    3.1733   486.4    3.917      34.639
2015    9       19    15  29    3.1742   486.1    3.922      34.606
2015    9       19    15  35    3.1752   485.8    3.928      34.575
2015    9       19    15  42    3.1762   485.5    3.933      34.544
2015    9       19    15  48    3.1773   485.2    3.939      34.514
2015    9       19    15  54    3.1784   484.8    3.946      34.485
2015    9       19    16   0    3.1796   484.5    3.952      34.456
2015    9       19    16   7    3.1809   484.2    3.958      34.429
2015    9       19    16  13    3.1821   483.9    3.965      34.402
2015    9       19    16  19    3.1835   483.6    3.972      34.375
2015    9       19    16  25    3.1849   483.3    3.979      34.350
2015    9       19    16  32    3.1863   483.0    3.986      34.325
2015    9       19    16  38    3.1878   482.7    3.993      34.300
2015    9       19    16  44    3.1893   482.4    4.000      34.277
2015    9       19    16  50    3.1909   482.1    4.008      34.254
2015    9       19    16  57    3.1925   481.8    4.015      34.231
2015    9       19    17   3    3.1941   481.5    4.023      34.208
2015    9       19    17   9    3.1959   481.2    4.030      34.186
2015    9       19    17  15    3.1976   480.9    4.038      34.165
2015    9       19    17  22    3.1993   480.6    4.046      34.143
2015    9       19    17  28    3.2011   480.3    4.053      34.122
2015    9       19    17  34    3.2029   480.0    4.061      34.101
2015    9       19    17  40    3.2048   479.7    4.069      34.080
2015    9       19    17  47    3.2067   479.4    4.077      34.060
2015    9       19    17  53    3.2087   479.1    4.085      34.039
2015    9       19    17  59    3.2107   478.8    4.092      34.019
2015    9       19    18   5    3.2127   478.5    4.100      33.999
2015    9       19    18  11    3.2148   478.2    4.108      33.979
2015    9       19    18  18    3.2169   477.9    4.116      33.959
2015    9       19    18  24    3.2191   477.6    4.124      33.940
2015    9       19    18  30    3.2213   477.3    4.132      33.920
2015    9       19    18  36    3.2236   477.0    4.140      33.901
2015    9       19    18  43    3.2259   476.7    4.148      33.882
2015    9       19    18  49    3.2284   476.4    4.156      33.863
2015    9       19    18  55    3.2308   476.1    4.164      33.845
2015    9       19    19   1    3.2334   475.8    4.172      33.827
2015    9       19    19   8    3.2360   475.5    4.180      33.809
2015    9       19    19  14    3.2387   475.2    4.189      33.791
2015    9       19    19  20    3.2414   474.9    4.197      33.773
2015    9       19    19  26    3.2442   474.6    4.205      33.756
2015    9       19    19  33    3.2470   474.3    4.214      33.739
2015    9       19    19  39    3.2500   474.0    4.222      33.722
2015    9       19    19  45    3.2530   473.7    4.231      33.706
2015    9       19    19  51    3.2561   473.4    4.240      33.690
2015    9       19    19  57    3.2592   473.1    4.249      33.675
2015    9       19    20   4    3.2624   472.8    4.258      33.659
2015    9       19    20  10    3.2657   472.5    4.267      33.645
2015    9       19    20  16    3.2691   472.2    4.277      33.630
2015    9       19    20  22    3.2725   471.9    4.286      33.617
2015    9       19    20  29    3.2760   471.7    4.296      33.603
2015    9       19    20  35    3.2795   471.4    4.306      33.590
2015    9       19    20  41    3.2832   471.1    4.316      33.578
2015    9       19    20  47    3.2869   470.8    4.326      33.566
2015    9       19    20  54    3.2907   470.5    4.336      33.555
2015    9       19    21   0    3.2945   470.2    4.347      33.544
2015    9       19    21   6    3.2985   469.9    4.358      33.534
2015    9       19    21  12    3.3025   469.6    4.369      33.525
2015    9       19    21  18    3.3066   469.4    4.380      33.517
2015    9       19    21  25    3.3108   469.1    4.392      33.509
2015    9       19    21  31    3.3151   468.8    4.403      33.502
2015    9       19    21  37    3.3195   468.5    4.415      33.496
2015    9       19    21  43    3.3240   468.2    4.428      33.490
2015    9       19    21  50    3.3285   467.9    4.440      33.486
2015    9       19    21  56    3.3333   467.7    4.453      33.483
2015    9       19    22   2    3.3380   467.4    4.466      33.481
2015    9       19    22   8    3.3429   467.1    4.480      33.480
2015    9       19    22  15    3.3479   466.9    4.493      33.480
2015    9       19    22  21    3.3530   466.6    4.507      33.481
2015    9       19    22  27    3.3581   466.3    4.521      33.484
2015    9       19    22  33    3.3634   466.1    4.536      33.488
2015    9       19    22  40    3.3687   465.8    4.550      33.493
2015    9       19    22  46    3.3742   465.6    4.565      33.500
2015    9       19    22  52    3.3798   465.3    4.580      33.508
2015    9       19    22  58    3.3855   465.1    4.595      33.516
2015    9       19    23   5    3.3912   464.8    4.610      33.526
2015    9       19    23  11    3.3971   464.6    4.626      33.536
2015    9       19    23  17    3.4030   464.3    4.641      33.548
2015    9       19    23  23    3.4090   464.1    4.657      33.562
2015    9       19    23  30    3.4151   463.9    4.673      33.577
2015    9       19    23  36    3.4212   463.7    4.688      33.593
2015    9       19    23  42    3.4273   463.5    4.704      33.611
2015    9       19    23  48    3.4335   463.2    4.719      33.630
2015    9       19    23  54    3.4396   463.0    4.734      33.650
2015    9       20     0   1    3.4459   462.8    4.749      33.670
2015    9       20     0   7    3.4521   462.6    4.764      33.690
2015    9       20     0  13    3.4584   462.4    4.778      33.710
2015    9       20     0  19    3.4646   462.2    4.793      33.729
2015    9       20     0  26    3.4709   462.0    4.807      33.748
2015    9       20     0  32    3.4772   461.8    4.821      33.767
2015    9       20     0  38    3.4836   461.7    4.835      33.786
2015    9       20     0  44    3.4899   461.5    4.849      33.805
2015    9       20     0  51    3.4963   461.3    4.863      33.823
2015    9       20     0  57    3.5026   461.1    4.877      33.842
2015    9       20     1   3    3.5091   460.9    4.890      33.860
2015    9       20     1   9    3.5155   460.7    4.904      33.878
2015    9       20     1  16    3.5220   460.5    4.917      33.896
2015    9       20     1  22    3.5284   460.4    4.930      33.913
2015    9       20     1  28    3.5349   460.2    4.943      33.931
2015    9       20     1  34    3.5414   460.0    4.956      33.948
2015    9       20     1  41    3.5480   459.8    4.969      33.966
2015    9       20     1  47    3.5546   459.7    4.982      33.983
2015    9       20     1  53    3.5612   459.5    4.995      34.000
2015    9       20     1  59    3.5678   459.3    5.008      34.017
2015    9       20     2   5    3.5745   459.2    5.021      34.033
2015    9       20     2  12    3.5811   459.0    5.033      34.050
2015    9       20     2  18    3.5879   458.8    5.046      34.067
2015    9       20     2  24    3.5946   458.7    5.059      34.083
2015    9       20     2  30    3.6014   458.5    5.072      34.100
2015    9       20     2  37    3.6082   458.4    5.084      34.117
2015    9       20     2  43    3.6151   458.2    5.097      34.134
2015    9       20     2  49    3.6220   458.1    5.110      34.151
2015    9       20     2  55    3.6289   457.9    5.123      34.168
2015    9       20     3   2    3.6359   457.7    5.136      34.185
2015    9       20     3   8    3.6429   457.6    5.149      34.203
2015    9       20     3  14    3.6500   457.4    5.162      34.221
2015    9       20     3  20    3.6572   457.3    5.175      34.240
2015    9       20     3  26    3.6644   457.1    5.189      34.259
2015    9       20     3  33    3.6716   457.0    5.202      34.279
2015    9       20     3  39    3.6789   456.9    5.216      34.299
2015    9       20     3  45    3.6864   456.7    5.229      34.320
2015    9       20     3  51    3.6938   456.6    5.243      34.343
2015    9       20     3  58    3.7014   456.4    5.258      34.366
2015    9       20     4   4    3.7090   456.3    5.272      34.390
2015    9       20     4  10    3.7167   456.2    5.287      34.415
2015    9       20     4  16    3.7244   456.0    5.301      34.441
2015    9       20     4  23    3.7323   455.9    5.317      34.469
2015    9       20     4  29    3.7403   455.8    5.332      34.497
2015    9       20     4  35    3.7484   455.7    5.348      34.527
2015    9       20     4  41    3.7566   455.5    5.364      34.559
2015    9       20     4  48    3.7649   455.4    5.381      34.592
2015    9       20     4  54    3.7733   455.3    5.398      34.626
2015    9       20     5   0    3.7818   455.2    5.415      34.662
2015    9       20     5   6    3.7905   455.1    5.433      34.700
2015    9       20     5  12    3.7993   455.0    5.452      34.739
2015    9       20     5  19    3.8082   454.9    5.471      34.780
2015    9       20     5  25    3.8173   454.8    5.490      34.823
2015    9       20     5  31    3.8264   454.7    5.510      34.868
2015    9       20     5  37    3.8358   454.6    5.530      34.915
2015    9       20     5  44    3.8453   454.5    5.551      34.965
2015    9       20     5  50    3.8549   454.4    5.573      35.017
2015    9       20     5  56    3.8647   454.4    5.595      35.072
2015    9       20     6   2    3.8746   454.3    5.617      35.129
2015    9       20     6   9    3.8846   454.2    5.640      35.188
2015    9       20     6  15    3.8949   454.2    5.664      35.251
2015    9       20     6  21    3.9052   454.1    5.688      35.317
2015    9       20     6  27    3.9156   454.1    5.712      35.384
2015    9       20     6  34    3.9262   454.1    5.736      35.454
2015    9       20     6  40    3.9369   454.0    5.761      35.528
2015    9       20     6  46    3.9475   454.0    5.786      35.605
2015    9       20     6  52    3.9583   454.0    5.810      35.684
2015    9       20     6  59    3.9690   454.0    5.835      35.764
2015    9       20     7   5    3.9798   454.0    5.859      35.846
2015    9       20     7  11    3.9906   454.0    5.883      35.929
2015    9       20     7  17    4.0014   454.0    5.907      36.013
2015    9       20     7  23    4.0122   454.0    5.930      36.099
2015    9       20     7  30    4.0230   454.0    5.954      36.186
2015    9       20     7  36    4.0337   454.1    5.976      36.274
2015    9       20     7  42    4.0443   454.1    5.998      36.363
2015    9       20     7  48    4.0548   454.1    6.019      36.453
2015    9       20     7  55    4.0653   454.2    6.039      36.543
2015    9       20     8   1    4.0757   454.2    6.059      36.631
2015    9       20     8   7    4.0860   454.3    6.077      36.716
2015    9       20     8  13    4.0961   454.3    6.095      36.798
2015    9       20     8  20    4.1062   454.3    6.113      36.878
2015    9       20     8  26    4.1162   454.4    6.129      36.955
2015    9       20     8  32    4.1261   454.4    6.145      37.030
2015    9       20     8  38    4.1360   454.5    6.161      37.103
2015    9       20     8  45    4.1458   454.5    6.176      37.173
2015    9       20     8  51    4.1554   454.6    6.190      37.242
2015    9       20     8  57    4.1651   454.6    6.204      37.308
2015    9       20     9   3    4.1747   454.6    6.217      37.372
2015    9       20     9   9    4.1843   454.7    6.230      37.435
2015    9       20     9  16    4.1938   454.7    6.242      37.496
2015    9       20     9  22    4.2033   454.8    6.255      37.555
2015    9       20     9  28    4.2128   454.8    6.266      37.613
2015    9       20     9  34    4.2222   454.8    6.278      37.670
2015    9       20     9  41    4.2316   454.9    6.289      37.725
2015    9       20     9  47    4.2411   454.9    6.300      37.779
2015    9       20     9  53    4.2505   454.9    6.310      37.832
2015    9       20     9  59    4.2599   455.0    6.320      37.884
2015    9       20    10   6    4.2693   455.0    6.331      37.935
2015    9       20    10  12    4.2787   455.0    6.341      37.985
2015    9       20    10  18    4.2881   455.1    6.350      38.035
2015    9       20    10  24    4.2976   455.1    6.360      38.084
2015    9       20    10  30    4.3070   455.1    6.370      38.132
2015    9       20    10  37    4.3165   455.2    6.379      38.180
2015    9       20    10  43    4.3260   455.2    6.389      38.228
2015    9       20    10  49    4.3355   455.2    6.399      38.276
2015    9       20    10  55    4.3450   455.3    6.408      38.324
2015    9       20    11   2    4.3546   455.3    6.418      38.372
2015    9       20    11   8    4.3642   455.3    6.427      38.420
2015    9       20    11  14    4.3739   455.4    6.437      38.469
2015    9       20    11  20    4.3835   455.4    6.447      38.518
2015    9       20    11  27    4.3933   455.4    6.456      38.568
2015    9       20    11  33    4.4031   455.5    6.466      38.618
2015    9       20    11  39    4.4129   455.5    6.476      38.669
2015    9       20    11  45    4.4228   455.6    6.487      38.721
2015    9       20    11  51    4.4327   455.6    6.497      38.775
2015    9       20    11  58    4.4427   455.7    6.508      38.830
2015    9       20    12   4    4.4528   455.7    6.519      38.886
2015    9       20    12  10    4.4630   455.8    6.530      38.944
2015    9       20    12  16    4.4732   455.8    6.542      39.003
2015    9       20    12  23    4.4835   455.9    6.554      39.065
2015    9       20    12  29    4.4939   456.0    6.566      39.128
2015    9       20    12  35    4.5044   456.0    6.579      39.194
2015    9       20    12  41    4.5150   456.1    6.592      39.262
2015    9       20    12  48    4.5257   456.2    6.606      39.333
2015    9       20    12  54    4.5365   456.3    6.620      39.406
2015    9       20    13   0    4.5474   456.4    6.635      39.483
2015    9       20    13   6    4.5584   456.4    6.650      39.562
2015    9       20    13  13    4.5696   456.5    6.666      39.645
2015    9       20    13  19    4.5808   456.7    6.683      39.730
2015    9       20    13  25    4.5921   456.8    6.700      39.818
2015    9       20    13  31    4.6036   456.9    6.718      39.910
2015    9       20    13  37    4.6151   457.0    6.736      40.005
2015    9       20    13  44    4.6267   457.1    6.754      40.104
2015    9       20    13  50    4.6384   457.3    6.773      40.206
2015    9       20    13  56    4.6501   457.4    6.793      40.311
2015    9       20    14   2    4.6619   457.6    6.813      40.420
2015    9       20    14   9    4.6737   457.7    6.833      40.532
2015    9       20    14  15    4.6855   457.9    6.853      40.646
2015    9       20    14  21    4.6974   458.1    6.874      40.762
2015    9       20    14  27    4.7093   458.2    6.895      40.880
2015    9       20    14  34    4.7212   458.4    6.916      41.000
2015    9       20    14  40    4.7331   458.6    6.937      41.123
2015    9       20    14  46    4.7450   458.8    6.958      41.249
2015    9       20    14  52    4.7568   459.0    6.979      41.377
2015    9       20    14  59    4.7686   459.2    6.999      41.509
2015    9       20    15   5    4.7803   459.4    7.019      41.643
2015    9       20    15  11    4.7919   459.7    7.039      41.779
2015    9       20    15  17    4.8034   459.9    7.058      41.915
2015    9       20    15  24    4.8148   460.1    7.076      42.050
2015    9       20    15  30    4.8261   460.3    7.094      42.183
2015    9       20    15  36    4.8373   460.6    7.112      42.315
2015    9       20    15  42    4.8484   460.8    7.129      42.444
2015    9       20    15  48    4.8594   461.0    7.145      42.573
2015    9       20    15  55    4.8703   461.2    7.161      42.699
2015    9       20    16   1    4.8812   461.4    7.177      42.824
2015    9       20    16   7    4.8919   461.7    7.192      42.949
2015    9       20    16  13    4.9027   461.9    7.207      43.073
2015    9       20    16  20    4.9133   462.1    7.221      43.196
2015    9       20    16  26    4.9240   462.3    7.236      43.319
2015    9       20    16  32    4.9346   462.6    7.250      43.440
2015    9       20    16  38    4.9452   462.8    7.264      43.561
2015    9       20    16  45    4.9558   463.0    7.277      43.682
2015    9       20    16  51    4.9664   463.2    7.290      43.804
2015    9       20    16  57    4.9769   463.5    7.303      43.926
2015    9       20    17   3    4.9875   463.7    7.315      44.047
2015    9       20    17   9    4.9979   463.9    7.326      44.169
2015    9       20    17  16    5.0084   464.2    7.336      44.290
2015    9       20    17  22    5.0187   464.4    7.346      44.408
2015    9       20    17  28    5.0290   464.7    7.355      44.523
2015    9       20    17  34    5.0392   464.9    7.363      44.636
2015    9       20    17  41    5.0492   465.1    7.371      44.746
2015    9       20    17  47    5.0592   465.4    7.377      44.853
2015    9       20    17  53    5.0691   465.6    7.384      44.959
2015    9       20    17  59    5.0788   465.8    7.389      45.061
2015    9       20    18   6    5.0885   466.1    7.394      45.161
2015    9       20    18  12    5.0981   466.3    7.398      45.259
2015    9       20    18  18    5.1077   466.5    7.402      45.354
2015    9       20    18  24    5.1171   466.8    7.405      45.448
2015    9       20    18  30    5.1266   467.0    7.407      45.540
2015    9       20    18  37    5.1359   467.2    7.409      45.630
2015    9       20    18  43    5.1452   467.5    7.411      45.718
2015    9       20    18  49    5.1545   467.7    7.412      45.805
2015    9       20    18  55    5.1638   467.9    7.413      45.890
2015    9       20    19   2    5.1730   468.2    7.414      45.974
2015    9       20    19   8    5.1822   468.4    7.414      46.057
2015    9       20    19  14    5.1914   468.6    7.414      46.139
2015    9       20    19  20    5.2006   468.9    7.413      46.219
2015    9       20    19  27    5.2098   469.1    7.412      46.300
2015    9       20    19  33    5.2190   469.3    7.412      46.380
2015    9       20    19  39    5.2282   469.6    7.411      46.459
2015    9       20    19  45    5.2375   469.8    7.410      46.538
2015    9       20    19  51    5.2468   470.0    7.409      46.617
2015    9       20    19  58    5.2561   470.3    7.408      46.696
2015    9       20    20   4    5.2655   470.5    7.406      46.776
2015    9       20    20  10    5.2749   470.7    7.405      46.856
2015    9       20    20  16    5.2843   471.0    7.404      46.936
2015    9       20    20  23    5.2938   471.2    7.403      47.017
2015    9       20    20  29    5.3033   471.5    7.403      47.099
2015    9       20    20  35    5.3128   471.7    7.402      47.182
2015    9       20    20  41    5.3224   472.0    7.401      47.265
2015    9       20    20  48    5.3320   472.2    7.401      47.350
2015    9       20    20  54    5.3416   472.5    7.400      47.435
2015    9       20    21   0    5.3513   472.7    7.400      47.522
2015    9       20    21   6    5.3610   473.0    7.400      47.609
2015    9       20    21  13    5.3707   473.3    7.401      47.698
2015    9       20    21  19    5.3804   473.5    7.401      47.787
2015    9       20    21  25    5.3902   473.8    7.402      47.878
2015    9       20    21  31    5.3999   474.1    7.403      47.970
2015    9       20    21  37    5.4097   474.3    7.404      48.063
2015    9       20    21  44    5.4195   474.6    7.406      48.158
2015    9       20    21  50    5.4292   474.9    7.408      48.254
2015    9       20    21  56    5.4390   475.2    7.410      48.351
2015    9       20    22   2    5.4487   475.5    7.412      48.449
2015    9       20    22   9    5.4585   475.7    7.415      48.549
2015    9       20    22  15    5.4682   476.0    7.418      48.650
2015    9       20    22  21    5.4779   476.3    7.422      48.753
2015    9       20    22  27    5.4876   476.6    7.426      48.858
2015    9       20    22  34    5.4974   476.9    7.430      48.965
2015    9       20    22  40    5.5071   477.2    7.435      49.073
2015    9       20    22  46    5.5168   477.5    7.440      49.183
2015    9       20    22  52    5.5265   477.8    7.445      49.295
2015    9       20    22  59    5.5362   478.1    7.451      49.408
2015    9       20    23   5    5.5460   478.4    7.457      49.522
2015    9       20    23  11    5.5557   478.7    7.464      49.638
2015    9       20    23  17    5.5655   479.0    7.472      49.756
2015    9       20    23  23    5.5753   479.3    7.481      49.876
2015    9       20    23  30    5.5851   479.5    7.490      50.000
2015    9       20    23  36    5.5950   479.8    7.500      50.127
2015    9       20    23  42    5.6049   480.2    7.510      50.258
2015    9       20    23  48    5.6148   480.4    7.522      50.392
2015    9       20    23  55    5.6248   480.7    7.534      50.528
2015    9       21     0   1    5.6349   481.0    7.547      50.669
2015    9       21     0   7    5.6449   481.4    7.561      50.815
2015    9       21     0  13    5.6551   481.7    7.574      50.966
2015    9       21     0  20    5.6651   482.0    7.589      51.121
2015    9       21     0  26    5.6752   482.3    7.603      51.281
2015    9       21     0  32    5.6852   482.7    7.616      51.447
2015    9       21     0  38    5.6952   483.0    7.630      51.614
2015    9       21     0  44    5.7050   483.3    7.644      51.781
2015    9       21     0  51    5.7148   483.6    7.658      51.946
2015    9       21     0  57    5.7245   484.0    7.671      52.113
2015    9       21     1   3    5.7341   484.3    7.684      52.282
2015    9       21     1   9    5.7437   484.6    7.698      52.452
2015    9       21     1  16    5.7532   485.0    7.710      52.623
2015    9       21     1  22    5.7627   485.3    7.723      52.795
2015    9       21     1  28    5.7721   485.6    7.736      52.965
2015    9       21     1  34    5.7815   486.0    7.749      53.141
2015    9       21     1  40    5.7909   486.3    7.761      53.318
2015    9       21     1  47    5.8002   486.7    7.772      53.498
2015    9       21     1  53    5.8095   487.1    7.783      53.677
2015    9       21     1  59    5.8187   487.5    7.792      53.859
2015    9       21     2   5    5.8277   487.9    7.801      54.042
2015    9       21     2  12    5.8366   488.3    7.808      54.223
2015    9       21     2  18    5.8453   488.7    7.814      54.400
2015    9       21     2  24    5.8538   489.2    7.819      54.572
2015    9       21     2  30    5.8620   489.6    7.822      54.741
2015    9       21     2  37    5.8700   490.0    7.825      54.907
2015    9       21     2  43    5.8778   490.5    7.827      55.069
2015    9       21     2  49    5.8854   490.9    7.828      55.230
2015    9       21     2  55    5.8928   491.4    7.828      55.387
2015    9       21     3   1    5.9001   491.9    7.827      55.541
2015    9       21     3   8    5.9072   492.4    7.825      55.693
2015    9       21     3  14    5.9142   492.9    7.823      55.843
2015    9       21     3  20    5.9211   493.3    7.820      55.990
2015    9       21     3  26    5.9279   493.8    7.817      56.135
2015    9       21     3  33    5.9346   494.3    7.813      56.278
2015    9       21     3  39    5.9412   494.8    7.809      56.419
2015    9       21     3  45    5.9478   495.3    7.805      56.558
2015    9       21     3  51    5.9544   495.8    7.801      56.695
2015    9       21     3  58    5.9611   496.3    7.797      56.832
2015    9       21     4   4    5.9677   496.8    7.793      56.970
2015    9       21     4  10    5.9744   497.3    7.790      57.109
2015    9       21     4  16    5.9812   497.8    7.786      57.250
2015    9       21     4  23    5.9880   498.3    7.783      57.394
2015    9       21     4  29    5.9949   498.9    7.780      57.544
2015    9       21     4  35    6.0017   499.4    7.777      57.699
2015    9       21     4  41    6.0085   500.0    7.774      57.861
2015    9       21     4  47    6.0152   500.6    7.770      58.026
2015    9       21     4  54    6.0219   501.2    7.765      58.190
2015    9       21     5   0    6.0282   501.8    7.760      58.351
2015    9       21     5   6    6.0344   502.4    7.753      58.508
2015    9       21     5  12    6.0403   503.0    7.746      58.659
2015    9       21     5  19    6.0459   503.5    7.737      58.804
2015    9       21     5  25    6.0512   504.1    7.728      58.943
2015    9       21     5  31    6.0564   504.6    7.718      59.078
2015    9       21     5  37    6.0614   505.2    7.708      59.207
2015    9       21     5  44    6.0662   505.7    7.698      59.332
2015    9       21     5  50    6.0708   506.2    7.688      59.452
2015    9       21     5  56    6.0753   506.7    7.677      59.570
2015    9       21     6   2    6.0795   507.1    7.667      59.686
2015    9       21     6   8    6.0837   507.6    7.657      59.800
2015    9       21     6  15    6.0876   508.0    7.648      59.911
2015    9       21     6  21    6.0915   508.5    7.638      60.020
2015    9       21     6  27    6.0952   509.0    7.629      60.128
2015    9       21     6  33    6.0988   509.4    7.620      60.233
2015    9       21     6  40    6.1023   509.9    7.611      60.333
2015    9       21     6  46    6.1056   510.3    7.602      60.429
2015    9       21     6  52    6.1087   510.8    7.593      60.523
2015    9       21     6  58    6.1118   511.2    7.584      60.613
2015    9       21     7   5    6.1146   511.7    7.575      60.699
2015    9       21     7  11    6.1173   512.1    7.566      60.779
2015    9       21     7  17    6.1197   512.6    7.558      60.853
2015    9       21     7  23    6.1221   513.0    7.549      60.921
2015    9       21     7  29    6.1244   513.4    7.540      60.985
2015    9       21     7  36    6.1268   513.8    7.531      61.049
2015    9       21     7  42    6.1291   514.2    7.523      61.111
2015    9       21     7  48    6.1317   514.6    7.515      61.171
2015    9       21     7  54    6.1344   515.0    7.507      61.229
2015    9       21     8   1    6.1376   515.3    7.501      61.281
2015    9       21     8   7    6.1409   515.5    7.497      61.330
2015    9       21     8  13    6.1447   515.8    7.493      61.384
2015    9       21     8  19    6.1488   516.0    7.492      61.445
2015    9       21     8  26    6.1534   516.3    7.491      61.515
2015    9       21     8  32    6.1583   516.5    7.492      61.595
2015    9       21     8  38    6.1638   516.8    7.496      61.688
2015    9       21     8  44    6.1696   517.0    7.500      61.798
2015    9       21     8  50    6.1758   517.3    7.506      61.931
2015    9       21     8  57    6.1823   517.7    7.513      62.087
2015    9       21     9   3    6.1891   518.1    7.521      62.265
2015    9       21     9   9    6.1961   518.5    7.528      62.462
2015    9       21     9  15    6.2033   519.0    7.537      62.671
2015    9       21     9  22    6.2107   519.4    7.545      62.899
2015    9       21     9  28    6.2185   519.9    7.553      63.140
2015    9       21     9  34    6.2264   520.5    7.560      63.384
2015    9       21     9  40    6.2344   521.0    7.566      63.629
2015    9       21     9  46    6.2424   521.5    7.571      63.876
2015    9       21     9  53    6.2504   522.1    7.574      64.116
2015    9       21     9  59    6.2581   522.6    7.575      64.343
2015    9       21    10   5    6.2658   523.2    7.574      64.557
2015    9       21    10  11    6.2732   523.7    7.572      64.760
2015    9       21    10  18    6.2805   524.2    7.569      64.954
2015    9       21    10  24    6.2877   524.7    7.564      65.138
2015    9       21    10  30    6.2948   525.2    7.559      65.314
2015    9       21    10  36    6.3019   525.7    7.552      65.483
2015    9       21    10  43    6.3090   526.1    7.546      65.647
2015    9       21    10  49    6.3162   526.6    7.538      65.806
2015    9       21    10  55    6.3234   527.1    7.531      65.961
2015    9       21    11   1    6.3306   527.6    7.523      66.113
2015    9       21    11   8    6.3379   528.0    7.515      66.262
2015    9       21    11  14    6.3453   528.5    7.507      66.410
2015    9       21    11  20    6.3528   528.9    7.498      66.556
2015    9       21    11  26    6.3604   529.4    7.489      66.700
2015    9       21    11  32    6.3680   529.9    7.480      66.844
2015    9       21    11  39    6.3758   530.4    7.471      66.987
2015    9       21    11  45    6.3838   530.9    7.461      67.129
2015    9       21    11  51    6.3918   531.3    7.452      67.271
2015    9       21    11  57    6.4000   531.8    7.442      67.414
2015    9       21    12   4    6.4084   532.3    7.433      67.557
2015    9       21    12  10    6.4169   532.8    7.423      67.700
2015    9       21    12  16    6.4255   533.3    7.413      67.843
2015    9       21    12  22    6.4343   533.8    7.404      67.987
2015    9       21    12  29    6.4432   534.3    7.394      68.133
2015    9       21    12  35    6.4522   534.8    7.385      68.279
2015    9       21    12  41    6.4613   535.3    7.376      68.426
2015    9       21    12  47    6.4705   535.8    7.366      68.575
2015    9       21    12  53    6.4798   536.3    7.357      68.725
2015    9       21    13   0    6.4891   536.8    7.347      68.877
2015    9       21    13   6    6.4985   537.4    7.337      69.027
2015    9       21    13  12    6.5078   537.9    7.328      69.178
2015    9       21    13  18    6.5173   538.4    7.318      69.330
2015    9       21    13  25    6.5267   539.0    7.308      69.486
2015    9       21    13  31    6.5362   539.6    7.297      69.644
2015    9       21    13  37    6.5454   540.2    7.286      69.805
2015    9       21    13  43    6.5549   540.8    7.274      69.969
2015    9       21    13  50    6.5641   541.5    7.262      70.134
2015    9       21    13  56    6.5734   542.1    7.248      70.294
2015    9       21    14   2    6.5823   542.7    7.234      70.450
2015    9       21    14   8    6.5913   543.4    7.218      70.601
2015    9       21    14  14    6.5998   544.0    7.202      70.746
2015    9       21    14  21    6.6082   544.7    7.184      70.885
2015    9       21    14  27    6.6159   545.3    7.165      71.016
2015    9       21    14  33    6.6235   546.0    7.146      71.141
2015    9       21    14  39    6.6305   546.6    7.126      71.259
2015    9       21    14  46    6.6375   547.2    7.105      71.373
2015    9       21    14  52    6.6439   547.8    7.085      71.482
2015    9       21    14  58    6.6503   548.5    7.064      71.588
2015    9       21    15   4    6.6563   549.1    7.043      71.695
2015    9       21    15  11    6.6622   549.7    7.023      71.801
2015    9       21    15  17    6.6677   550.4    7.002      71.907
2015    9       21    15  23    6.6731   551.0    6.981      72.013
2015    9       21    15  29    6.6781   551.6    6.959      72.120
2015    9       21    15  35    6.6830   552.3    6.938      72.230
2015    9       21    15  42    6.6875   552.9    6.916      72.340
2015    9       21    15  48    6.6919   553.6    6.894      72.450
2015    9       21    15  54    6.6959   554.2    6.872      72.559
2015    9       21    16   0    6.6999   554.8    6.850      72.666
2015    9       21    16   7    6.7036   555.4    6.828      72.772
2015    9       21    16  13    6.7073   556.0    6.807      72.873
2015    9       21    16  19    6.7108   556.6    6.786      72.972
2015    9       21    16  25    6.7144   557.1    6.766      73.073
2015    9       21    16  31    6.7178   557.7    6.747      73.176
2015    9       21    16  38    6.7213   558.3    6.728      73.281
2015    9       21    16  44    6.7247   558.8    6.710      73.390
2015    9       21    16  50    6.7282   559.4    6.692      73.503
2015    9       21    16  56    6.7314   560.0    6.675      73.624
2015    9       21    17   3    6.7347   560.7    6.658      73.749
2015    9       21    17   9    6.7378   561.3    6.641      73.880
2015    9       21    17  15    6.7408   562.0    6.625      74.016
2015    9       21    17  21    6.7435   562.6    6.610      74.157
2015    9       21    17  28    6.7460   563.3    6.594      74.301
2015    9       21    17  34    6.7481   564.0    6.578      74.445
2015    9       21    17  40    6.7499   564.7    6.562      74.590
2015    9       21    17  46    6.7511   565.4    6.545      74.733
2015    9       21    17  52    6.7520   566.1    6.528      74.873
2015    9       21    17  59    6.7524   566.8    6.510      75.011
2015    9       21    18   5    6.7526   567.5    6.492      75.147
2015    9       21    18  11    6.7522   568.2    6.473      75.281
2015    9       21    18  17    6.7516   568.9    6.454      75.412
2015    9       21    18  24    6.7505   569.6    6.434      75.539
2015    9       21    18  30    6.7492   570.3    6.413      75.662
2015    9       21    18  36    6.7474   571.0    6.393      75.783
2015    9       21    18  42    6.7454   571.6    6.371      75.899
2015    9       21    18  49    6.7428   572.3    6.350      76.010
2015    9       21    18  55    6.7400   573.0    6.328      76.117
2015    9       21    19   1    6.7366   573.6    6.306      76.220
2015    9       21    19   7    6.7330   574.3    6.283      76.319
2015    9       21    19  13    6.7287   574.9    6.261      76.415
2015    9       21    19  20    6.7243   575.5    6.238      76.507
2015    9       21    19  26    6.7193   576.2    6.215      76.596
2015    9       21    19  32    6.7141   576.8    6.192      76.681
2015    9       21    19  38    6.7083   577.5    6.169      76.762
2015    9       21    19  45    6.7024   578.1    6.146      76.838
2015    9       21    19  51    6.6959   578.7    6.122      76.909
2015    9       21    19  57    6.6894   579.4    6.099      76.975
2015    9       21    20   3    6.6823   580.0    6.076      77.035
2015    9       21    20  10    6.6751   580.7    6.052      77.089
2015    9       21    20  16    6.6674   581.3    6.028      77.138
2015    9       21    20  22    6.6595   581.9    6.004      77.179
2015    9       21    20  28    6.6512   582.6    5.980      77.213
2015    9       21    20  34    6.6428   583.2    5.956      77.242
2015    9       21    20  41    6.6338   583.8    5.932      77.266
2015    9       21    20  47    6.6247   584.5    5.908      77.285
2015    9       21    20  53    6.6151   585.1    5.884      77.302
2015    9       21    20  59    6.6053   585.8    5.860      77.319
2015    9       21    21   6    6.5949   586.4    5.835      77.333
2015    9       21    21  12    6.5844   587.1    5.811      77.347
2015    9       21    21  18    6.5734   587.7    5.787      77.359
2015    9       21    21  24    6.5622   588.4    5.763      77.371
2015    9       21    21  31    6.5507   589.0    5.739      77.384
2015    9       21    21  37    6.5390   589.7    5.715      77.397
2015    9       21    21  43    6.5270   590.4    5.691      77.412
2015    9       21    21  49    6.5149   591.1    5.667      77.428
2015    9       21    21  55    6.5026   591.7    5.642      77.444
2015    9       21    22   2    6.4901   592.4    5.618      77.457
2015    9       21    22   8    6.4774   593.2    5.593      77.469
2015    9       21    22  14    6.4645   593.9    5.568      77.479
2015    9       21    22  20    6.4514   594.6    5.543      77.492
2015    9       21    22  27    6.4382   595.4    5.517      77.499
2015    9       21    22  33    6.4247   596.2    5.491      77.505
2015    9       21    22  39    6.4110   597.0    5.464      77.508
2015    9       21    22  45    6.3971   597.9    5.437      77.512
2015    9       21    22  51    6.3830   598.8    5.410      77.516
2015    9       21    22  58    6.3686   599.7    5.381      77.521
2015    9       21    23   4    6.3540   600.7    5.352      77.529
2015    9       21    23  10    6.3389   601.6    5.322      77.531
2015    9       21    23  16    6.3234   602.6    5.291      77.525
2015    9       21    23  23    6.3073   603.6    5.258      77.503
2015    9       21    23  29    6.2907   604.6    5.224      77.466
2015    9       21    23  35    6.2733   605.7    5.189      77.417
2015    9       21    23  41    6.2553   606.7    5.151      77.344
2015    9       21    23  48    6.2366   607.7    5.112      77.237
2015    9       21    23  54    6.2172   608.6    5.072      77.105
2015    9       22     0   0    6.1974   609.5    5.032      76.952
2015    9       22     0   6    6.1774   610.4    4.992      76.784
2015    9       22     0  12    6.1573   611.2    4.953      76.594
2015    9       22     0  19    6.1374   611.9    4.915      76.395
2015    9       22     0  25    6.1178   612.7    4.879      76.209
2015    9       22     0  31    6.0988   613.4    4.844      76.032
2015    9       22     0  37    6.0802   614.1    4.811      75.862
2015    9       22     0  44    6.0621   614.7    4.778      75.699
2015    9       22     0  50    6.0444   615.4    4.748      75.541
2015    9       22     0  56    6.0273   616.0    4.718      75.392
2015    9       22     1   2    6.0105   616.6    4.691      75.251
2015    9       22     1   8    5.9942   617.2    4.664      75.119
2015    9       22     1  15    5.9783   617.8    4.639      74.997
2015    9       22     1  21    5.9629   618.3    4.615      74.885
2015    9       22     1  27    5.9478   618.9    4.592      74.783
2015    9       22     1  33    5.9331   619.4    4.571      74.693
2015    9       22     1  40    5.9187   620.0    4.550      74.615
2015    9       22     1  46    5.9045   620.5    4.530      74.546
2015    9       22     1  52    5.8905   621.1    4.511      74.487
2015    9       22     1  58    5.8767   621.7    4.492      74.438
2015    9       22     2   5    5.8630   622.3    4.474      74.396
2015    9       22     2  11    5.8493   622.9    4.456      74.358
2015    9       22     2  17    5.8357   623.5    4.438      74.322
2015    9       22     2  23    5.8221   624.1    4.421      74.283
2015    9       22     2  29    5.8086   624.7    4.402      74.239
2015    9       22     2  36    5.7950   625.3    4.384      74.189
2015    9       22     2  42    5.7816   625.8    4.366      74.134
2015    9       22     2  48    5.7681   626.3    4.348      74.075
2015    9       22     2  54    5.7548   626.8    4.330      74.013
2015    9       22     3   1    5.7416   627.3    4.313      73.950
2015    9       22     3   7    5.7287   627.8    4.295      73.885
2015    9       22     3  13    5.7160   628.3    4.278      73.820
2015    9       22     3  19    5.7037   628.7    4.261      73.754
2015    9       22     3  26    5.6918   629.1    4.245      73.687
2015    9       22     3  32    5.6803   629.5    4.229      73.621
2015    9       22     3  38    5.6691   629.9    4.214      73.557
2015    9       22     3  44    5.6584   630.2    4.200      73.496
2015    9       22     3  50    5.6480   630.5    4.187      73.438
2015    9       22     3  57    5.6380   630.9    4.174      73.385
2015    9       22     4   3    5.6283   631.2    4.161      73.338
2015    9       22     4   9    5.6190   631.5    4.150      73.298
2015    9       22     4  15    5.6099   631.8    4.139      73.264
2015    9       22     4  22    5.6011   632.2    4.128      73.235
2015    9       22     4  28    5.5925   632.5    4.118      73.212
2015    9       22     4  34    5.5840   632.8    4.108      73.195
2015    9       22     4  40    5.5756   633.2    4.099      73.185
2015    9       22     4  47    5.5673   633.5    4.090      73.176
2015    9       22     4  53    5.5590   633.9    4.081      73.170
2015    9       22     4  59    5.5508   634.2    4.072      73.163
2015    9       22     5   5    5.5426   634.5    4.063      73.156
2015    9       22     5  11    5.5344   634.9    4.054      73.149
2015    9       22     5  18    5.5262   635.2    4.045      73.142
2015    9       22     5  24    5.5181   635.5    4.036      73.135
2015    9       22     5  30    5.5099   635.9    4.027      73.127
2015    9       22     5  36    5.5018   636.2    4.017      73.115
2015    9       22     5  43    5.4937   636.5    4.008      73.100
2015    9       22     5  49    5.4858   636.8    3.999      73.079
2015    9       22     5  55    5.4780   637.1    3.989      73.053
2015    9       22     6   1    5.4704   637.3    3.980      73.023
2015    9       22     6   7    5.4630   637.6    3.971      72.990
2015    9       22     6  14    5.4559   637.8    3.963      72.955
2015    9       22     6  20    5.4489   638.0    3.955      72.921
2015    9       22     6  26    5.4422   638.2    3.947      72.889
2015    9       22     6  32    5.4356   638.4    3.939      72.862
2015    9       22     6  39    5.4293   638.6    3.932      72.841
2015    9       22     6  45    5.4230   638.8    3.925      72.827
2015    9       22     6  51    5.4168   639.1    3.918      72.821
2015    9       22     6  57    5.4107   639.3    3.911      72.822
2015    9       22     7   4    5.4046   639.7    3.904      72.829
2015    9       22     7  10    5.3986   640.0    3.897      72.838
2015    9       22     7  16    5.3925   640.3    3.891      72.848
2015    9       22     7  22    5.3864   640.7    3.884      72.855
2015    9       22     7  28    5.3802   641.0    3.876      72.856
2015    9       22     7  35    5.3740   641.3    3.869      72.849
2015    9       22     7  41    5.3677   641.6    3.861      72.836
2015    9       22     7  47    5.3614   641.9    3.854      72.820
2015    9       22     7  53    5.3549   642.2    3.846      72.801
2015    9       22     8   0    5.3484   642.4    3.838      72.781
2015    9       22     8   6    5.3420   642.7    3.830      72.760
2015    9       22     8  12    5.3355   643.0    3.822      72.738
2015    9       22     8  18    5.3292   643.3    3.814      72.715
2015    9       22     8  24    5.3229   643.5    3.806      72.690
2015    9       22     8  31    5.3167   643.8    3.798      72.664
2015    9       22     8  37    5.3106   644.0    3.791      72.638
2015    9       22     8  43    5.3045   644.2    3.783      72.611
2015    9       22     8  49    5.2986   644.5    3.776      72.586
2015    9       22     8  56    5.2927   644.7    3.768      72.561
2015    9       22     9   2    5.2868   644.9    3.761      72.538
2015    9       22     9   8    5.2810   645.2    3.754      72.516
2015    9       22     9  14    5.2753   645.4    3.747      72.496
2015    9       22     9  21    5.2696   645.7    3.740      72.476
2015    9       22     9  27    5.2639   645.9    3.733      72.458
2015    9       22     9  33    5.2583   646.1    3.727      72.440
2015    9       22     9  39    5.2527   646.4    3.720      72.422
2015    9       22     9  45    5.2471   646.6    3.714      72.405
2015    9       22     9  52    5.2415   646.8    3.707      72.387
2015    9       22     9  58    5.2359   647.0    3.701      72.369
2015    9       22    10   4    5.2303   647.2    3.695      72.351
2015    9       22    10  10    5.2247   647.4    3.689      72.332
2015    9       22    10  17    5.2192   647.7    3.683      72.314
2015    9       22    10  23    5.2136   647.9    3.677      72.295
2015    9       22    10  29    5.2081   648.1    3.671      72.276
2015    9       22    10  35    5.2026   648.3    3.666      72.257
2015    9       22    10  42    5.1971   648.5    3.660      72.238
2015    9       22    10  48    5.1916   648.7    3.654      72.219
2015    9       22    10  54    5.1861   648.9    3.649      72.200
2015    9       22    11   0    5.1807   649.1    3.643      72.181
2015    9       22    11   6    5.1752   649.3    3.638      72.162
2015    9       22    11  13    5.1698   649.5    3.632      72.144
2015    9       22    11  19    5.1644   649.7    3.626      72.126
2015    9       22    11  25    5.1590   649.9    3.621      72.108
2015    9       22    11  31    5.1536   650.1    3.615      72.091
2015    9       22    11  38    5.1483   650.3    3.610      72.073
2015    9       22    11  44    5.1429   650.5    3.604      72.056
2015    9       22    11  50    5.1376   650.7    3.599      72.039
2015    9       22    11  56    5.1322   650.9    3.594      72.022
2015    9       22    12   3    5.1269   651.1    3.588      72.005
2015    9       22    12   9    5.1215   651.3    3.583      71.987
2015    9       22    12  15    5.1162   651.5    3.577      71.969
2015    9       22    12  21    5.1108   651.6    3.572      71.951
2015    9       22    12  27    5.1055   651.8    3.567      71.933
2015    9       22    12  34    5.1001   652.0    3.562      71.914
2015    9       22    12  40    5.0948   652.2    3.556      71.895
2015    9       22    12  46    5.0894   652.4    3.551      71.876
2015    9       22    12  52    5.0841   652.6    3.546      71.857
2015    9       22    12  59    5.0788   652.8    3.541      71.838
2015    9       22    13   5    5.0735   652.9    3.536      71.818
2015    9       22    13  11    5.0682   653.1    3.531      71.798
2015    9       22    13  17    5.0629   653.3    3.526      71.778
2015    9       22    13  23    5.0576   653.4    3.521      71.758
2015    9       22    13  30    5.0524   653.6    3.516      71.737
2015    9       22    13  36    5.0472   653.8    3.511      71.716
2015    9       22    13  42    5.0420   653.9    3.507      71.695
2015    9       22    13  48    5.0368   654.1    3.502      71.673
2015    9       22    13  55    5.0316   654.3    3.497      71.651
2015    9       22    14   1    5.0265   654.4    3.492      71.629
2015    9       22    14   7    5.0214   654.6    3.488      71.606
2015    9       22    14  13    5.0163   654.7    3.483      71.583
2015    9       22    14  19    5.0112   654.9    3.479      71.559
2015    9       22    14  26    5.0061   655.0    3.474      71.535
2015    9       22    14  32    5.0010   655.2    3.469      71.511
2015    9       22    14  38    4.9960   655.3    3.465      71.486
2015    9       22    14  44    4.9909   655.5    3.460      71.460
2015    9       22    14  51    4.9859   655.6    3.455      71.434
2015    9       22    14  57    4.9809   655.8    3.451      71.408
2015    9       22    15   3    4.9759   655.9    3.446      71.381
2015    9       22    15   9    4.9710   656.0    3.442      71.354
2015    9       22    15  15    4.9660   656.2    3.437      71.326
2015    9       22    15  22    4.9611   656.3    3.432      71.298
2015    9       22    15  28    4.9562   656.4    3.428      71.270
2015    9       22    15  34    4.9514   656.6    3.423      71.242
2015    9       22    15  40    4.9465   656.7    3.419      71.213
2015    9       22    15  47    4.9417   656.8    3.414      71.184
2015    9       22    15  53    4.9369   657.0    3.409      71.156
2015    9       22    15  59    4.9321   657.1    3.405      71.127
2015    9       22    16   5    4.9273   657.2    3.400      71.098
2015    9       22    16  11    4.9226   657.3    3.396      71.069
2015    9       22    16  18    4.9179   657.4    3.391      71.041
2015    9       22    16  24    4.9132   657.6    3.387      71.013
2015    9       22    16  30    4.9085   657.7    3.383      70.984
2015    9       22    16  36    4.9039   657.8    3.378      70.956
2015    9       22    16  43    4.8993   657.9    3.374      70.929
2015    9       22    16  49    4.8946   658.0    3.370      70.901
2015    9       22    16  55    4.8900   658.1    3.366      70.874
2015    9       22    17   1    4.8855   658.2    3.362      70.847
2015    9       22    17   8    4.8809   658.4    3.358      70.820
2015    9       22    17  14    4.8764   658.5    3.354      70.794
2015    9       22    17  20    4.8719   658.6    3.350      70.768
2015    9       22    17  26    4.8674   658.7    3.346      70.742
2015    9       22    17  32    4.8629   658.8    3.342      70.716
2015    9       22    17  39    4.8585   658.9    3.338      70.691
2015    9       22    17  45    4.8540   659.0    3.334      70.666
2015    9       22    17  51    4.8496   659.1    3.331      70.641
2015    9       22    17  57    4.8452   659.2    3.327      70.616
2015    9       22    18   4    4.8408   659.3    3.323      70.591
2015    9       22    18  10    4.8364   659.4    3.320      70.567
2015    9       22    18  16    4.8321   659.5    3.316      70.543
2015    9       22    18  22    4.8277   659.6    3.312      70.519
2015    9       22    18  29    4.8234   659.7    3.309      70.495
2015    9       22    18  35    4.8191   659.8    3.305      70.471
2015    9       22    18  41    4.8148   659.9    3.302      70.447
2015    9       22    18  47    4.8106   660.0    3.299      70.424
2015    9       22    18  53    4.8063   660.0    3.295      70.400
2015    9       22    19   0    4.8021   660.1    3.292      70.376
2015    9       22    19   6    4.7978   660.2    3.289      70.353
2015    9       22    19  12    4.7936   660.3    3.285      70.329
2015    9       22    19  18    4.7894   660.4    3.282      70.305
2015    9       22    19  25    4.7852   660.5    3.279      70.282
2015    9       22    19  31    4.7810   660.6    3.276      70.257
2015    9       22    19  37    4.7768   660.6    3.273      70.234
2015    9       22    19  43    4.7726   660.7    3.270      70.209
2015    9       22    19  50    4.7684   660.8    3.266      70.185
2015    9       22    19  56    4.7642   660.9    3.263      70.160
2015    9       22    20   2    4.7600   661.0    3.260      70.135
2015    9       22    20   8    4.7559   661.0    3.257      70.110
2015    9       22    20  14    4.7518   661.1    3.254      70.085
2015    9       22    20  21    4.7476   661.2    3.251      70.059
2015    9       22    20  27    4.7435   661.3    3.248      70.034
2015    9       22    20  33    4.7394   661.3    3.245      70.008
2015    9       22    20  39    4.7353   661.4    3.242      69.982
2015    9       22    20  46    4.7312   661.5    3.240      69.955
2015    9       22    20  52    4.7272   661.5    3.237      69.929
2015    9       22    20  58    4.7231   661.6    3.234      69.902
2015    9       22    21   4    4.7191   661.7    3.231      69.875
2015    9       22    21  10    4.7151   661.7    3.228      69.848
2015    9       22    21  17    4.7111   661.8    3.225      69.821
2015    9       22    21  23    4.7072   661.9    3.222      69.793
2015    9       22    21  29    4.7032   661.9    3.219      69.766
2015    9       22    21  35    4.6993   662.0    3.217      69.738
2015    9       22    21  42    4.6954   662.0    3.214      69.710
2015    9       22    21  48    4.6915   662.1    3.211      69.683
2015    9       22    21  54    4.6876   662.1    3.208      69.655
2015    9       22    22   0    4.6837   662.2    3.205      69.627
2015    9       22    22   6    4.6799   662.2    3.203      69.599
2015    9       22    22  13    4.6761   662.3    3.200      69.571
2015    9       22    22  19    4.6723   662.3    3.197      69.543
2015    9       22    22  25    4.6685   662.4    3.195      69.514
2015    9       22    22  31    4.6648   662.4    3.192      69.486
2015    9       22    22  38    4.6611   662.5    3.189      69.458
2015    9       22    22  44    4.6574   662.5    3.186      69.430
2015    9       22    22  50    4.6537   662.6    3.184      69.402
2015    9       22    22  56    4.6500   662.6    3.181      69.373
2015    9       22    23   2    4.6464   662.6    3.179      69.345
2015    9       22    23   9    4.6428   662.7    3.176      69.317
2015    9       22    23  15    4.6391   662.7    3.173      69.289
2015    9       22    23  21    4.6356   662.8    3.171      69.260
2015    9       22    23  27    4.6320   662.8    3.168      69.232
2015    9       22    23  34    4.6284   662.8    3.166      69.204
2015    9       22    23  40    4.6249   662.9    3.163      69.176
2015    9       22    23  46    4.6214   662.9    3.160      69.148
2015    9       22    23  52    4.6179   662.9    3.158      69.120
2015    9       22    23  58    4.6144   663.0    3.155      69.092
2015    9       23     0   5    4.6109   663.0    3.153      69.064
2015    9       23     0  11    4.6075   663.0    3.150      69.037
2015    9       23     0  17    4.6041   663.1    3.148      69.009
2015    9       23     0  23    4.6006   663.1    3.145      68.982
2015    9       23     0  30    4.5972   663.1    3.143      68.955
2015    9       23     0  36    4.5939   663.1    3.141      68.928
2015    9       23     0  42    4.5905   663.2    3.138      68.901
2015    9       23     0  48    4.5872   663.2    3.136      68.875
2015    9       23     0  55    4.5838   663.2    3.133      68.848
2015    9       23     1   1    4.5805   663.3    3.131      68.822
2015    9       23     1   7    4.5772   663.3    3.129      68.796
2015    9       23     1  13    4.5739   663.3    3.127      68.771
2015    9       23     1  20    4.5707   663.3    3.124      68.746
2015    9       23     1  26    4.5674   663.3    3.122      68.721
2015    9       23     1  32    4.5642   663.4    3.120      68.696
2015    9       23     1  38    4.5610   663.4    3.118      68.671
2015    9       23     1  44    4.5578   663.4    3.116      68.647
2015    9       23     1  51    4.5546   663.4    3.114      68.623
2015    9       23     1  57    4.5514   663.5    3.112      68.599
2015    9       23     2   3    4.5483   663.5    3.110      68.575
2015    9       23     2   9    4.5451   663.5    3.108      68.552
2015    9       23     2  16    4.5420   663.5    3.106      68.528
2015    9       23     2  22    4.5389   663.5    3.104      68.505
2015    9       23     2  28    4.5358   663.6    3.102      68.482
2015    9       23     2  34    4.5327   663.6    3.100      68.459
2015    9       23     2  40    4.5296   663.6    3.098      68.436
2015    9       23     2  47    4.5265   663.6    3.097      68.413
2015    9       23     2  53    4.5235   663.6    3.095      68.390
2015    9       23     2  59    4.5204   663.6    3.093      68.367
2015    9       23     3   5    4.5174   663.7    3.091      68.344
2015    9       23     3  12    4.5143   663.7    3.090      68.321
2015    9       23     3  18    4.5113   663.7    3.088      68.298
2015    9       23     3  24    4.5083   663.7    3.086      68.275
2015    9       23     3  30    4.5053   663.7    3.085      68.251
2015    9       23     3  37    4.5024   663.7    3.083      68.228
2015    9       23     3  43    4.4994   663.7    3.081      68.204
2015    9       23     3  49    4.4964   663.7    3.080      68.180
2015    9       23     3  55    4.4935   663.7    3.078      68.156
2015    9       23     4   1    4.4905   663.7    3.077      68.132
2015    9       23     4   8    4.4876   663.8    3.075      68.108
2015    9       23     4  14    4.4847   663.8    3.073      68.083
2015    9       23     4  20    4.4818   663.8    3.072      68.059
2015    9       23     4  26    4.4790   663.8    3.070      68.034
2015    9       23     4  32    4.4761   663.8    3.069      68.010
2015    9       23     4  39    4.4733   663.8    3.067      67.984
2015    9       23     4  45    4.4704   663.8    3.066      67.960
2015    9       23     4  51    4.4676   663.8    3.064      67.934
2015    9       23     4  57    4.4648   663.8    3.063      67.909
2015    9       23     5   4    4.4620   663.8    3.061      67.884
2015    9       23     5  10    4.4592   663.8    3.059      67.859
2015    9       23     5  16    4.4565   663.8    3.058      67.834
2015    9       23     5  22    4.4538   663.8    3.056      67.809
2015    9       23     5  28    4.4510   663.8    3.055      67.784
2015    9       23     5  35    4.4483   663.8    3.053      67.759
2015    9       23     5  41    4.4456   663.8    3.052      67.734
2015    9       23     5  47    4.4430   663.8    3.050      67.709
2015    9       23     5  53    4.4403   663.8    3.049      67.684
2015    9       23     6   0    4.4377   663.7    3.047      67.660
2015    9       23     6   6    4.4351   663.7    3.046      67.635
2015    9       23     6  12    4.4325   663.7    3.045      67.611
2015    9       23     6  18    4.4299   663.7    3.043      67.586
2015    9       23     6  24    4.4273   663.7    3.042      67.562
2015    9       23     6  31    4.4248   663.7    3.040      67.537
2015    9       23     6  37    4.4223   663.7    3.039      67.513
2015    9       23     6  43    4.4198   663.7    3.037      67.489
2015    9       23     6  49    4.4173   663.7    3.036      67.465
2015    9       23     6  56    4.4148   663.7    3.035      67.441
2015    9       23     7   2    4.4123   663.7    3.033      67.417
2015    9       23     7   8    4.4099   663.6    3.032      67.393
2015    9       23     7  14    4.4074   663.6    3.030      67.369
2015    9       23     7  21    4.4050   663.6    3.029      67.345
2015    9       23     7  27    4.4026   663.6    3.028      67.321
2015    9       23     7  33    4.4002   663.6    3.026      67.297
2015    9       23     7  39    4.3978   663.6    3.025      67.274
2015    9       23     7  45    4.3954   663.6    3.024      67.250
2015    9       23     7  52    4.3930   663.6    3.022      67.226
2015    9       23     7  58    4.3906   663.5    3.021      67.202
2015    9       23     8   4    4.3883   663.5    3.019      67.178
2015    9       23     8  10    4.3860   663.5    3.018      67.154
2015    9       23     8  17    4.3836   663.5    3.017      67.131
2015    9       23     8  23    4.3813   663.5    3.015      67.107
2015    9       23     8  29    4.3790   663.4    3.014      67.084
2015    9       23     8  35    4.3767   663.4    3.013      67.060
2015    9       23     8  41    4.3744   663.4    3.012      67.037
2015    9       23     8  48    4.3721   663.4    3.010      67.013
2015    9       23     8  54    4.3698   663.4    3.009      66.991
2015    9       23     9   0    4.3676   663.3    3.008      66.968
2015    9       23     9   6    4.3653   663.3    3.007      66.945
2015    9       23     9  13    4.3631   663.3    3.005      66.923
2015    9       23     9  19    4.3608   663.3    3.004      66.901
2015    9       23     9  25    4.3586   663.3    3.003      66.879
2015    9       23     9  31    4.3564   663.2    3.002      66.857
2015    9       23     9  38    4.3542   663.2    3.001      66.836
2015    9       23     9  44    4.3520   663.2    3.000      66.815
2015    9       23     9  50    4.3499   663.2    2.999      66.794
2015    9       23     9  56    4.3477   663.2    2.998      66.774
2015    9       23    10   2    4.3455   663.1    2.997      66.753
2015    9       23    10   9    4.3434   663.1    2.996      66.734
2015    9       23    10  15    4.3413   663.1    2.995      66.714
2015    9       23    10  21    4.3391   663.1    2.994      66.694
2015    9       23    10  27    4.3370   663.0    2.993      66.675
2015    9       23    10  34    4.3349   663.0    2.992      66.656
2015    9       23    10  40    4.3328   663.0    2.991      66.637
2015    9       23    10  46    4.3308   663.0    2.990      66.618
2015    9       23    10  52    4.3287   662.9    2.990      66.600
2015    9       23    10  59    4.3266   662.9    2.989      66.582
2015    9       23    11   5    4.3246   662.9    2.988      66.563
2015    9       23    11  11    4.3225   662.9    2.987      66.545
2015    9       23    11  17    4.3205   662.8    2.987      66.527
2015    9       23    11  23    4.3185   662.8    2.986      66.508
2015    9       23    11  30    4.3165   662.8    2.985      66.490
2015    9       23    11  36    4.3145   662.8    2.985      66.472
2015    9       23    11  42    4.3125   662.7    2.984      66.454
2015    9       23    11  48    4.3105   662.7    2.983      66.435
2015    9       23    11  54    4.3086   662.7    2.983      66.417
2015    9       23    12   1    4.3066   662.6    2.982      66.398
2015    9       23    12   7    4.3047   662.6    2.982      66.379
2015    9       23    12  13    4.3027   662.6    2.981      66.360
2015    9       23    12  19    4.3008   662.6    2.980      66.341
2015    9       23    12  26    4.2989   662.5    2.980      66.322
2015    9       23    12  32    4.2970   662.5    2.979      66.302
2015    9       23    12  38    4.2950   662.5    2.978      66.282
2015    9       23    12  44    4.2931   662.4    2.978      66.262
2015    9       23    12  50    4.2913   662.4    2.977      66.241
2015    9       23    12  57    4.2894   662.4    2.976      66.220
2015    9       23    13   3    4.2875   662.3    2.975      66.199
2015    9       23    13   9    4.2857   662.3    2.975      66.178
2015    9       23    13  15    4.2838   662.3    2.974      66.156
2015    9       23    13  22    4.2820   662.2    2.973      66.135
2015    9       23    13  28    4.2801   662.2    2.972      66.113
2015    9       23    13  34    4.2783   662.2    2.971      66.091
2015    9       23    13  40    4.2765   662.1    2.971      66.069
2015    9       23    13  46    4.2747   662.1    2.970      66.047
2015    9       23    13  53    4.2729   662.0    2.969      66.025
2015    9       23    13  59    4.2711   662.0    2.968      66.003
2015    9       23    14   5    4.2694   662.0    2.967      65.981
2015    9       23    14  11    4.2676   661.9    2.967      65.959
2015    9       23    14  18    4.2659   661.9    2.966      65.938
2015    9       23    14  24    4.2642   661.9    2.965      65.916
2015    9       23    14  30    4.2625   661.8    2.964      65.895
2015    9       23    14  36    4.2608   661.8    2.963      65.874
2015    9       23    14  43    4.2591   661.8    2.963      65.853
2015    9       23    14  49    4.2574   661.7    2.962      65.832
2015    9       23    14  55    4.2557   661.7    2.961      65.812
2015    9       23    15   1    4.2541   661.6    2.961      65.791
2015    9       23    15   7    4.2524   661.6    2.960      65.771
2015    9       23    15  14    4.2508   661.6    2.959      65.751
2015    9       23    15  20    4.2492   661.5    2.959      65.732
2015    9       23    15  26    4.2476   661.5    2.958      65.712
2015    9       23    15  32    4.2459   661.4    2.957      65.693
2015    9       23    15  39    4.2443   661.4    2.957      65.673
2015    9       23    15  45    4.2427   661.4    2.956      65.654
2015    9       23    15  51    4.2411   661.3    2.956      65.635
2015    9       23    15  57    4.2395   661.3    2.955      65.615
2015    9       23    16   4    4.2379   661.2    2.954      65.596
2015    9       23    16  10    4.2363   661.2    2.954      65.577
2015    9       23    16  16    4.2347   661.2    2.953      65.558
2015    9       23    16  22    4.2331   661.1    2.953      65.539
2015    9       23    16  28    4.2315   661.1    2.952      65.520
2015    9       23    16  35    4.2299   661.0    2.952      65.501
2015    9       23    16  41    4.2283   661.0    2.951      65.481
2015    9       23    16  47    4.2267   660.9    2.951      65.463
2015    9       23    16  53    4.2252   660.9    2.950      65.443
2015    9       23    17   0    4.2236   660.9    2.949      65.424
2015    9       23    17   6    4.2220   660.8    2.949      65.406
2015    9       23    17  12    4.2205   660.8    2.948      65.387
2015    9       23    17  18    4.2189   660.7    2.948      65.368
2015    9       23    17  24    4.2174   660.7    2.947      65.349
2015    9       23    17  31    4.2159   660.6    2.947      65.331
2015    9       23    17  37    4.2144   660.6    2.946      65.312
2015    9       23    17  43    4.2129   660.5    2.946      65.294
2015    9       23    17  49    4.2114   660.5    2.945      65.276
2015    9       23    17  56    4.2099   660.4    2.945      65.258
2015    9       23    18   2    4.2084   660.4    2.944      65.240
2015    9       23    18   8    4.2069   660.3    2.944      65.223
2015    9       23    18  14    4.2055   660.3    2.943      65.205
2015    9       23    18  21    4.2040   660.2    2.943      65.188
2015    9       23    18  27    4.2026   660.2    2.942      65.171
2015    9       23    18  33    4.2012   660.1    2.942      65.155
2015    9       23    18  39    4.1997   660.1    2.942      65.138
2015    9       23    18  45    4.1983   660.0    2.941      65.122
2015    9       23    18  52    4.1969   660.0    2.941      65.106
2015    9       23    18  58    4.1956   659.9    2.941      65.091
2015    9       23    19   4    4.1942   659.9    2.940      65.075
2015    9       23    19  10    4.1928   659.8    2.940      65.060
2015    9       23    19  16    4.1914   659.8    2.940      65.044
2015    9       23    19  23    4.1901   659.7    2.940      65.029
2015    9       23    19  29    4.1887   659.7    2.940      65.013
2015    9       23    19  35    4.1874   659.6    2.939      64.998
2015    9       23    19  41    4.1860   659.6    2.939      64.983
2015    9       23    19  48    4.1847   659.5    2.939      64.967
2015    9       23    19  54    4.1833   659.5    2.939      64.951
2015    9       23    20   0    4.1820   659.4    2.939      64.934
2015    9       23    20   6    4.1807   659.4    2.939      64.918
2015    9       23    20  12    4.1793   659.3    2.938      64.901
2015    9       23    20  19    4.1780   659.3    2.938      64.884
2015    9       23    20  25    4.1767   659.2    2.938      64.867
2015    9       23    20  31    4.1753   659.2    2.938      64.849
2015    9       23    20  37    4.1740   659.1    2.938      64.831
2015    9       23    20  44    4.1727   659.1    2.937      64.813
2015    9       23    20  50    4.1714   659.0    2.937      64.795
2015    9       23    20  56    4.1701   659.0    2.937      64.777
2015    9       23    21   2    4.1688   658.9    2.937      64.758
2015    9       23    21   8    4.1675   658.9    2.936      64.740
2015    9       23    21  15    4.1663   658.8    2.936      64.721
2015    9       23    21  21    4.1650   658.8    2.936      64.703
2015    9       23    21  27    4.1638   658.7    2.936      64.684
2015    9       23    21  33    4.1625   658.6    2.935      64.666
2015    9       23    21  40    4.1613   658.6    2.935      64.648
2015    9       23    21  46    4.1601   658.5    2.935      64.630
2015    9       23    21  52    4.1589   658.5    2.935      64.612
2015    9       23    21  58    4.1577   658.4    2.934      64.594
2015    9       23    22   5    4.1565   658.4    2.934      64.576
2015    9       23    22  11    4.1553   658.3    2.934      64.559
2015    9       23    22  17    4.1541   658.3    2.933      64.542
2015    9       23    22  23    4.1529   658.2    2.933      64.524
2015    9       23    22  29    4.1518   658.2    2.933      64.507
2015    9       23    22  36    4.1506   658.1    2.932      64.490
2015    9       23    22  42    4.1494   658.0    2.932      64.473
2015    9       23    22  48    4.1483   658.0    2.932      64.456
2015    9       23    22  54    4.1471   657.9    2.932      64.439
2015    9       23    23   1    4.1460   657.9    2.931      64.421
2015    9       23    23   7    4.1448   657.8    2.931      64.404
2015    9       23    23  13    4.1437   657.8    2.931      64.387
2015    9       23    23  19    4.1425   657.7    2.930      64.369
2015    9       23    23  26    4.1414   657.7    2.930      64.352
2015    9       23    23  32    4.1402   657.6    2.930      64.335
2015    9       23    23  38    4.1391   657.5    2.929      64.317
2015    9       23    23  44    4.1379   657.5    2.929      64.299
2015    9       23    23  50    4.1368   657.4    2.929      64.282
2015    9       23    23  57    4.1357   657.4    2.928      64.264
2015    9       24     0   3    4.1345   657.3    2.928      64.247
2015    9       24     0   9    4.1334   657.3    2.928      64.230
2015    9       24     0  15    4.1323   657.2    2.928      64.212
2015    9       24     0  22    4.1312   657.1    2.928      64.195
2015    9       24     0  28    4.1301   657.1    2.927      64.178
2015    9       24     0  34    4.1290   657.0    2.927      64.162
2015    9       24     0  40    4.1279   657.0    2.927      64.145
2015    9       24     0  46    4.1268   656.9    2.927      64.128
2015    9       24     0  53    4.1258   656.9    2.927      64.112
2015    9       24     0  59    4.1247   656.8    2.927      64.096
2015    9       24     1   5    4.1236   656.7    2.927      64.080
2015    9       24     1  11    4.1226   656.7    2.927      64.064
2015    9       24     1  18    4.1215   656.6    2.927      64.048
2015    9       24     1  24    4.1204   656.6    2.927      64.032
2015    9       24     1  30    4.1194   656.5    2.927      64.016
2015    9       24     1  36    4.1183   656.4    2.927      64.001
2015    9       24     1  43    4.1172   656.4    2.926      63.985
2015    9       24     1  49    4.1162   656.3    2.926      63.969
2015    9       24     1  55    4.1151   656.3    2.926      63.954
2015    9       24     2   1    4.1141   656.2    2.926      63.939
2015    9       24     2   7    4.1130   656.1    2.926      63.923
2015    9       24     2  14    4.1120   656.1    2.926      63.908
2015    9       24     2  20    4.1109   656.0    2.926      63.893
2015    9       24     2  26    4.1099   656.0    2.925      63.878
2015    9       24     2  32    4.1088   655.9    2.925      63.862
2015    9       24     2  39    4.1078   655.8    2.925      63.847
2015    9       24     2  45    4.1068   655.8    2.925      63.832
2015    9       24     2  51    4.1058   655.7    2.925      63.816
2015    9       24     2  57    4.1048   655.6    2.925      63.801
2015    9       24     3   3    4.1037   655.6    2.924      63.785
2015    9       24     3  10    4.1027   655.5    2.924      63.770
2015    9       24     3  16    4.1017   655.5    2.924      63.754
2015    9       24     3  22    4.1007   655.4    2.924      63.738
2015    9       24     3  28    4.0998   655.3    2.924      63.721
2015    9       24     3  34    4.0988   655.3    2.924      63.705
2015    9       24     3  41    4.0978   655.2    2.924      63.688
2015    9       24     3  47    4.0968   655.1    2.923      63.672
2015    9       24     3  53    4.0958   655.1    2.923      63.655
2015    9       24     3  59    4.0948   655.0    2.923      63.638
2015    9       24     4   6    4.0939   654.9    2.923      63.621
2015    9       24     4  12    4.0929   654.9    2.923      63.604
2015    9       24     4  18    4.0919   654.8    2.923      63.587
2015    9       24     4  24    4.0910   654.8    2.923      63.569
2015    9       24     4  31    4.0900   654.7    2.923      63.552
2015    9       24     4  37    4.0891   654.6    2.923      63.535
2015    9       24     4  43    4.0881   654.6    2.923      63.519
2015    9       24     4  49    4.0872   654.5    2.923      63.502
2015    9       24     4  55    4.0863   654.4    2.923      63.486
2015    9       24     5   2    4.0854   654.4    2.924      63.470
2015    9       24     5   8    4.0845   654.3    2.924      63.454
2015    9       24     5  14    4.0836   654.2    2.924      63.438
2015    9       24     5  20    4.0827   654.2    2.924      63.423
2015    9       24     5  27    4.0818   654.1    2.924      63.409
2015    9       24     5  33    4.0809   654.0    2.925      63.394
2015    9       24     5  39    4.0800   654.0    2.925      63.380
2015    9       24     5  45    4.0792   653.9    2.925      63.366
2015    9       24     5  51    4.0783   653.8    2.925      63.352
2015    9       24     5  58    4.0774   653.8    2.925      63.339
2015    9       24     6   4    4.0766   653.7    2.925      63.325
2015    9       24     6  10    4.0757   653.6    2.926      63.312
2015    9       24     6  16    4.0748   653.6    2.926      63.300
2015    9       24     6  23    4.0740   653.5    2.926      63.287
2015    9       24     6  29    4.0731   653.5    2.926      63.275
2015    9       24     6  35    4.0722   653.4    2.926      63.263
2015    9       24     6  41    4.0714   653.3    2.926      63.251
2015    9       24     6  48    4.0705   653.3    2.926      63.238
2015    9       24     6  54    4.0696   653.2    2.926      63.225
2015    9       24     7   0    4.0687   653.1    2.926      63.212
2015    9       24     7   6    4.0679   653.1    2.925      63.199
2015    9       24     7  12    4.0670   653.0    2.925      63.184
2015    9       24     7  19    4.0661   652.9    2.925      63.170
2015    9       24     7  25    4.0653   652.9    2.925      63.154
2015    9       24     7  31    4.0644   652.8    2.925      63.139
2015    9       24     7  37    4.0635   652.7    2.925      63.123
2015    9       24     7  44    4.0627   652.7    2.925      63.107
2015    9       24     7  50    4.0618   652.6    2.924      63.090
2015    9       24     7  56    4.0609   652.5    2.924      63.073
2015    9       24     8   2    4.0601   652.5    2.924      63.055
2015    9       24     8   8    4.0592   652.4    2.924      63.038
2015    9       24     8  15    4.0583   652.4    2.924      63.020
2015    9       24     8  21    4.0575   652.3    2.923      63.001
2015    9       24     8  27    4.0566   652.2    2.923      62.983
2015    9       24     8  33    4.0557   652.2    2.923      62.964
2015    9       24     8  40    4.0549   652.1    2.923      62.945
2015    9       24     8  46    4.0540   652.0    2.923      62.926
2015    9       24     8  52    4.0531   652.0    2.923      62.906
2015    9       24     8  58    4.0523   651.9    2.923      62.887
2015    9       24     9   5    4.0514   651.8    2.922      62.868
2015    9       24     9  11    4.0506   651.8    2.922      62.849
2015    9       24     9  17    4.0497   651.7    2.922      62.830
2015    9       24     9  23    4.0488   651.6    2.922      62.812
2015    9       24     9  29    4.0480   651.5    2.922      62.793
2015    9       24     9  36    4.0471   651.5    2.922      62.775
2015    9       24     9  42    4.0463   651.4    2.922      62.757
2015    9       24     9  48    4.0454   651.3    2.922      62.740
2015    9       24     9  54    4.0446   651.3    2.922      62.723
2015    9       24    10   1    4.0438   651.2    2.922      62.706
2015    9       24    10   7    4.0429   651.1    2.922      62.689
2015    9       24    10  13    4.0421   651.1    2.922      62.673
2015    9       24    10  19    4.0413   651.0    2.922      62.656
2015    9       24    10  25    4.0404   650.9    2.922      62.640
2015    9       24    10  32    4.0396   650.9    2.922      62.624
2015    9       24    10  38    4.0388   650.8    2.922      62.608
2015    9       24    10  44    4.0379   650.7    2.922      62.591
2015    9       24    10  50    4.0370   650.6    2.921      62.575
2015    9       24    10  56    4.0362   650.6    2.921      62.558
2015    9       24    11   3    4.0353   650.5    2.921      62.542
2015    9       24    11   9    4.0345   650.4    2.921      62.525
2015    9       24    11  15    4.0336   650.4    2.921      62.508
2015    9       24    11  21    4.0328   650.3    2.921      62.492
2015    9       24    11  28    4.0319   650.2    2.921      62.475
2015    9       24    11  34    4.0311   650.1    2.921      62.458
2015    9       24    11  40    4.0302   650.1    2.921      62.441
2015    9       24    11  46    4.0294   650.0    2.921      62.423
2015    9       24    11  53    4.0285   649.9    2.921      62.407
2015    9       24    11  59    4.0277   649.8    2.921      62.390
2015    9       24    12   5    4.0269   649.8    2.921      62.373
2015    9       24    12  11    4.0261   649.7    2.921      62.357
2015    9       24    12  17    4.0253   649.6    2.921      62.342
2015    9       24    12  24    4.0245   649.5    2.921      62.326
2015    9       24    12  30    4.0237   649.5    2.921      62.311
2015    9       24    12  36    4.0230   649.4    2.921      62.297
2015    9       24    12  42    4.0222   649.3    2.922      62.283
2015    9       24    12  49    4.0215   649.2    2.922      62.270
2015    9       24    12  55    4.0207   649.2    2.923      62.257
2015    9       24    13   1    4.0200   649.1    2.923      62.245
2015    9       24    13   7    4.0193   649.0    2.923      62.234
2015    9       24    13  13    4.0186   649.0    2.924      62.223
2015    9       24    13  20    4.0179   648.9    2.924      62.214
2015    9       24    13  26    4.0172   648.8    2.925      62.204
2015    9       24    13  32    4.0165   648.8    2.925      62.195
2015    9       24    13  38    4.0158   648.7    2.926      62.187
2015    9       24    13  45    4.0151   648.6    2.926      62.179
2015    9       24    13  51    4.0144   648.5    2.927      62.170
2015    9       24    13  57    4.0136   648.5    2.927      62.161
2015    9       24    14   3    4.0129   648.4    2.928      62.152
2015    9       24    14  10    4.0122   648.3    2.928      62.142
2015    9       24    14  16    4.0115   648.3    2.928      62.132
2015    9       24    14  22    4.0107   648.2    2.929      62.122
2015    9       24    14  28    4.0100   648.1    2.929      62.111
2015    9       24    14  34    4.0093   648.1    2.929      62.099
2015    9       24    14  41    4.0085   648.0    2.930      62.088
2015    9       24    14  47    4.0078   647.9    2.930      62.076
2015    9       24    14  53    4.0070   647.9    2.930      62.063
2015    9       24    14  59    4.0062   647.8    2.930      62.050
2015    9       24    15   6    4.0055   647.7    2.930      62.037
2015    9       24    15  12    4.0047   647.6    2.931      62.023
2015    9       24    15  18    4.0039   647.6    2.931      62.009
2015    9       24    15  24    4.0031   647.5    2.931      61.994
2015    9       24    15  31    4.0023   647.4    2.931      61.979
2015    9       24    15  37    4.0015   647.4    2.931      61.964
2015    9       24    15  43    4.0008   647.3    2.931      61.948
2015    9       24    15  49    4.0000   647.2    2.931      61.932
2015    9       24    15  55    3.9992   647.1    2.931      61.916
2015    9       24    16   2    3.9983   647.1    2.931      61.899
2015    9       24    16   8    3.9975   647.0    2.930      61.882
2015    9       24    16  14    3.9967   646.9    2.930      61.865
2015    9       24    16  20    3.9959   646.9    2.930      61.848
2015    9       24    16  27    3.9951   646.8    2.930      61.831
2015    9       24    16  33    3.9943   646.7    2.930      61.814
2015    9       24    16  39    3.9934   646.7    2.930      61.796
2015    9       24    16  45    3.9926   646.6    2.930      61.778
2015    9       24    16  51    3.9918   646.5    2.930      61.761
2015    9       24    16  58    3.9910   646.4    2.930      61.742
2015    9       24    17   4    3.9901   646.4    2.930      61.724
2015    9       24    17  10    3.9893   646.3    2.930      61.706
2015    9       24    17  16    3.9884   646.2    2.929      61.688
2015    9       24    17  23    3.9876   646.2    2.929      61.669
2015    9       24    17  29    3.9868   646.1    2.929      61.651
2015    9       24    17  35    3.9859   646.0    2.929      61.632
2015    9       24    17  41    3.9851   645.9    2.929      61.613
2015    9       24    17  47    3.9843   645.9    2.929      61.594
2015    9       24    17  54    3.9835   645.8    2.929      61.575
2015    9       24    18   0    3.9827   645.7    2.929      61.556
2015    9       24    18   6    3.9819   645.6    2.929      61.537
2015    9       24    18  12    3.9811   645.6    2.929      61.518
2015    9       24    18  19    3.9803   645.5    2.929      61.499
2015    9       24    18  25    3.9795   645.4    2.929      61.480
2015    9       24    18  31    3.9787   645.3    2.929      61.461
2015    9       24    18  37    3.9779   645.2    2.929      61.443
2015    9       24    18  43    3.9772   645.1    2.929      61.424
2015    9       24    18  50    3.9764   645.1    2.929      61.406
2015    9       24    18  56    3.9757   645.0    2.929      61.388
2015    9       24    19   2    3.9750   644.9    2.929      61.371
2015    9       24    19   8    3.9743   644.8    2.929      61.354
2015    9       24    19  15    3.9735   644.7    2.930      61.337
2015    9       24    19  21    3.9729   644.6    2.930      61.321
2015    9       24    19  27    3.9722   644.6    2.930      61.304
2015    9       24    19  33    3.9715   644.5    2.930      61.289
2015    9       24    19  39    3.9708   644.4    2.931      61.274
2015    9       24    19  46    3.9702   644.3    2.931      61.259
2015    9       24    19  52    3.9695   644.2    2.931      61.245
2015    9       24    19  58    3.9689   644.1    2.931      61.231
2015    9       24    20   4    3.9683   644.1    2.932      61.217
2015    9       24    20  11    3.9677   644.0    2.932      61.204
2015    9       24    20  17    3.9671   643.9    2.933      61.191
2015    9       24    20  23    3.9665   643.8    2.933      61.179
2015    9       24    20  29    3.9659   643.7    2.933      61.166
2015    9       24    20  36    3.9653   643.7    2.934      61.154
2015    9       24    20  42    3.9647   643.6    2.934      61.142
2015    9       24    20  48    3.9641   643.5    2.935      61.130
2015    9       24    20  54    3.9634   643.4    2.935      61.119
2015    9       24    21   0    3.9628   643.3    2.936      61.107
2015    9       24    21   7    3.9622   643.3    2.936      61.095
2015    9       24    21  13    3.9615   643.2    2.936      61.083
2015    9       24    21  19    3.9609   643.1    2.937      61.071
2015    9       24    21  25    3.9602   643.0    2.937      61.059
2015    9       24    21  32    3.9595   642.9    2.937      61.047
2015    9       24    21  38    3.9588   642.9    2.938      61.035
2015    9       24    21  44    3.9581   642.8    2.938      61.022
2015    9       24    21  50    3.9574   642.7    2.938      61.009
2015    9       24    21  57    3.9567   642.6    2.939      60.996
2015    9       24    22   3    3.9559   642.5    2.939      60.983
2015    9       24    22   9    3.9552   642.5    2.939      60.968
2015    9       24    22  15    3.9545   642.4    2.939      60.954
2015    9       24    22  21    3.9537   642.3    2.940      60.940
2015    9       24    22  28    3.9529   642.2    2.940      60.925
2015    9       24    22  34    3.9522   642.1    2.940      60.909
2015    9       24    22  40    3.9514   642.0    2.940      60.894
2015    9       24    22  46    3.9506   642.0    2.940      60.878
2015    9       24    22  53    3.9498   641.9    2.941      60.862
2015    9       24    22  59    3.9490   641.8    2.941      60.846
2015    9       24    23   5    3.9482   641.7    2.941      60.829
2015    9       24    23  11    3.9474   641.6    2.941      60.813
2015    9       24    23  17    3.9466   641.5    2.942      60.797
2015    9       24    23  24    3.9459   641.4    2.942      60.780
2015    9       24    23  30    3.9451   641.3    2.942      60.764
2015    9       24    23  36    3.9443   641.3    2.943      60.748
2015    9       24    23  42    3.9436   641.2    2.943      60.733
2015    9       24    23  49    3.9428   641.1    2.944      60.718
2015    9       24    23  55    3.9421   641.0    2.944      60.703
2015    9       25     0   1    3.9414   640.9    2.945      60.689
2015    9       25     0   7    3.9407   640.8    2.945      60.676
2015    9       25     0  13    3.9400   640.7    2.946      60.663
2015    9       25     0  20    3.9394   640.6    2.946      60.651
2015    9       25     0  26    3.9388   640.6    2.947      60.640
2015    9       25     0  32    3.9381   640.5    2.948      60.629
2015    9       25     0  38    3.9375   640.4    2.948      60.619
2015    9       25     0  45    3.9369   640.3    2.949      60.609
2015    9       25     0  51    3.9363   640.2    2.950      60.600
2015    9       25     0  57    3.9357   640.1    2.950      60.591
2015    9       25     1   3    3.9351   640.1    2.951      60.581
2015    9       25     1   9    3.9345   640.0    2.952      60.572
2015    9       25     1  16    3.9339   639.9    2.952      60.562
2015    9       25     1  22    3.9332   639.8    2.953      60.553
2015    9       25     1  28    3.9326   639.7    2.954      60.543
2015    9       25     1  34    3.9320   639.7    2.954      60.533
2015    9       25     1  41    3.9313   639.6    2.955      60.523
2015    9       25     1  47    3.9307   639.5    2.955      60.512
2015    9       25     1  53    3.9300   639.4    2.956      60.501
2015    9       25     1  59    3.9293   639.3    2.956      60.490
2015    9       25     2   5    3.9287   639.2    2.956      60.478
2015    9       25     2  12    3.9280   639.2    2.956      60.465
2015    9       25     2  18    3.9274   639.1    2.957      60.451
2015    9       25     2  24    3.9267   639.0    2.957      60.437
2015    9       25     2  30    3.9261   638.9    2.957      60.422
2015    9       25     2  37    3.9254   638.8    2.957      60.407
2015    9       25     2  43    3.9248   638.7    2.957      60.391
2015    9       25     2  49    3.9242   638.6    2.958      60.374
2015    9       25     2  55    3.9235   638.6    2.958      60.358
2015    9       25     3   1    3.9229   638.5    2.958      60.341
2015    9       25     3   8    3.9223   638.4    2.958      60.324
2015    9       25     3  14    3.9217   638.3    2.958      60.307
2015    9       25     3  20    3.9211   638.2    2.959      60.291
2015    9       25     3  26    3.9205   638.1    2.959      60.274
2015    9       25     3  33    3.9199   638.1    2.959      60.257
2015    9       25     3  39    3.9193   638.0    2.959      60.241
2015    9       25     3  45    3.9187   637.9    2.960      60.225
2015    9       25     3  51    3.9180   637.8    2.960      60.208
2015    9       25     3  58    3.9174   637.7    2.960      60.192
2015    9       25     4   4    3.9168   637.6    2.961      60.176
2015    9       25     4  10    3.9161   637.6    2.961      60.160
2015    9       25     4  16    3.9154   637.5    2.961      60.144
2015    9       25     4  22    3.9148   637.4    2.962      60.128
2015    9       25     4  29    3.9141   637.3    2.962      60.111
2015    9       25     4  35    3.9134   637.2    2.962      60.095
2015    9       25     4  41    3.9127   637.1    2.962      60.079
2015    9       25     4  47    3.9120   637.1    2.963      60.062
2015    9       25     4  54    3.9113   637.0    2.963      60.045
2015    9       25     5   0    3.9106   636.9    2.963      60.029
2015    9       25     5   6    3.9099   636.8    2.963      60.012
2015    9       25     5  12    3.9092   636.7    2.964      59.995
2015    9       25     5  19    3.9085   636.6    2.964      59.978
2015    9       25     5  25    3.9078   636.5    2.964      59.962
2015    9       25     5  31    3.9071   636.4    2.964      59.945
2015    9       25     5  37    3.9064   636.4    2.964      59.928
2015    9       25     5  43    3.9058   636.3    2.965      59.911
2015    9       25     5  50    3.9051   636.2    2.965      59.894
2015    9       25     5  56    3.9044   636.1    2.965      59.877
2015    9       25     6   2    3.9038   636.0    2.965      59.859
2015    9       25     6   8    3.9031   635.9    2.966      59.842
2015    9       25     6  15    3.9025   635.8    2.966      59.824
2015    9       25     6  21    3.9018   635.7    2.966      59.807
2015    9       25     6  27    3.9011   635.6    2.966      59.789
2015    9       25     6  33    3.9005   635.6    2.966      59.771
2015    9       25     6  39    3.8998   635.5    2.967      59.753
2015    9       25     6  46    3.8992   635.4    2.967      59.735
2015    9       25     6  52    3.8985   635.3    2.967      59.717
2015    9       25     6  58    3.8979   635.2    2.967      59.699
2015    9       25     7   4    3.8972   635.1    2.968      59.682
2015    9       25     7  11    3.8966   635.0    2.968      59.665
2015    9       25     7  17    3.8960   634.9    2.968      59.648
2015    9       25     7  23    3.8953   634.8    2.969      59.632
2015    9       25     7  29    3.8947   634.7    2.969      59.615
2015    9       25     7  35    3.8941   634.6    2.969      59.600
2015    9       25     7  42    3.8935   634.5    2.970      59.585
2015    9       25     7  48    3.8929   634.5    2.970      59.571
2015    9       25     7  54    3.8924   634.4    2.971      59.557
2015    9       25     8   0    3.8918   634.3    2.972      59.544
2015    9       25     8   7    3.8912   634.2    2.972      59.531
2015    9       25     8  13    3.8906   634.1    2.973      59.519
2015    9       25     8  19    3.8900   634.0    2.974      59.508
2015    9       25     8  25    3.8894   633.9    2.974      59.497
2015    9       25     8  31    3.8888   633.9    2.975      59.486
2015    9       25     8  38    3.8882   633.8    2.976      59.477
2015    9       25     8  44    3.8876   633.7    2.976      59.467
2015    9       25     8  50    3.8870   633.6    2.977      59.459
2015    9       25     8  56    3.8864   633.5    2.978      59.451
2015    9       25     9   3    3.8858   633.4    2.978      59.444
2015    9       25     9   9    3.8852   633.3    2.979      59.437
2015    9       25     9  15    3.8845   633.3    2.980      59.429
2015    9       25     9  21    3.8839   633.2    2.980      59.422
2015    9       25     9  27    3.8833   633.1    2.981      59.413
2015    9       25     9  34    3.8827   633.0    2.981      59.404
2015    9       25     9  40    3.8820   632.9    2.982      59.395
2015    9       25     9  46    3.8814   632.8    2.982      59.385
2015    9       25     9  52    3.8807   632.8    2.983      59.374
2015    9       25     9  59    3.8801   632.7    2.983      59.363
2015    9       25    10   5    3.8794   632.6    2.984      59.351
2015    9       25    10  11    3.8787   632.5    2.984      59.338
2015    9       25    10  17    3.8780   632.4    2.984      59.325
2015    9       25    10  24    3.8773   632.3    2.985      59.310
2015    9       25    10  30    3.8766   632.3    2.985      59.295
2015    9       25    10  36    3.8759   632.2    2.985      59.279
2015    9       25    10  42    3.8752   632.1    2.985      59.263
2015    9       25    10  48    3.8744   632.0    2.986      59.245
2015    9       25    10  55    3.8737   631.9    2.986      59.227
2015    9       25    11   1    3.8729   631.8    2.986      59.209
2015    9       25    11   7    3.8722   631.7    2.986      59.189
2015    9       25    11  13    3.8714   631.6    2.986      59.169
2015    9       25    11  20    3.8706   631.6    2.986      59.149
2015    9       25    11  26    3.8699   631.5    2.986      59.128
2015    9       25    11  32    3.8691   631.4    2.986      59.106
2015    9       25    11  38    3.8683   631.3    2.986      59.085
2015    9       25    11  44    3.8676   631.2    2.987      59.063
2015    9       25    11  51    3.8668   631.1    2.987      59.041
2015    9       25    11  57    3.8660   631.0    2.987      59.020
2015    9       25    12   3    3.8653   630.9    2.987      58.998
2015    9       25    12   9    3.8645   630.8    2.987      58.977
2015    9       25    12  16    3.8638   630.7    2.988      58.956
2015    9       25    12  22    3.8631   630.6    2.988      58.935
2015    9       25    12  28    3.8624   630.5    2.988      58.915
2015    9       25    12  34    3.8617   630.4    2.989      58.895
2015    9       25    12  41    3.8610   630.3    2.989      58.876
2015    9       25    12  47    3.8603   630.3    2.989      58.858
2015    9       25    12  53    3.8596   630.2    2.990      58.840
2015    9       25    12  59    3.8589   630.1    2.990      58.822
2015    9       25    13   5    3.8582   630.0    2.991      58.805
2015    9       25    13  12    3.8575   629.9    2.991      58.789
2015    9       25    13  18    3.8568   629.8    2.992      58.773
2015    9       25    13  24    3.8561   629.7    2.992      58.758
2015    9       25    13  30    3.8554   629.6    2.993      58.743
2015    9       25    13  37    3.8547   629.6    2.993      58.728
2015    9       25    13  43    3.8540   629.5    2.994      58.714
2015    9       25    13  49    3.8532   629.4    2.994      58.699
2015    9       25    13  55    3.8525   629.3    2.994      58.685
2015    9       25    14   1    3.8518   629.2    2.995      58.670
2015    9       25    14   8    3.8510   629.1    2.995      58.655
2015    9       25    14  14    3.8503   629.0    2.995      58.639
2015    9       25    14  20    3.8495   628.9    2.996      58.623
2015    9       25    14  26    3.8488   628.9    2.996      58.607
2015    9       25    14  33    3.8480   628.8    2.996      58.590
2015    9       25    14  39    3.8473   628.7    2.996      58.573
2015    9       25    14  45    3.8465   628.6    2.996      58.555
2015    9       25    14  51    3.8457   628.5    2.996      58.536
2015    9       25    14  57    3.8449   628.4    2.996      58.517
2015    9       25    15   4    3.8441   628.3    2.996      58.498
2015    9       25    15  10    3.8433   628.2    2.996      58.478
2015    9       25    15  16    3.8425   628.1    2.996      58.458
2015    9       25    15  22    3.8417   628.1    2.996      58.437
2015    9       25    15  29    3.8409   628.0    2.995      58.416
2015    9       25    15  35    3.8401   627.9    2.995      58.394
2015    9       25    15  41    3.8393   627.8    2.995      58.373
2015    9       25    15  47    3.8384   627.7    2.995      58.351
2015    9       25    15  53    3.8376   627.6    2.995      58.329
2015    9       25    16   0    3.8368   627.5    2.995      58.307
2015    9       25    16   6    3.8360   627.4    2.995      58.286
2015    9       25    16  12    3.8351   627.3    2.995      58.264
2015    9       25    16  18    3.8343   627.2    2.994      58.243
2015    9       25    16  25    3.8335   627.1    2.994      58.222
2015    9       25    16  31    3.8326   627.1    2.994      58.201
2015    9       25    16  37    3.8318   627.0    2.994      58.181
2015    9       25    16  43    3.8310   626.9    2.994      58.160
2015    9       25    16  50    3.8301   626.8    2.994      58.140
2015    9       25    16  56    3.8293   626.7    2.994      58.120
2015    9       25    17   2    3.8284   626.6    2.995      58.101
2015    9       25    17   8    3.8275   626.5    2.995      58.081
2015    9       25    17  14    3.8267   626.4    2.995      58.062
2015    9       25    17  21    3.8258   626.3    2.995      58.043
2015    9       25    17  27    3.8249   626.2    2.995      58.024
2015    9       25    17  33    3.8240   626.1    2.995      58.005
2015    9       25    17  39    3.8231   626.0    2.996      57.986
2015    9       25    17  46    3.8222   625.9    2.996      57.967
2015    9       25    17  52    3.8213   625.8    2.996      57.948
2015    9       25    17  58    3.8204   625.7    2.996      57.930
2015    9       25    18   4    3.8195   625.6    2.997      57.911
2015    9       25    18  10    3.8186   625.5    2.997      57.892
2015    9       25    18  17    3.8177   625.4    2.997      57.873
2015    9       25    18  23    3.8168   625.3    2.998      57.855
2015    9       25    18  29    3.8159   625.2    2.998      57.836
2015    9       25    18  35    3.8150   625.1    2.998      57.817
2015    9       25    18  42    3.8141   625.0    2.999      57.799
2015    9       25    18  48    3.8132   624.9    2.999      57.781
2015    9       25    18  54    3.8123   624.8    3.000      57.762
2015    9       25    19   0    3.8114   624.7    3.000      57.745
2015    9       25    19   7    3.8106   624.6    3.001      57.727
2015    9       25    19  13    3.8097   624.5    3.001      57.709
2015    9       25    19  19    3.8088   624.4    3.002      57.692
2015    9       25    19  25    3.8080   624.3    3.002      57.675
2015    9       25    19  31    3.8071   624.2    3.003      57.658
2015    9       25    19  38    3.8062   624.1    3.004      57.642
2015    9       25    19  44    3.8054   624.0    3.004      57.625
2015    9       25    19  50    3.8045   623.9    3.005      57.608
2015    9       25    19  56    3.8037   623.8    3.006      57.592
2015    9       25    20   3    3.8028   623.7    3.006      57.576
2015    9       25    20   9    3.8019   623.6    3.007      57.560
2015    9       25    20  15    3.8010   623.5    3.008      57.544
2015    9       25    20  21    3.8001   623.4    3.008      57.527
2015    9       25    20  27    3.7992   623.3    3.009      57.511
2015    9       25    20  34    3.7983   623.2    3.010      57.494
2015    9       25    20  40    3.7974   623.1    3.010      57.478
2015    9       25    20  46    3.7965   623.0    3.011      57.461
2015    9       25    20  52    3.7955   622.9    3.011      57.444
2015    9       25    20  59    3.7946   622.8    3.011      57.427
2015    9       25    21   5    3.7936   622.7    3.012      57.409
2015    9       25    21  11    3.7927   622.6    3.012      57.391
2015    9       25    21  17    3.7917   622.5    3.012      57.372
2015    9       25    21  24    3.7908   622.4    3.012      57.352
2015    9       25    21  30    3.7898   622.3    3.013      57.332
2015    9       25    21  36    3.7888   622.2    3.013      57.311
2015    9       25    21  42    3.7879   622.1    3.013      57.289
2015    9       25    21  48    3.7869   622.0    3.013      57.267
2015    9       25    21  55    3.7859   621.9    3.013      57.245
2015    9       25    22   1    3.7849   621.8    3.013      57.221
2015    9       25    22   7    3.7839   621.7    3.013      57.198
2015    9       25    22  13    3.7830   621.6    3.013      57.173
2015    9       25    22  20    3.7820   621.5    3.013      57.149
2015    9       25    22  26    3.7810   621.4    3.012      57.124
2015    9       25    22  32    3.7800   621.3    3.012      57.099
2015    9       25    22  38    3.7790   621.1    3.012      57.074
2015    9       25    22  44    3.7780   621.0    3.012      57.048
2015    9       25    22  51    3.7770   620.9    3.012      57.023
2015    9       25    22  57    3.7760   620.8    3.012      56.997
2015    9       25    23   3    3.7750   620.7    3.012      56.971
2015    9       25    23   9    3.7740   620.6    3.011      56.946
2015    9       25    23  16    3.7730   620.5    3.011      56.920
2015    9       25    23  22    3.7720   620.4    3.011      56.894
2015    9       25    23  28    3.7710   620.3    3.011      56.868
2015    9       25    23  34    3.7700   620.2    3.011      56.843
2015    9       25    23  40    3.7689   620.1    3.011      56.817
2015    9       25    23  47    3.7679   620.0    3.011      56.792
2015    9       25    23  53    3.7668   619.9    3.010      56.767
2015    9       25    23  59    3.7658   619.8    3.010      56.741
2015    9       26     0   5    3.7647   619.7    3.010      56.716
2015    9       26     0  12    3.7636   619.6    3.010      56.691
2015    9       26     0  18    3.7626   619.5    3.010      56.666
2015    9       26     0  24    3.7615   619.3    3.010      56.641
2015    9       26     0  30    3.7604   619.2    3.010      56.615
2015    9       26     0  36    3.7593   619.1    3.010      56.590
2015    9       26     0  43    3.7582   619.0    3.009      56.566
2015    9       26     0  49    3.7571   618.9    3.009      56.541
2015    9       26     0  55    3.7560   618.8    3.009      56.516
2015    9       26     1   1    3.7549   618.7    3.009      56.492
2015    9       26     1   8    3.7538   618.6    3.009      56.467
2015    9       26     1  14    3.7527   618.4    3.009      56.443
2015    9       26     1  20    3.7516   618.3    3.009      56.419
2015    9       26     1  26    3.7505   618.2    3.009      56.395
2015    9       26     1  32    3.7494   618.1    3.009      56.371
2015    9       26     1  39    3.7483   618.0    3.009      56.347
2015    9       26     1  45    3.7473   617.9    3.009      56.324
2015    9       26     1  51    3.7462   617.8    3.010      56.301
2015    9       26     1  57    3.7451   617.6    3.010      56.279
2015    9       26     2   4    3.7440   617.5    3.010      56.257
2015    9       26     2  10    3.7429   617.4    3.010      56.235
2015    9       26     2  16    3.7419   617.3    3.011      56.213
2015    9       26     2  22    3.7408   617.2    3.011      56.192
2015    9       26     2  29    3.7397   617.1    3.011      56.171
2015    9       26     2  35    3.7387   617.0    3.012      56.151
2015    9       26     2  41    3.7376   616.8    3.012      56.130
2015    9       26     2  47    3.7365   616.7    3.012      56.110
2015    9       26     2  53    3.7354   616.6    3.013      56.090
2015    9       26     3   0    3.7343   616.5    3.013      56.070
2015    9       26     3   6    3.7332   616.4    3.014      56.050
2015    9       26     3  12    3.7321   616.3    3.014      56.030
2015    9       26     3  18    3.7310   616.2    3.015      56.010
2015    9       26     3  25    3.7298   616.0    3.015      55.990
2015    9       26     3  31    3.7287   615.9    3.016      55.970
2015    9       26     3  37    3.7275   615.8    3.016      55.950
2015    9       26     3  43    3.7264   615.7    3.017      55.930
2015    9       26     3  50    3.7253   615.6    3.017      55.910
2015    9       26     3  56    3.7241   615.4    3.018      55.889
2015    9       26     4   2    3.7230   615.3    3.018      55.869
2015    9       26     4   8    3.7218   615.2    3.019      55.848
2015    9       26     4  14    3.7207   615.1    3.019      55.827
2015    9       26     4  21    3.7195   615.0    3.020      55.806
2015    9       26     4  27    3.7184   614.8    3.020      55.785
2015    9       26     4  33    3.7172   614.7    3.021      55.763
2015    9       26     4  39    3.7161   614.6    3.021      55.742
2015    9       26     4  46    3.7150   614.5    3.022      55.720
2015    9       26     4  52    3.7138   614.4    3.022      55.698
2015    9       26     4  58    3.7127   614.2    3.023      55.676
2015    9       26     5   4    3.7116   614.1    3.023      55.653
2015    9       26     5  10    3.7105   614.0    3.024      55.631
2015    9       26     5  17    3.7094   613.9    3.024      55.608
2015    9       26     5  23    3.7083   613.7    3.025      55.586
2015    9       26     5  29    3.7071   613.6    3.025      55.563
2015    9       26     5  35    3.7060   613.5    3.025      55.540
2015    9       26     5  42    3.7049   613.4    3.026      55.517
2015    9       26     5  48    3.7038   613.3    3.026      55.494
2015    9       26     5  54    3.7027   613.1    3.026      55.470
2015    9       26     6   0    3.7016   613.0    3.027      55.447
2015    9       26     6   6    3.7005   612.9    3.027      55.422
2015    9       26     6  13    3.6994   612.8    3.027      55.399
2015    9       26     6  19    3.6984   612.6    3.028      55.374
2015    9       26     6  25    3.6972   612.5    3.028      55.350
2015    9       26     6  31    3.6961   612.4    3.028      55.326
2015    9       26     6  38    3.6950   612.3    3.028      55.301
2015    9       26     6  44    3.6939   612.1    3.028      55.276
2015    9       26     6  50    3.6928   612.0    3.029      55.251
2015    9       26     6  56    3.6917   611.9    3.029      55.226
2015    9       26     7   2    3.6905   611.8    3.029      55.200
2015    9       26     7   9    3.6894   611.6    3.029      55.174
2015    9       26     7  15    3.6882   611.5    3.029      55.148
2015    9       26     7  21    3.6870   611.4    3.029      55.122
2015    9       26     7  27    3.6859   611.3    3.029      55.095
2015    9       26     7  34    3.6847   611.2    3.029      55.067
2015    9       26     7  40    3.6835   611.0    3.029      55.040
2015    9       26     7  46    3.6823   610.9    3.029      55.011
2015    9       26     7  52    3.6811   610.8    3.028      54.983
2015    9       26     7  58    3.6799   610.7    3.028      54.954
2015    9       26     8   5    3.6787   610.5    3.028      54.925
2015    9       26     8  11    3.6775   610.4    3.028      54.895
2015    9       26     8  17    3.6762   610.3    3.028      54.865
2015    9       26     8  23    3.6750   610.2    3.027      54.835
2015    9       26     8  30    3.6738   610.0    3.027      54.804
2015    9       26     8  36    3.6726   609.9    3.027      54.774
2015    9       26     8  42    3.6713   609.8    3.026      54.743
2015    9       26     8  48    3.6701   609.6    3.026      54.712
2015    9       26     8  55    3.6689   609.5    3.026      54.682
2015    9       26     9   1    3.6676   609.4    3.026      54.651
2015    9       26     9   7    3.6664   609.3    3.025      54.621
2015    9       26     9  13    3.6652   609.1    3.025      54.590
2015    9       26     9  19    3.6639   609.0    3.025      54.560
2015    9       26     9  26    3.6627   608.9    3.025      54.531
2015    9       26     9  32    3.6615   608.7    3.025      54.501
2015    9       26     9  38    3.6602   608.6    3.024      54.472
2015    9       26     9  44    3.6590   608.5    3.024      54.443
2015    9       26     9  51    3.6577   608.4    3.024      54.414
2015    9       26     9  57    3.6565   608.2    3.024      54.385
2015    9       26    10   3    3.6552   608.1    3.024      54.357
2015    9       26    10   9    3.6540   608.0    3.024      54.329
2015    9       26    10  16    3.6527   607.8    3.024      54.301
2015    9       26    10  22    3.6514   607.7    3.024      54.274
2015    9       26    10  28    3.6501   607.6    3.025      54.247
2015    9       26    10  34    3.6488   607.4    3.025      54.220
2015    9       26    10  40    3.6476   607.3    3.025      54.193
2015    9       26    10  47    3.6463   607.2    3.025      54.166
2015    9       26    10  53    3.6450   607.0    3.025      54.140
2015    9       26    10  59    3.6437   606.9    3.026      54.114
2015    9       26    11   5    3.6424   606.8    3.026      54.088
2015    9       26    11  12    3.6411   606.6    3.026      54.062
2015    9       26    11  18    3.6398   606.5    3.027      54.037
2015    9       26    11  24    3.6385   606.3    3.027      54.012
2015    9       26    11  30    3.6372   606.2    3.027      53.987
2015    9       26    11  36    3.6360   606.1    3.028      53.962
2015    9       26    11  43    3.6347   605.9    3.028      53.937
2015    9       26    11  49    3.6334   605.8    3.029      53.913
2015    9       26    11  55    3.6322   605.6    3.029      53.889
2015    9       26    12   1    3.6309   605.5    3.030      53.865
2015    9       26    12   8    3.6297   605.4    3.031      53.842
2015    9       26    12  14    3.6285   605.2    3.031      53.818
2015    9       26    12  20    3.6273   605.1    3.032      53.795
2015    9       26    12  26    3.6261   604.9    3.033      53.771
2015    9       26    12  32    3.6248   604.8    3.033      53.748
2015    9       26    12  39    3.6236   604.7    3.034      53.725
2015    9       26    12  45    3.6224   604.5    3.034      53.701
2015    9       26    12  51    3.6212   604.4    3.035      53.678
2015    9       26    12  57    3.6200   604.2    3.036      53.654
2015    9       26    13   4    3.6189   604.1    3.036      53.630
2015    9       26    13  10    3.6176   604.0    3.037      53.606
2015    9       26    13  16    3.6165   603.8    3.037      53.582
2015    9       26    13  22    3.6153   603.7    3.038      53.557
2015    9       26    13  28    3.6141   603.5    3.039      53.532
2015    9       26    13  35    3.6129   603.4    3.039      53.506
2015    9       26    13  41    3.6117   603.2    3.040      53.481
2015    9       26    13  47    3.6105   603.1    3.040      53.455
2015    9       26    13  53    3.6093   603.0    3.041      53.428
2015    9       26    14   0    3.6081   602.8    3.041      53.402
2015    9       26    14   6    3.6069   602.7    3.042      53.375
2015    9       26    14  12    3.6057   602.5    3.042      53.348
2015    9       26    14  18    3.6045   602.4    3.042      53.321
2015    9       26    14  24    3.6033   602.2    3.043      53.294
2015    9       26    14  31    3.6021   602.1    3.043      53.266
2015    9       26    14  37    3.6009   602.0    3.044      53.239
2015    9       26    14  43    3.5997   601.8    3.044      53.211
2015    9       26    14  49    3.5985   601.7    3.044      53.183
2015    9       26    14  56    3.5973   601.5    3.045      53.155
2015    9       26    15   2    3.5961   601.4    3.045      53.127
2015    9       26    15   8    3.5949   601.3    3.045      53.099
2015    9       26    15  14    3.5937   601.1    3.045      53.070
2015    9       26    15  20    3.5925   601.0    3.046      53.041
2015    9       26    15  27    3.5913   600.9    3.046      53.013
2015    9       26    15  33    3.5900   600.7    3.046      52.984
2015    9       26    15  39    3.5888   600.6    3.046      52.955
2015    9       26    15  45    3.5876   600.4    3.046      52.926
2015    9       26    15  52    3.5863   600.3    3.047      52.897
2015    9       26    15  58    3.5851   600.1    3.047      52.869
2015    9       26    16   4    3.5839   600.0    3.047      52.840
2015    9       26    16  10    3.5826   599.9    3.047      52.810
2015    9       26    16  17    3.5814   599.7    3.047      52.781
2015    9       26    16  23    3.5802   599.6    3.047      52.752
2015    9       26    16  29    3.5789   599.4    3.047      52.723
2015    9       26    16  35    3.5777   599.3    3.047      52.694
2015    9       26    16  41    3.5765   599.2    3.047      52.665
2015    9       26    16  48    3.5752   599.0    3.047      52.636
2015    9       26    16  54    3.5740   598.9    3.047      52.606
2015    9       26    17   0    3.5727   598.7    3.048      52.576
2015    9       26    17   6    3.5715   598.6    3.048      52.546
2015    9       26    17  13    3.5702   598.4    3.048      52.516
2015    9       26    17  19    3.5689   598.3    3.048      52.486
2015    9       26    17  25    3.5676   598.2    3.048      52.455
2015    9       26    17  31    3.5664   598.0    3.048      52.424
2015    9       26    17  38    3.5651   597.9    3.047      52.393
2015    9       26    17  44    3.5638   597.7    3.047      52.361
2015    9       26    17  50    3.5625   597.6    3.047      52.330
2015    9       26    17  56    3.5612   597.4    3.047      52.297
2015    9       26    18   2    3.5598   597.3    3.047      52.265
2015    9       26    18   9    3.5585   597.1    3.047      52.232
2015    9       26    18  15    3.5572   597.0    3.047      52.199
2015    9       26    18  21    3.5559   596.8    3.047      52.166
2015    9       26    18  27    3.5546   596.7    3.047      52.133
2015    9       26    18  34    3.5533   596.5    3.047      52.099
2015    9       26    18  40    3.5519   596.4    3.047      52.066
2015    9       26    18  46    3.5506   596.2    3.047      52.033
2015    9       26    18  52    3.5493   596.1    3.047      52.000
2015    9       26    18  58    3.5480   595.9    3.047      51.967
2015    9       26    19   5    3.5467   595.8    3.047      51.934
2015    9       26    19  11    3.5454   595.6    3.047      51.902
2015    9       26    19  17    3.5441   595.5    3.047      51.869
2015    9       26    19  23    3.5429   595.3    3.047      51.837
2015    9       26    19  30    3.5416   595.2    3.047      51.805
2015    9       26    19  36    3.5403   595.0    3.047      51.773
2015    9       26    19  42    3.5390   594.9    3.047      51.741
2015    9       26    19  48    3.5377   594.7    3.047      51.710
2015    9       26    19  54    3.5365   594.5    3.048      51.678
2015    9       26    20   1    3.5352   594.4    3.048      51.647
2015    9       26    20   7    3.5339   594.2    3.048      51.616
2015    9       26    20  13    3.5327   594.1    3.048      51.585
2015    9       26    20  19    3.5314   593.9    3.049      51.554
2015    9       26    20  26    3.5301   593.8    3.049      51.523
2015    9       26    20  32    3.5289   593.6    3.049      51.492
2015    9       26    20  38    3.5276   593.5    3.050      51.462
2015    9       26    20  44    3.5263   593.3    3.050      51.431
2015    9       26    20  50    3.5251   593.1    3.050      51.401
2015    9       26    20  57    3.5238   593.0    3.051      51.371
2015    9       26    21   3    3.5226   592.8    3.051      51.341
2015    9       26    21   9    3.5213   592.7    3.052      51.312
2015    9       26    21  15    3.5201   592.5    3.052      51.282
2015    9       26    21  22    3.5189   592.3    3.053      51.253
2015    9       26    21  28    3.5176   592.2    3.054      51.224
2015    9       26    21  34    3.5164   592.0    3.054      51.196
2015    9       26    21  40    3.5152   591.9    3.055      51.168
2015    9       26    21  46    3.5141   591.7    3.056      51.140
2015    9       26    21  53    3.5129   591.5    3.056      51.113
2015    9       26    21  59    3.5117   591.4    3.057      51.086
2015    9       26    22   5    3.5105   591.2    3.058      51.059
2015    9       26    22  11    3.5094   591.1    3.059      51.033
2015    9       26    22  18    3.5082   590.9    3.060      51.007
2015    9       26    22  24    3.5071   590.7    3.061      50.981
2015    9       26    22  30    3.5059   590.6    3.061      50.956
2015    9       26    22  36    3.5048   590.4    3.062      50.931
2015    9       26    22  43    3.5036   590.3    3.063      50.905
2015    9       26    22  49    3.5024   590.1    3.064      50.880
2015    9       26    22  55    3.5013   590.0    3.065      50.855
2015    9       26    23   1    3.5001   589.8    3.066      50.829
2015    9       26    23   7    3.4989   589.7    3.067      50.804
2015    9       26    23  14    3.4978   589.5    3.068      50.778
2015    9       26    23  20    3.4966   589.3    3.068      50.752
2015    9       26    23  26    3.4955   589.2    3.069      50.727
2015    9       26    23  32    3.4943   589.0    3.070      50.700
2015    9       26    23  39    3.4931   588.9    3.071      50.674
2015    9       26    23  45    3.4920   588.7    3.072      50.647
2015    9       26    23  51    3.4908   588.6    3.072      50.621
2015    9       26    23  57    3.4896   588.4    3.073      50.593
2015    9       27     0   4    3.4885   588.2    3.074      50.566
