year    month   day   hour  minute  B_enl V_enl   n_enl       T_enl
[year] [month] [day] [hour][minute] [nT]  [km/s]  [cm-3]      [kK]
2014    9       24     0   4    6.66   583.0    4.0      53.919
2014    9       24     0   9    6.66   583.1    4.0      53.938
2014    9       24     0  15    6.66   583.1    4.0      53.958
2014    9       24     0  20    6.66   583.2    4.0      53.977
2014    9       24     0  25    6.66   583.3    4.0      53.997
2014    9       24     0  30    6.66   583.4    4.0      54.017
2014    9       24     0  36    6.66   583.4    4.0      54.037
2014    9       24     0  41    6.66   583.5    4.0      54.057
2014    9       24     0  46    6.66   583.6    4.0      54.078
2014    9       24     0  51    6.66   583.7    4.0      54.099
2014    9       24     0  57    6.66   583.8    4.0      54.121
2014    9       24     1   2    6.66   583.8    4.0      54.144
2014    9       24     1   7    6.66   583.9    4.0      54.167
2014    9       24     1  12    6.66   584.0    4.0      54.191
2014    9       24     1  17    6.67   584.1    4.0      54.216
2014    9       24     1  23    6.67   584.2    4.0      54.242
2014    9       24     1  28    6.67   584.3    4.0      54.268
2014    9       24     1  33    6.67   584.3    4.0      54.294
2014    9       24     1  38    6.67   584.4    4.0      54.320
2014    9       24     1  44    6.67   584.5    4.0      54.346
2014    9       24     1  49    6.67   584.6    4.0      54.372
2014    9       24     1  54    6.67   584.7    4.0      54.398
2014    9       24     1  59    6.67   584.8    4.0      54.425
2014    9       24     2   5    6.67   584.9    4.0      54.452
2014    9       24     2  10    6.67   585.0    4.0      54.480
2014    9       24     2  15    6.67   585.1    4.0      54.508
2014    9       24     2  20    6.67   585.2    4.0      54.536
2014    9       24     2  25    6.67   585.2    4.0      54.565
2014    9       24     2  31    6.67   585.3    4.0      54.594
2014    9       24     2  36    6.67   585.4    4.0      54.622
2014    9       24     2  41    6.67   585.5    4.0      54.651
2014    9       24     2  46    6.67   585.6    4.0      54.680
2014    9       24     2  52    6.67   585.7    4.0      54.708
2014    9       24     2  57    6.67   585.8    4.0      54.736
2014    9       24     3   2    6.67   585.9    4.0      54.764
2014    9       24     3   7    6.67   586.0    4.0      54.792
2014    9       24     3  13    6.67   586.1    4.0      54.819
2014    9       24     3  18    6.67   586.2    4.0      54.846
2014    9       24     3  23    6.67   586.3    4.0      54.872
2014    9       24     3  28    6.67   586.4    4.0      54.898
2014    9       24     3  33    6.67   586.5    4.0      54.923
2014    9       24     3  39    6.67   586.6    4.0      54.947
2014    9       24     3  44    6.67   586.7    4.0      54.970
2014    9       24     3  49    6.67   586.8    4.0      54.993
2014    9       24     3  54    6.67   586.8    4.0      55.016
2014    9       24     4   0    6.67   586.9    4.0      55.038
2014    9       24     4   5    6.67   587.0    4.0      55.059
2014    9       24     4  10    6.67   587.1    4.0      55.080
2014    9       24     4  15    6.67   587.2    4.0      55.101
2014    9       24     4  21    6.67   587.3    4.0      55.121
2014    9       24     4  26    6.67   587.4    4.0      55.141
2014    9       24     4  31    6.67   587.5    4.0      55.161
2014    9       24     4  36    6.67   587.6    4.0      55.180
2014    9       24     4  42    6.67   587.6    4.0      55.199
2014    9       24     4  47    6.67   587.7    3.9      55.218
2014    9       24     4  52    6.67   587.8    3.9      55.237
2014    9       24     4  57    6.67   587.9    3.9      55.256
2014    9       24     5   2    6.67   588.0    3.9      55.274
2014    9       24     5   8    6.67   588.1    3.9      55.293
2014    9       24     5  13    6.67   588.2    3.9      55.313
2014    9       24     5  18    6.67   588.3    3.9      55.332
2014    9       24     5  23    6.67   588.4    3.9      55.352
2014    9       24     5  29    6.67   588.4    3.9      55.372
2014    9       24     5  34    6.67   588.5    3.9      55.393
2014    9       24     5  39    6.67   588.6    3.9      55.414
2014    9       24     5  44    6.67   588.7    3.9      55.437
2014    9       24     5  50    6.67   588.8    3.9      55.461
2014    9       24     5  55    6.67   588.9    3.9      55.485
2014    9       24     6   0    6.67   589.0    3.9      55.511
2014    9       24     6   5    6.67   589.1    3.9      55.538
2014    9       24     6  11    6.67   589.2    3.9      55.565
2014    9       24     6  16    6.67   589.3    3.9      55.593
2014    9       24     6  21    6.67   589.4    3.9      55.621
2014    9       24     6  26    6.67   589.5    3.9      55.650
2014    9       24     6  31    6.67   589.6    3.9      55.679
2014    9       24     6  37    6.67   589.7    3.9      55.708
2014    9       24     6  42    6.67   589.8    3.9      55.738
2014    9       24     6  47    6.67   589.9    3.9      55.767
2014    9       24     6  52    6.67   590.0    3.9      55.796
2014    9       24     6  58    6.68   590.1    3.9      55.826
2014    9       24     7   3    6.68   590.2    3.9      55.855
2014    9       24     7   8    6.68   590.3    3.9      55.883
2014    9       24     7  13    6.68   590.4    3.9      55.912
2014    9       24     7  19    6.68   590.5    3.9      55.941
2014    9       24     7  24    6.68   590.6    3.9      55.969
2014    9       24     7  29    6.68   590.7    3.9      55.998
2014    9       24     7  34    6.68   590.8    3.9      56.026
2014    9       24     7  39    6.68   590.9    3.9      56.055
2014    9       24     7  45    6.68   591.0    3.9      56.084
2014    9       24     7  50    6.68   591.1    3.9      56.114
2014    9       24     7  55    6.68   591.2    3.9      56.144
2014    9       24     8   0    6.68   591.3    3.9      56.174
2014    9       24     8   6    6.68   591.4    3.9      56.206
2014    9       24     8  11    6.68   591.5    3.9      56.238
2014    9       24     8  16    6.68   591.6    3.9      56.272
2014    9       24     8  21    6.68   591.7    3.9      56.306
2014    9       24     8  27    6.68   591.9    3.9      56.340
2014    9       24     8  32    6.68   592.0    3.9      56.374
2014    9       24     8  37    6.68   592.1    3.9      56.409
2014    9       24     8  42    6.68   592.2    3.9      56.444
2014    9       24     8  47    6.68   592.3    3.9      56.478
2014    9       24     8  53    6.68   592.5    3.9      56.511
2014    9       24     8  58    6.68   592.6    3.9      56.544
2014    9       24     9   3    6.68   592.7    3.9      56.576
2014    9       24     9   8    6.68   592.8    3.9      56.608
2014    9       24     9  14    6.68   593.0    3.9      56.638
2014    9       24     9  19    6.68   593.1    3.9      56.667
2014    9       24     9  24    6.68   593.2    3.9      56.696
2014    9       24     9  29    6.68   593.4    3.9      56.723
2014    9       24     9  35    6.68   593.5    3.9      56.749
2014    9       24     9  40    6.68   593.6    3.9      56.775
2014    9       24     9  45    6.68   593.7    3.9      56.800
2014    9       24     9  50    6.68   593.9    3.9      56.824
2014    9       24     9  55    6.68   594.0    3.9      56.847
2014    9       24    10   1    6.68   594.1    3.9      56.870
2014    9       24    10   6    6.68   594.2    3.9      56.892
2014    9       24    10  11    6.68   594.4    3.9      56.913
2014    9       24    10  16    6.68   594.5    3.9      56.934
2014    9       24    10  22    6.68   594.6    3.9      56.955
2014    9       24    10  27    6.68   594.7    3.9      56.974
2014    9       24    10  32    6.68   594.9    3.9      56.994
2014    9       24    10  37    6.68   595.0    3.9      57.013
2014    9       24    10  43    6.68   595.1    3.9      57.031
2014    9       24    10  48    6.68   595.2    3.9      57.050
2014    9       24    10  53    6.68   595.4    3.9      57.067
2014    9       24    10  58    6.68   595.5    3.9      57.085
2014    9       24    11   3    6.68   595.6    3.9      57.102
2014    9       24    11   9    6.68   595.7    3.9      57.120
2014    9       24    11  14    6.68   595.8    3.8      57.137
2014    9       24    11  19    6.68   596.0    3.8      57.154
2014    9       24    11  24    6.68   596.1    3.8      57.172
2014    9       24    11  30    6.68   596.2    3.8      57.189
2014    9       24    11  35    6.68   596.3    3.8      57.207
2014    9       24    11  40    6.68   596.4    3.8      57.225
2014    9       24    11  45    6.68   596.5    3.8      57.244
2014    9       24    11  51    6.68   596.7    3.8      57.263
2014    9       24    11  56    6.68   596.8    3.8      57.283
2014    9       24    12   1    6.68   596.9    3.8      57.303
2014    9       24    12   6    6.68   597.0    3.8      57.324
2014    9       24    12  12    6.68   597.1    3.8      57.346
2014    9       24    12  17    6.68   597.3    3.8      57.368
2014    9       24    12  22    6.68   597.4    3.8      57.391
2014    9       24    12  27    6.68   597.5    3.8      57.415
2014    9       24    12  32    6.68   597.6    3.8      57.440
2014    9       24    12  38    6.68   597.8    3.8      57.465
2014    9       24    12  43    6.68   597.9    3.8      57.492
2014    9       24    12  48    6.68   598.0    3.8      57.520
2014    9       24    12  53    6.68   598.1    3.8      57.549
2014    9       24    12  59    6.68   598.3    3.8      57.579
2014    9       24    13   4    6.68   598.4    3.8      57.610
2014    9       24    13   9    6.68   598.5    3.8      57.642
2014    9       24    13  14    6.68   598.6    3.8      57.676
2014    9       24    13  20    6.68   598.8    3.8      57.711
2014    9       24    13  25    6.67   598.9    3.8      57.748
2014    9       24    13  30    6.67   599.0    3.8      57.786
2014    9       24    13  35    6.67   599.1    3.8      57.825
2014    9       24    13  41    6.67   599.3    3.8      57.865
2014    9       24    13  46    6.67   599.4    3.8      57.905
2014    9       24    13  51    6.67   599.5    3.8      57.945
2014    9       24    13  56    6.67   599.6    3.8      57.985
2014    9       24    14   1    6.67   599.8    3.8      58.025
2014    9       24    14   7    6.67   599.9    3.8      58.065
2014    9       24    14  12    6.67   600.0    3.8      58.105
2014    9       24    14  17    6.67   600.2    3.8      58.144
2014    9       24    14  22    6.67   600.3    3.8      58.182
2014    9       24    14  28    6.67   600.4    3.8      58.219
2014    9       24    14  33    6.67   600.5    3.8      58.255
2014    9       24    14  38    6.67   600.7    3.8      58.291
2014    9       24    14  43    6.67   600.8    3.8      58.325
2014    9       24    14  49    6.67   600.9    3.8      58.359
2014    9       24    14  54    6.67   601.0    3.8      58.392
2014    9       24    14  59    6.67   601.2    3.8      58.424
2014    9       24    15   4    6.67   601.3    3.8      58.455
2014    9       24    15   9    6.67   601.4    3.8      58.486
2014    9       24    15  15    6.67   601.6    3.8      58.516
2014    9       24    15  20    6.67   601.7    3.8      58.545
2014    9       24    15  25    6.67   601.8    3.8      58.573
2014    9       24    15  30    6.67   601.9    3.8      58.601
2014    9       24    15  36    6.66   602.1    3.8      58.628
2014    9       24    15  41    6.66   602.2    3.8      58.655
2014    9       24    15  46    6.66   602.3    3.8      58.681
2014    9       24    15  51    6.66   602.5    3.8      58.706
2014    9       24    15  57    6.66   602.6    3.8      58.731
2014    9       24    16   2    6.66   602.7    3.8      58.755
2014    9       24    16   7    6.66   602.8    3.8      58.779
2014    9       24    16  12    6.66   603.0    3.8      58.803
2014    9       24    16  17    6.66   603.1    3.8      58.825
2014    9       24    16  23    6.66   603.2    3.7      58.848
2014    9       24    16  28    6.66   603.3    3.7      58.870
2014    9       24    16  33    6.66   603.5    3.7      58.892
2014    9       24    16  38    6.66   603.6    3.7      58.913
2014    9       24    16  44    6.66   603.7    3.7      58.934
2014    9       24    16  49    6.66   603.9    3.7      58.954
2014    9       24    16  54    6.66   604.0    3.7      58.974
2014    9       24    16  59    6.66   604.1    3.7      58.994
2014    9       24    17   5    6.66   604.3    3.7      59.014
2014    9       24    17  10    6.66   604.4    3.7      59.033
2014    9       24    17  15    6.65   604.5    3.7      59.052
2014    9       24    17  20    6.65   604.7    3.7      59.071
2014    9       24    17  25    6.65   604.8    3.7      59.090
2014    9       24    17  31    6.65   604.9    3.7      59.108
2014    9       24    17  36    6.65   605.0    3.7      59.126
2014    9       24    17  41    6.65   605.2    3.7      59.144
2014    9       24    17  46    6.65   605.3    3.7      59.162
2014    9       24    17  52    6.65   605.4    3.7      59.179
2014    9       24    17  57    6.65   605.6    3.7      59.197
2014    9       24    18   2    6.65   605.7    3.7      59.215
2014    9       24    18   7    6.65   605.8    3.7      59.232
2014    9       24    18  13    6.65   606.0    3.7      59.249
2014    9       24    18  18    6.65   606.1    3.7      59.267
2014    9       24    18  23    6.64   606.2    3.7      59.284
2014    9       24    18  28    6.64   606.3    3.7      59.302
2014    9       24    18  34    6.64   606.5    3.7      59.320
2014    9       24    18  39    6.64   606.6    3.7      59.337
2014    9       24    18  44    6.64   606.7    3.7      59.355
2014    9       24    18  49    6.64   606.9    3.7      59.374
2014    9       24    18  54    6.64   607.0    3.7      59.392
2014    9       24    19   0    6.64   607.1    3.7      59.411
2014    9       24    19   5    6.64   607.2    3.7      59.430
2014    9       24    19  10    6.64   607.4    3.7      59.450
2014    9       24    19  15    6.63   607.5    3.7      59.470
2014    9       24    19  21    6.63   607.6    3.7      59.490
2014    9       24    19  26    6.63   607.7    3.7      59.511
2014    9       24    19  31    6.63   607.9    3.7      59.532
2014    9       24    19  36    6.63   608.0    3.7      59.553
2014    9       24    19  42    6.63   608.1    3.7      59.575
2014    9       24    19  47    6.63   608.2    3.7      59.598
2014    9       24    19  52    6.63   608.3    3.7      59.621
2014    9       24    19  57    6.63   608.5    3.7      59.644
2014    9       24    20   3    6.62   608.6    3.7      59.668
2014    9       24    20   8    6.62   608.7    3.7      59.693
2014    9       24    20  13    6.62   608.8    3.7      59.718
2014    9       24    20  18    6.62   608.9    3.7      59.744
2014    9       24    20  23    6.62   609.0    3.7      59.771
2014    9       24    20  29    6.62   609.2    3.7      59.798
2014    9       24    20  34    6.62   609.3    3.7      59.826
2014    9       24    20  39    6.61   609.4    3.7      59.854
2014    9       24    20  44    6.61   609.5    3.7      59.883
2014    9       24    20  50    6.61   609.6    3.7      59.912
2014    9       24    20  55    6.61   609.7    3.6      59.941
2014    9       24    21   0    6.61   609.8    3.6      59.969
2014    9       24    21   5    6.61   609.9    3.6      59.998
2014    9       24    21  11    6.61   610.0    3.6      60.025
2014    9       24    21  16    6.61   610.1    3.6      60.052
2014    9       24    21  21    6.60   610.2    3.6      60.079
2014    9       24    21  26    6.60   610.3    3.6      60.104
2014    9       24    21  31    6.60   610.4    3.6      60.130
2014    9       24    21  37    6.60   610.5    3.6      60.154
2014    9       24    21  42    6.60   610.6    3.6      60.177
2014    9       24    21  47    6.60   610.7    3.6      60.200
2014    9       24    21  52    6.60   610.8    3.6      60.222
2014    9       24    21  58    6.59   610.9    3.6      60.244
2014    9       24    22   3    6.59   611.0    3.6      60.265
2014    9       24    22   8    6.59   611.1    3.6      60.285
2014    9       24    22  13    6.59   611.2    3.6      60.305
2014    9       24    22  19    6.59   611.3    3.6      60.324
2014    9       24    22  24    6.59   611.4    3.6      60.342
2014    9       24    22  29    6.59   611.5    3.6      60.360
2014    9       24    22  34    6.58   611.6    3.6      60.377
2014    9       24    22  39    6.58   611.7    3.6      60.393
2014    9       24    22  45    6.58   611.8    3.6      60.409
2014    9       24    22  50    6.58   611.9    3.6      60.424
2014    9       24    22  55    6.58   612.0    3.6      60.439
2014    9       24    23   0    6.58   612.1    3.6      60.453
2014    9       24    23   6    6.58   612.2    3.6      60.467
2014    9       24    23  11    6.57   612.2    3.6      60.480
2014    9       24    23  16    6.57   612.3    3.6      60.494
2014    9       24    23  20    6.57   612.4    3.6      60.508
2014    9       24    23  25    6.57   612.5    3.6      60.522
2014    9       24    23  29    6.57   612.6    3.6      60.535
2014    9       24    23  33    6.57   612.6    3.6      60.549
2014    9       24    23  38    6.57   612.7    3.6      60.562
2014    9       24    23  42    6.57   612.8    3.6      60.575
2014    9       24    23  46    6.57   612.9    3.6      60.589
2014    9       24    23  51    6.56   612.9    3.6      60.602
2014    9       24    23  55    6.56   613.0    3.6      60.615
2014    9       24    23  59    6.56   613.1    3.6      60.628
2014    9       25     0   3    6.56   613.1    3.6      60.642
2014    9       25     0   7    6.56   613.2    3.6      60.655
2014    9       25     0  12    6.56   613.3    3.6      60.668
2014    9       25     0  16    6.56   613.3    3.6      60.682
2014    9       25     0  20    6.56   613.4    3.6      60.695
2014    9       25     0  24    6.56   613.5    3.6      60.709
2014    9       25     0  28    6.55   613.6    3.6      60.722
2014    9       25     0  33    6.55   613.6    3.6      60.736
2014    9       25     0  37    6.55   613.7    3.6      60.750
2014    9       25     0  41    6.55   613.8    3.6      60.764
2014    9       25     0  45    6.55   613.8    3.6      60.779
2014    9       25     0  49    6.55   613.9    3.5      60.793
2014    9       25     0  54    6.55   614.0    3.5      60.808
2014    9       25     0  58    6.55   614.0    3.5      60.823
2014    9       25     1   2    6.55   614.1    3.5      60.838
2014    9       25     1   6    6.54   614.2    3.5      60.853
2014    9       25     1  10    6.54   614.3    3.5      60.868
2014    9       25     1  14    6.54   614.3    3.5      60.884
2014    9       25     1  18    6.54   614.4    3.5      60.899
2014    9       25     1  23    6.54   614.5    3.5      60.915
2014    9       25     1  27    6.54   614.5    3.5      60.931
2014    9       25     1  31    6.54   614.6    3.5      60.947
2014    9       25     1  35    6.54   614.7    3.5      60.963
2014    9       25     1  39    6.53   614.7    3.5      60.979
2014    9       25     1  43    6.53   614.8    3.5      60.996
2014    9       25     1  47    6.53   614.9    3.5      61.012
2014    9       25     1  52    6.53   614.9    3.5      61.029
2014    9       25     1  56    6.53   615.0    3.5      61.046
2014    9       25     2   0    6.53   615.1    3.5      61.063
2014    9       25     2   4    6.53   615.1    3.5      61.080
2014    9       25     2   8    6.52   615.2    3.5      61.097
2014    9       25     2  12    6.52   615.3    3.5      61.114
2014    9       25     2  17    6.52   615.3    3.5      61.131
2014    9       25     2  21    6.52   615.4    3.5      61.148
2014    9       25     2  25    6.52   615.5    3.5      61.165
2014    9       25     2  29    6.52   615.5    3.5      61.183
2014    9       25     2  33    6.52   615.6    3.5      61.200
2014    9       25     2  38    6.51   615.6    3.5      61.217
2014    9       25     2  42    6.51   615.7    3.5      61.234
2014    9       25     2  46    6.51   615.8    3.5      61.251
2014    9       25     2  50    6.51   615.8    3.5      61.269
2014    9       25     2  54    6.51   615.9    3.5      61.286
2014    9       25     2  59    6.51   615.9    3.5      61.303
2014    9       25     3   3    6.51   616.0    3.5      61.320
2014    9       25     3   7    6.50   616.0    3.5      61.337
2014    9       25     3  11    6.50   616.1    3.5      61.353
2014    9       25     3  15    6.50   616.1    3.5      61.370
2014    9       25     3  20    6.50   616.2    3.5      61.386
2014    9       25     3  24    6.50   616.3    3.5      61.402
2014    9       25     3  28    6.50   616.3    3.5      61.418
2014    9       25     3  32    6.50   616.4    3.5      61.433
2014    9       25     3  36    6.49   616.4    3.5      61.449
2014    9       25     3  41    6.49   616.5    3.5      61.464
2014    9       25     3  45    6.49   616.5    3.5      61.478
2014    9       25     3  49    6.49   616.6    3.5      61.493
2014    9       25     3  54    6.49   616.6    3.5      61.507
2014    9       25     3  58    6.49   616.7    3.5      61.521
2014    9       25     4   2    6.48   616.7    3.5      61.534
2014    9       25     4   7    6.48   616.8    3.5      61.547
2014    9       25     4  11    6.48   616.8    3.5      61.560
2014    9       25     4  15    6.48   616.9    3.5      61.573
2014    9       25     4  20    6.48   616.9    3.5      61.585
2014    9       25     4  24    6.48   616.9    3.5      61.596
2014    9       25     4  28    6.47   617.0    3.5      61.608
2014    9       25     4  33    6.47   617.0    3.5      61.619
2014    9       25     4  37    6.47   617.1    3.5      61.630
2014    9       25     4  41    6.47   617.1    3.5      61.640
2014    9       25     4  46    6.47   617.2    3.5      61.650
2014    9       25     4  50    6.47   617.2    3.5      61.659
2014    9       25     4  54    6.47   617.3    3.5      61.669
2014    9       25     4  59    6.46   617.3    3.5      61.678
2014    9       25     5   3    6.46   617.4    3.5      61.686
2014    9       25     5   8    6.46   617.4    3.5      61.694
2014    9       25     5  12    6.46   617.4    3.5      61.702
2014    9       25     5  16    6.46   617.5    3.5      61.709
2014    9       25     5  21    6.46   617.5    3.5      61.717
2014    9       25     5  25    6.45   617.6    3.5      61.723
2014    9       25     5  29    6.45   617.6    3.5      61.730
2014    9       25     5  34    6.45   617.6    3.5      61.736
2014    9       25     5  38    6.45   617.7    3.5      61.741
2014    9       25     5  43    6.45   617.7    3.5      61.747
2014    9       25     5  47    6.45   617.8    3.5      61.752
2014    9       25     5  52    6.44   617.8    3.5      61.757
2014    9       25     5  56    6.44   617.8    3.5      61.761
2014    9       25     6   0    6.44   617.9    3.5      61.765
2014    9       25     6   5    6.44   617.9    3.4      61.769
2014    9       25     6   9    6.44   618.0    3.4      61.773
2014    9       25     6  14    6.44   618.0    3.4      61.776
2014    9       25     6  18    6.44   618.0    3.4      61.779
2014    9       25     6  23    6.43   618.1    3.4      61.782
2014    9       25     6  27    6.43   618.1    3.4      61.784
2014    9       25     6  32    6.43   618.1    3.4      61.787
2014    9       25     6  36    6.43   618.2    3.4      61.789
2014    9       25     6  41    6.43   618.2    3.4      61.791
2014    9       25     6  45    6.43   618.2    3.4      61.793
2014    9       25     6  50    6.42   618.3    3.4      61.795
2014    9       25     6  54    6.42   618.3    3.4      61.797
2014    9       25     6  59    6.42   618.3    3.4      61.798
2014    9       25     7   4    6.42   618.4    3.4      61.800
2014    9       25     7   8    6.42   618.4    3.4      61.802
2014    9       25     7  13    6.42   618.4    3.4      61.804
2014    9       25     7  18    6.41   618.5    3.4      61.806
2014    9       25     7  22    6.41   618.5    3.4      61.808
2014    9       25     7  27    6.41   618.5    3.4      61.810
2014    9       25     7  31    6.41   618.5    3.4      61.813
2014    9       25     7  36    6.41   618.6    3.4      61.816
2014    9       25     7  41    6.41   618.6    3.4      61.819
2014    9       25     7  45    6.40   618.6    3.4      61.823
2014    9       25     7  50    6.40   618.7    3.4      61.827
2014    9       25     7  55    6.40   618.7    3.4      61.831
2014    9       25     8   0    6.40   618.7    3.4      61.836
2014    9       25     8   4    6.40   618.7    3.4      61.841
2014    9       25     8   9    6.40   618.8    3.4      61.847
2014    9       25     8  14    6.39   618.8    3.4      61.853
2014    9       25     8  18    6.39   618.8    3.4      61.859
2014    9       25     8  23    6.39   618.9    3.4      61.866
2014    9       25     8  28    6.39   618.9    3.4      61.873
2014    9       25     8  33    6.39   618.9    3.4      61.881
2014    9       25     8  37    6.39   618.9    3.4      61.889
2014    9       25     8  42    6.38   619.0    3.4      61.897
2014    9       25     8  47    6.38   619.0    3.4      61.906
2014    9       25     8  52    6.38   619.0    3.4      61.915
2014    9       25     8  56    6.38   619.0    3.4      61.925
2014    9       25     9   1    6.38   619.0    3.4      61.935
2014    9       25     9   6    6.38   619.1    3.4      61.945
2014    9       25     9  11    6.37   619.1    3.4      61.955
2014    9       25     9  15    6.37   619.1    3.4      61.966
2014    9       25     9  20    6.37   619.1    3.4      61.977
2014    9       25     9  25    6.37   619.1    3.4      61.988
2014    9       25     9  30    6.37   619.2    3.4      62.000
2014    9       25     9  35    6.37   619.2    3.4      62.011
2014    9       25     9  39    6.36   619.2    3.4      62.023
2014    9       25     9  44    6.36   619.2    3.4      62.036
2014    9       25     9  49    6.36   619.2    3.4      62.048
2014    9       25     9  54    6.36   619.3    3.4      62.061
2014    9       25     9  59    6.36   619.3    3.4      62.073
2014    9       25    10   4    6.36   619.3    3.4      62.086
2014    9       25    10   8    6.35   619.3    3.4      62.098
2014    9       25    10  13    6.35   619.3    3.4      62.111
2014    9       25    10  18    6.35   619.4    3.4      62.124
2014    9       25    10  23    6.35   619.4    3.4      62.137
2014    9       25    10  28    6.35   619.4    3.4      62.149
2014    9       25    10  33    6.35   619.4    3.4      62.162
2014    9       25    10  38    6.34   619.4    3.4      62.173
2014    9       25    10  43    6.34   619.4    3.4      62.184
2014    9       25    10  47    6.34   619.5    3.4      62.195
2014    9       25    10  52    6.34   619.5    3.4      62.204
2014    9       25    10  57    6.34   619.5    3.4      62.213
2014    9       25    11   2    6.34   619.5    3.4      62.221
2014    9       25    11   7    6.33   619.5    3.4      62.229
2014    9       25    11  12    6.33   619.5    3.4      62.236
2014    9       25    11  17    6.33   619.6    3.4      62.242
2014    9       25    11  21    6.33   619.6    3.4      62.248
2014    9       25    11  26    6.33   619.6    3.4      62.253
2014    9       25    11  31    6.33   619.6    3.4      62.258
2014    9       25    11  36    6.32   619.6    3.4      62.262
2014    9       25    11  41    6.32   619.6    3.4      62.266
2014    9       25    11  46    6.32   619.7    3.4      62.269
2014    9       25    11  51    6.32   619.7    3.4      62.272
2014    9       25    11  56    6.32   619.7    3.4      62.274
2014    9       25    12   0    6.31   619.7    3.4      62.276
2014    9       25    12   5    6.31   619.7    3.4      62.278
2014    9       25    12  10    6.31   619.7    3.4      62.279
2014    9       25    12  15    6.31   619.7    3.4      62.280
2014    9       25    12  20    6.31   619.8    3.4      62.280
2014    9       25    12  25    6.31   619.8    3.4      62.280
2014    9       25    12  30    6.30   619.8    3.4      62.280
2014    9       25    12  35    6.30   619.8    3.4      62.279
2014    9       25    12  40    6.30   619.8    3.4      62.278
2014    9       25    12  45    6.30   619.8    3.4      62.277
2014    9       25    12  50    6.30   619.8    3.4      62.275
2014    9       25    12  55    6.30   619.9    3.4      62.273
2014    9       25    12  59    6.29   619.9    3.4      62.271
2014    9       25    13   4    6.29   619.9    3.4      62.269
2014    9       25    13   9    6.29   619.9    3.4      62.266
2014    9       25    13  14    6.29   619.9    3.4      62.263
2014    9       25    13  19    6.29   619.9    3.4      62.260
2014    9       25    13  24    6.28   619.9    3.4      62.256
2014    9       25    13  29    6.28   619.9    3.4      62.252
2014    9       25    13  34    6.28   619.9    3.3      62.248
2014    9       25    13  39    6.28   620.0    3.3      62.244
2014    9       25    13  44    6.28   620.0    3.3      62.240
2014    9       25    13  49    6.28   620.0    3.3      62.235
2014    9       25    13  54    6.27   620.0    3.3      62.230
2014    9       25    13  59    6.27   620.0    3.3      62.225
2014    9       25    14   4    6.27   620.0    3.3      62.220
2014    9       25    14   9    6.27   620.0    3.3      62.215
2014    9       25    14  14    6.27   620.0    3.3      62.210
2014    9       25    14  19    6.26   620.0    3.3      62.205
2014    9       25    14  24    6.26   620.0    3.3      62.200
2014    9       25    14  29    6.26   620.0    3.3      62.194
2014    9       25    14  34    6.26   620.0    3.3      62.190
2014    9       25    14  39    6.26   620.0    3.3      62.185
2014    9       25    14  44    6.25   620.0    3.3      62.180
2014    9       25    14  49    6.25   620.0    3.3      62.175
2014    9       25    14  54    6.25   620.0    3.3      62.171
2014    9       25    14  59    6.25   620.0    3.3      62.168
2014    9       25    15   4    6.25   620.0    3.3      62.164
2014    9       25    15   9    6.25   620.0    3.3      62.161
2014    9       25    15  14    6.24   620.0    3.3      62.159
2014    9       25    15  19    6.24   620.0    3.3      62.157
2014    9       25    15  24    6.24   620.0    3.3      62.155
2014    9       25    15  29    6.24   620.0    3.3      62.154
2014    9       25    15  34    6.24   620.0    3.3      62.153
2014    9       25    15  39    6.23   620.0    3.3      62.153
2014    9       25    15  44    6.23   620.0    3.3      62.153
2014    9       25    15  49    6.23   620.0    3.3      62.154
2014    9       25    15  54    6.23   620.0    3.3      62.155
2014    9       25    15  59    6.23   620.0    3.3      62.156
2014    9       25    16   4    6.23   620.0    3.3      62.158
2014    9       25    16   9    6.22   619.9    3.3      62.161
2014    9       25    16  15    6.22   619.9    3.3      62.164
2014    9       25    16  20    6.22   619.9    3.3      62.168
2014    9       25    16  25    6.22   619.9    3.3      62.172
2014    9       25    16  30    6.22   619.9    3.3      62.177
2014    9       25    16  35    6.21   619.9    3.3      62.182
2014    9       25    16  40    6.21   619.9    3.3      62.188
2014    9       25    16  45    6.21   619.9    3.3      62.195
2014    9       25    16  51    6.21   619.9    3.3      62.202
2014    9       25    16  56    6.21   619.9    3.3      62.210
2014    9       25    17   1    6.20   619.9    3.3      62.218
2014    9       25    17   6    6.20   619.9    3.3      62.226
2014    9       25    17  11    6.20   619.9    3.3      62.235
2014    9       25    17  17    6.20   619.9    3.3      62.243
2014    9       25    17  22    6.20   619.9    3.3      62.251
2014    9       25    17  27    6.20   619.9    3.3      62.258
2014    9       25    17  32    6.19   619.9    3.3      62.265
2014    9       25    17  38    6.19   619.9    3.3      62.272
2014    9       25    17  43    6.19   619.8    3.3      62.278
2014    9       25    17  48    6.19   619.8    3.3      62.285
2014    9       25    17  53    6.19   619.8    3.3      62.291
2014    9       25    17  58    6.18   619.8    3.3      62.297
2014    9       25    18   4    6.18   619.8    3.3      62.302
2014    9       25    18   9    6.18   619.8    3.3      62.308
2014    9       25    18  14    6.18   619.8    3.3      62.313
2014    9       25    18  19    6.18   619.8    3.3      62.317
2014    9       25    18  25    6.17   619.8    3.3      62.321
2014    9       25    18  30    6.17   619.8    3.3      62.324
2014    9       25    18  35    6.17   619.8    3.3      62.327
2014    9       25    18  40    6.17   619.8    3.3      62.329
2014    9       25    18  46    6.17   619.8    3.3      62.331
2014    9       25    18  51    6.16   619.7    3.3      62.331
2014    9       25    18  56    6.16   619.7    3.3      62.331
2014    9       25    19   1    6.16   619.7    3.3      62.331
2014    9       25    19   6    6.16   619.7    3.3      62.329
2014    9       25    19  12    6.16   619.7    3.3      62.327
2014    9       25    19  17    6.15   619.7    3.3      62.324
2014    9       25    19  22    6.15   619.7    3.3      62.321
2014    9       25    19  27    6.15   619.7    3.3      62.316
2014    9       25    19  33    6.15   619.7    3.3      62.312
2014    9       25    19  38    6.15   619.6    3.3      62.306
2014    9       25    19  43    6.14   619.6    3.3      62.300
2014    9       25    19  48    6.14   619.6    3.3      62.294
2014    9       25    19  54    6.14   619.6    3.3      62.286
2014    9       25    19  59    6.14   619.6    3.3      62.279
2014    9       25    20   4    6.14   619.6    3.3      62.270
2014    9       25    20   9    6.13   619.6    3.3      62.261
2014    9       25    20  14    6.13   619.5    3.3      62.251
2014    9       25    20  20    6.13   619.5    3.3      62.241
2014    9       25    20  25    6.13   619.5    3.3      62.230
2014    9       25    20  30    6.12   619.5    3.3      62.218
2014    9       25    20  35    6.12   619.5    3.3      62.206
2014    9       25    20  41    6.12   619.5    3.3      62.194
2014    9       25    20  46    6.12   619.4    3.3      62.181
2014    9       25    20  51    6.12   619.4    3.3      62.167
2014    9       25    20  56    6.11   619.4    3.3      62.153
2014    9       25    21   2    6.11   619.4    3.3      62.139
2014    9       25    21   7    6.11   619.4    3.3      62.124
2014    9       25    21  12    6.11   619.3    3.3      62.110
2014    9       25    21  17    6.11   619.3    3.3      62.095
2014    9       25    21  22    6.10   619.3    3.3      62.080
2014    9       25    21  28    6.10   619.3    3.3      62.065
2014    9       25    21  33    6.10   619.2    3.3      62.050
2014    9       25    21  38    6.10   619.2    3.3      62.035
2014    9       25    21  43    6.09   619.2    3.3      62.020
2014    9       25    21  49    6.09   619.1    3.3      62.005
2014    9       25    21  54    6.09   619.1    3.3      61.991
2014    9       25    21  59    6.09   619.1    3.3      61.977
2014    9       25    22   4    6.09   619.0    3.3      61.963
2014    9       25    22  10    6.08   619.0    3.3      61.949
2014    9       25    22  15    6.08   619.0    3.3      61.936
2014    9       25    22  20    6.08   618.9    3.3      61.923
2014    9       25    22  25    6.08   618.9    3.3      61.911
2014    9       25    22  31    6.07   618.9    3.3      61.900
2014    9       25    22  36    6.07   618.8    3.3      61.889
2014    9       25    22  41    6.07   618.8    3.3      61.879
2014    9       25    22  46    6.07   618.7    3.2      61.870
2014    9       25    22  51    6.07   618.7    3.2      61.861
2014    9       25    22  57    6.06   618.7    3.2      61.853
2014    9       25    23   2    6.06   618.6    3.2      61.846
2014    9       25    23   7    6.06   618.6    3.2      61.839
2014    9       25    23  12    6.06   618.5    3.2      61.833
2014    9       25    23  18    6.05   618.5    3.2      61.828
2014    9       25    23  23    6.05   618.5    3.2      61.825
2014    9       25    23  28    6.05   618.4    3.2      61.822
2014    9       25    23  33    6.05   618.4    3.2      61.820
2014    9       25    23  39    6.05   618.3    3.2      61.819
2014    9       25    23  44    6.04   618.3    3.2      61.819
2014    9       25    23  49    6.04   618.3    3.2      61.819
2014    9       25    23  54    6.04   618.2    3.2      61.821
2014    9       26     0   0    6.04   618.2    3.2      61.823
2014    9       26     0   5    6.04   618.1    3.2      61.827
2014    9       26     0  10    6.03   618.1    3.2      61.831
2014    9       26     0  15    6.03   618.0    3.2      61.836
2014    9       26     0  20    6.03   618.0    3.2      61.842
2014    9       26     0  26    6.03   618.0    3.2      61.847
2014    9       26     0  31    6.02   617.9    3.2      61.851
2014    9       26     0  36    6.02   617.9    3.2      61.855
2014    9       26     0  41    6.02   617.8    3.2      61.858
2014    9       26     0  47    6.02   617.8    3.2      61.860
2014    9       26     0  52    6.01   617.8    3.2      61.862
2014    9       26     0  57    6.01   617.7    3.2      61.863
2014    9       26     1   2    6.01   617.7    3.2      61.863
2014    9       26     1   8    6.01   617.6    3.2      61.862
2014    9       26     1  13    6.01   617.6    3.2      61.860
2014    9       26     1  18    6.00   617.5    3.2      61.857
2014    9       26     1  23    6.00   617.5    3.2      61.854
2014    9       26     1  28    6.00   617.4    3.2      61.849
2014    9       26     1  34    6.00   617.4    3.2      61.844
2014    9       26     1  39    5.99   617.3    3.2      61.837
2014    9       26     1  44    5.99   617.3    3.2      61.830
2014    9       26     1  49    5.99   617.3    3.2      61.822
2014    9       26     1  55    5.99   617.2    3.2      61.814
2014    9       26     2   0    5.98   617.2    3.2      61.804
2014    9       26     2   5    5.98   617.1    3.2      61.794
2014    9       26     2  10    5.98   617.1    3.2      61.783
2014    9       26     2  16    5.98   617.0    3.2      61.771
2014    9       26     2  21    5.98   617.0    3.2      61.759
2014    9       26     2  26    5.97   616.9    3.2      61.745
2014    9       26     2  31    5.97   616.8    3.2      61.731
2014    9       26     2  36    5.97   616.8    3.2      61.717
2014    9       26     2  42    5.97   616.7    3.2      61.702
2014    9       26     2  47    5.96   616.7    3.2      61.686
2014    9       26     2  52    5.96   616.6    3.2      61.669
2014    9       26     2  57    5.96   616.6    3.2      61.652
2014    9       26     3   3    5.96   616.5    3.2      61.635
2014    9       26     3   8    5.95   616.5    3.2      61.616
2014    9       26     3  13    5.95   616.4    3.2      61.597
2014    9       26     3  18    5.95   616.3    3.2      61.577
2014    9       26     3  24    5.95   616.3    3.2      61.557
2014    9       26     3  29    5.94   616.2    3.2      61.536
2014    9       26     3  34    5.94   616.1    3.2      61.515
2014    9       26     3  39    5.94   616.1    3.2      61.494
2014    9       26     3  44    5.94   616.0    3.2      61.472
2014    9       26     3  50    5.94   616.0    3.2      61.450
2014    9       26     3  55    5.93   615.9    3.2      61.427
2014    9       26     4   0    5.93   615.8    3.2      61.404
2014    9       26     4   5    5.93   615.7    3.2      61.381
2014    9       26     4  11    5.93   615.7    3.2      61.358
2014    9       26     4  16    5.92   615.6    3.2      61.335
2014    9       26     4  21    5.92   615.5    3.2      61.312
2014    9       26     4  26    5.92   615.5    3.2      61.289
2014    9       26     4  32    5.92   615.4    3.2      61.266
2014    9       26     4  37    5.91   615.3    3.2      61.243
2014    9       26     4  42    5.91   615.2    3.2      61.221
2014    9       26     4  47    5.91   615.2    3.2      61.199
2014    9       26     4  52    5.91   615.1    3.2      61.178
2014    9       26     4  58    5.90   615.0    3.2      61.157
2014    9       26     5   3    5.90   614.9    3.2      61.136
2014    9       26     5   8    5.90   614.8    3.2      61.116
2014    9       26     5  13    5.90   614.8    3.2      61.096
2014    9       26     5  19    5.89   614.7    3.2      61.077
2014    9       26     5  24    5.89   614.6    3.2      61.058
2014    9       26     5  29    5.89   614.5    3.2      61.040
2014    9       26     5  34    5.89   614.5    3.2      61.022
2014    9       26     5  40    5.88   614.4    3.2      61.005
2014    9       26     5  45    5.88   614.3    3.2      60.989
2014    9       26     5  50    5.88   614.2    3.2      60.973
2014    9       26     5  55    5.88   614.1    3.2      60.957
2014    9       26     6   0    5.87   614.0    3.2      60.942
2014    9       26     6   6    5.87   613.9    3.2      60.928
2014    9       26     6  11    5.87   613.9    3.2      60.914
2014    9       26     6  16    5.87   613.8    3.2      60.900
2014    9       26     6  21    5.87   613.7    3.2      60.886
2014    9       26     6  27    5.86   613.6    3.2      60.873
2014    9       26     6  32    5.86   613.5    3.2      60.860
2014    9       26     6  37    5.86   613.4    3.2      60.847
2014    9       26     6  42    5.86   613.3    3.2      60.835
2014    9       26     6  48    5.85   613.2    3.2      60.823
2014    9       26     6  53    5.85   613.1    3.2      60.811
2014    9       26     6  58    5.85   613.0    3.2      60.799
2014    9       26     7   3    5.85   613.0    3.2      60.787
2014    9       26     7   9    5.84   612.9    3.2      60.776
2014    9       26     7  14    5.84   612.8    3.2      60.765
2014    9       26     7  19    5.84   612.7    3.2      60.753
2014    9       26     7  24    5.84   612.6    3.2      60.742
2014    9       26     7  29    5.83   612.5    3.2      60.730
2014    9       26     7  35    5.83   612.4    3.2      60.718
2014    9       26     7  40    5.83   612.3    3.2      60.706
2014    9       26     7  45    5.83   612.2    3.2      60.693
2014    9       26     7  50    5.82   612.1    3.2      60.679
2014    9       26     7  56    5.82   612.0    3.2      60.665
2014    9       26     8   1    5.82   611.9    3.2      60.651
2014    9       26     8   6    5.82   611.8    3.2      60.636
2014    9       26     8  11    5.81   611.7    3.2      60.621
2014    9       26     8  17    5.81   611.6    3.2      60.606
2014    9       26     8  22    5.81   611.5    3.2      60.590
2014    9       26     8  27    5.81   611.4    3.2      60.574
2014    9       26     8  32    5.80   611.3    3.2      60.558
2014    9       26     8  37    5.80   611.2    3.2      60.542
2014    9       26     8  43    5.80   611.1    3.2      60.526
2014    9       26     8  48    5.80   611.0    3.2      60.509
2014    9       26     8  53    5.79   610.9    3.2      60.493
2014    9       26     8  58    5.79   610.7    3.2      60.476
2014    9       26     9   4    5.79   610.6    3.2      60.460
2014    9       26     9   9    5.79   610.5    3.2      60.444
2014    9       26     9  14    5.78   610.4    3.2      60.427
2014    9       26     9  19    5.78   610.3    3.2      60.412
2014    9       26     9  25    5.78   610.2    3.2      60.396
2014    9       26     9  30    5.78   610.1    3.2      60.381
2014    9       26     9  35    5.77   610.0    3.2      60.366
2014    9       26     9  40    5.77   609.9    3.2      60.351
2014    9       26     9  45    5.77   609.7    3.2      60.337
2014    9       26     9  51    5.77   609.6    3.2      60.323
2014    9       26     9  56    5.77   609.5    3.2      60.310
2014    9       26    10   1    5.76   609.4    3.2      60.297
2014    9       26    10   6    5.76   609.3    3.2      60.285
2014    9       26    10  12    5.76   609.2    3.2      60.272
2014    9       26    10  17    5.76   609.1    3.2      60.260
2014    9       26    10  22    5.75   609.0    3.2      60.249
2014    9       26    10  27    5.75   608.8    3.2      60.237
2014    9       26    10  33    5.75   608.7    3.2      60.225
2014    9       26    10  38    5.75   608.6    3.2      60.214
2014    9       26    10  43    5.74   608.5    3.2      60.202
2014    9       26    10  48    5.74   608.4    3.2      60.189
2014    9       26    10  53    5.74   608.3    3.2      60.176
2014    9       26    10  59    5.74   608.2    3.2      60.161
2014    9       26    11   4    5.73   608.1    3.2      60.147
2014    9       26    11   9    5.73   607.9    3.2      60.131
2014    9       26    11  14    5.73   607.8    3.2      60.115
2014    9       26    11  20    5.73   607.7    3.2      60.098
2014    9       26    11  25    5.72   607.6    3.2      60.081
2014    9       26    11  30    5.72   607.5    3.2      60.063
2014    9       26    11  35    5.72   607.4    3.2      60.046
2014    9       26    11  41    5.72   607.2    3.2      60.028
2014    9       26    11  46    5.72   607.1    3.2      60.009
2014    9       26    11  51    5.71   607.0    3.2      59.991
2014    9       26    11  56    5.71   606.9    3.2      59.972
2014    9       26    12   1    5.71   606.8    3.2      59.953
2014    9       26    12   7    5.71   606.7    3.2      59.933
2014    9       26    12  12    5.70   606.5    3.2      59.913
2014    9       26    12  17    5.70   606.4    3.2      59.893
2014    9       26    12  22    5.70   606.3    3.2      59.873
2014    9       26    12  28    5.70   606.2    3.2      59.852
2014    9       26    12  33    5.69   606.0    3.2      59.832
2014    9       26    12  38    5.69   605.9    3.2      59.811
2014    9       26    12  43    5.69   605.8    3.2      59.790
2014    9       26    12  49    5.69   605.7    3.1      59.768
2014    9       26    12  54    5.68   605.5    3.1      59.747
2014    9       26    12  59    5.68   605.4    3.1      59.725
2014    9       26    13   4    5.68   605.3    3.1      59.703
2014    9       26    13   9    5.68   605.2    3.1      59.680
2014    9       26    13  15    5.68   605.0    3.1      59.658
2014    9       26    13  20    5.67   604.9    3.1      59.635
2014    9       26    13  25    5.67   604.8    3.1      59.612
2014    9       26    13  30    5.67   604.6    3.1      59.588
2014    9       26    13  36    5.67   604.5    3.1      59.565
2014    9       26    13  41    5.66   604.4    3.1      59.541
2014    9       26    13  46    5.66   604.2    3.1      59.516
2014    9       26    13  51    5.66   604.1    3.1      59.492
2014    9       26    13  57    5.66   604.0    3.1      59.467
2014    9       26    14   2    5.65   603.8    3.1      59.441
2014    9       26    14   7    5.65   603.7    3.1      59.416
2014    9       26    14  12    5.65   603.5    3.1      59.390
2014    9       26    14  17    5.65   603.4    3.1      59.363
2014    9       26    14  23    5.64   603.3    3.1      59.337
2014    9       26    14  28    5.64   603.1    3.1      59.310
2014    9       26    14  33    5.64   603.0    3.1      59.282
2014    9       26    14  38    5.64   602.9    3.1      59.255
2014    9       26    14  44    5.64   602.7    3.1      59.227
2014    9       26    14  49    5.63   602.6    3.1      59.199
2014    9       26    14  54    5.63   602.4    3.1      59.171
2014    9       26    14  59    5.63   602.3    3.1      59.142
2014    9       26    15   5    5.63   602.2    3.1      59.114
2014    9       26    15  10    5.62   602.0    3.1      59.086
2014    9       26    15  15    5.62   601.9    3.1      59.057
2014    9       26    15  20    5.62   601.7    3.1      59.029
2014    9       26    15  25    5.62   601.6    3.1      59.001
2014    9       26    15  31    5.61   601.4    3.1      58.973
2014    9       26    15  36    5.61   601.3    3.1      58.945
2014    9       26    15  41    5.61   601.1    3.1      58.918
2014    9       26    15  46    5.61   601.0    3.1      58.891
2014    9       26    15  52    5.60   600.9    3.1      58.864
2014    9       26    15  57    5.60   600.7    3.1      58.838
2014    9       26    16   2    5.60   600.6    3.1      58.813
2014    9       26    16   7    5.60   600.4    3.1      58.788
2014    9       26    16  13    5.60   600.3    3.1      58.764
2014    9       26    16  18    5.59   600.1    3.1      58.741
2014    9       26    16  23    5.59   600.0    3.1      58.719
2014    9       26    16  28    5.59   599.8    3.1      58.697
2014    9       26    16  33    5.59   599.7    3.1      58.676
2014    9       26    16  39    5.58   599.6    3.1      58.657
2014    9       26    16  44    5.58   599.4    3.1      58.638
2014    9       26    16  49    5.58   599.3    3.1      58.620
2014    9       26    16  54    5.58   599.1    3.1      58.603
2014    9       26    17   0    5.57   599.0    3.1      58.587
2014    9       26    17   5    5.57   598.8    3.1      58.572
2014    9       26    17  10    5.57   598.7    3.1      58.558
2014    9       26    17  15    5.57   598.5    3.1      58.545
2014    9       26    17  21    5.57   598.4    3.1      58.532
2014    9       26    17  26    5.56   598.2    3.1      58.520
2014    9       26    17  31    5.56   598.1    3.1      58.510
2014    9       26    17  36    5.56   597.9    3.1      58.499
2014    9       26    17  41    5.56   597.8    3.1      58.490
2014    9       26    17  47    5.55   597.6    3.1      58.481
2014    9       26    17  52    5.55   597.5    3.1      58.472
2014    9       26    17  57    5.55   597.3    3.1      58.462
2014    9       26    18   2    5.55   597.2    3.1      58.452
2014    9       26    18   8    5.54   597.0    3.1      58.442
2014    9       26    18  13    5.54   596.9    3.1      58.431
2014    9       26    18  18    5.54   596.7    3.1      58.420
2014    9       26    18  23    5.54   596.6    3.1      58.409
2014    9       26    18  29    5.54   596.4    3.1      58.397
2014    9       26    18  34    5.53   596.3    3.1      58.386
2014    9       26    18  39    5.53   596.1    3.1      58.373
2014    9       26    18  44    5.53   596.0    3.1      58.361
2014    9       26    18  49    5.53   595.8    3.1      58.348
2014    9       26    18  55    5.52   595.6    3.1      58.336
2014    9       26    19   0    5.52   595.5    3.1      58.323
2014    9       26    19   5    5.52   595.3    3.1      58.310
2014    9       26    19  10    5.52   595.2    3.1      58.297
2014    9       26    19  16    5.52   595.0    3.1      58.284
2014    9       26    19  21    5.51   594.8    3.1      58.271
2014    9       26    19  26    5.51   594.7    3.1      58.258
2014    9       26    19  31    5.51   594.5    3.1      58.245
2014    9       26    19  37    5.51   594.4    3.1      58.232
2014    9       26    19  42    5.50   594.2    3.1      58.219
2014    9       26    19  47    5.50   594.0    3.1      58.206
2014    9       26    19  52    5.50   593.9    3.1      58.194
2014    9       26    19  57    5.50   593.7    3.1      58.181
2014    9       26    20   3    5.50   593.6    3.1      58.169
2014    9       26    20   8    5.49   593.4    3.1      58.157
2014    9       26    20  13    5.49   593.2    3.1      58.145
2014    9       26    20  18    5.49   593.1    3.1      58.132
2014    9       26    20  24    5.49   592.9    3.1      58.119
2014    9       26    20  29    5.49   592.8    3.1      58.105
2014    9       26    20  34    5.49   592.6    3.1      58.091
2014    9       26    20  39    5.48   592.5    3.1      58.077
2014    9       26    20  45    5.48   592.3    3.1      58.062
2014    9       26    20  50    5.48   592.2    3.1      58.046
2014    9       26    20  55    5.48   592.0    3.1      58.030
2014    9       26    21   0    5.48   591.9    3.1      58.013
2014    9       26    21   5    5.47   591.7    3.1      57.995
2014    9       26    21  11    5.47   591.6    3.1      57.977
2014    9       26    21  16    5.47   591.5    3.1      57.958
2014    9       26    21  21    5.47   591.3    3.1      57.938
2014    9       26    21  26    5.46   591.2    3.1      57.918
2014    9       26    21  32    5.46   591.0    3.1      57.898
2014    9       26    21  37    5.46   590.9    3.1      57.876
2014    9       26    21  42    5.46   590.7    3.1      57.854
2014    9       26    21  47    5.46   590.6    3.1      57.832
2014    9       26    21  53    5.45   590.5    3.1      57.808
2014    9       26    21  58    5.45   590.3    3.1      57.785
2014    9       26    22   3    5.45   590.2    3.1      57.761
2014    9       26    22   8    5.45   590.0    3.1      57.736
2014    9       26    22  13    5.45   589.9    3.1      57.710
2014    9       26    22  19    5.44   589.7    3.1      57.685
2014    9       26    22  24    5.44   589.6    3.1      57.658
2014    9       26    22  29    5.44   589.4    3.1      57.632
2014    9       26    22  34    5.44   589.3    3.1      57.605
2014    9       26    22  40    5.43   589.1    3.1      57.577
2014    9       26    22  45    5.43   589.0    3.1      57.549
2014    9       26    22  50    5.43   588.8    3.1      57.521
2014    9       26    22  55    5.43   588.7    3.1      57.493
2014    9       26    23   1    5.43   588.5    3.1      57.464
2014    9       26    23   6    5.42   588.4    3.1      57.435
2014    9       26    23  11    5.42   588.2    3.1      57.406
2014    9       26    23  16    5.42   588.1    3.1      57.377
2014    9       26    23  21    5.42   587.9    3.1      57.347
2014    9       26    23  27    5.41   587.7    3.1      57.317
2014    9       26    23  32    5.41   587.6    3.1      57.288
2014    9       26    23  37    5.41   587.4    3.1      57.258
2014    9       26    23  42    5.41   587.3    3.1      57.228
2014    9       26    23  48    5.40   587.1    3.1      57.198
2014    9       26    23  53    5.40   586.9    3.1      57.167
2014    9       26    23  58    5.40   586.8    3.1      57.137
2014    9       27     0   3    5.40   586.6    3.1      57.107
2014    9       27     0   9    5.40   586.4    3.1      57.077
2014    9       27     0  14    5.39   586.3    3.1      57.047
2014    9       27     0  19    5.39   586.1    3.1      57.017
2014    9       27     0  24    5.39   585.9    3.1      56.987
2014    9       27     0  29    5.39   585.7    3.1      56.957
2014    9       27     0  35    5.38   585.5    3.1      56.927
2014    9       27     0  40    5.38   585.4    3.1      56.897
2014    9       27     0  45    5.38   585.2    3.1      56.868
2014    9       27     0  50    5.38   585.0    3.1      56.838
2014    9       27     0  56    5.37   584.8    3.1      56.809
2014    9       27     1   1    5.37   584.6    3.1      56.781
2014    9       27     1   6    5.37   584.4    3.1      56.752
2014    9       27     1  11    5.37   584.2    3.1      56.725
2014    9       27     1  17    5.36   584.0    3.1      56.697
2014    9       27     1  22    5.36   583.8    3.1      56.671
2014    9       27     1  27    5.36   583.6    3.1      56.645
2014    9       27     1  32    5.36   583.4    3.1      56.620
2014    9       27     1  37    5.36   583.2    3.1      56.595
2014    9       27     1  43    5.35   583.0    3.1      56.572
2014    9       27     1  48    5.35   582.8    3.1      56.549
2014    9       27     1  53    5.35   582.6    3.1      56.528
2014    9       27     1  58    5.35   582.4    3.1      56.508
2014    9       27     2   4    5.35   582.2    3.1      56.489
2014    9       27     2   9    5.34   582.1    3.1      56.471
2014    9       27     2  14    5.34   581.9    3.1      56.455
2014    9       27     2  19    5.34   581.7    3.1      56.440
2014    9       27     2  25    5.34   581.5    3.1      56.426
2014    9       27     2  30    5.34   581.3    3.1      56.414
2014    9       27     2  35    5.34   581.1    3.1      56.403
2014    9       27     2  40    5.33   580.9    3.1      56.394
2014    9       27     2  45    5.33   580.7    3.1      56.386
2014    9       27     2  51    5.33   580.5    3.1      56.379
2014    9       27     2  56    5.33   580.4    3.1      56.373
2014    9       27     3   1    5.33   580.2    3.1      56.367
2014    9       27     3   6    5.33   580.0    3.1      56.361
2014    9       27     3  12    5.32   579.8    3.1      56.355
2014    9       27     3  17    5.32   579.7    3.1      56.350
2014    9       27     3  22    5.32   579.5    3.1      56.344
2014    9       27     3  27    5.32   579.3    3.1      56.338
2014    9       27     3  33    5.32   579.1    3.1      56.331
2014    9       27     3  38    5.32   579.0    3.1      56.325
2014    9       27     3  43    5.31   578.8    3.1      56.318
2014    9       27     3  48    5.31   578.6    3.1      56.310
2014    9       27     3  53    5.31   578.5    3.2      56.303
2014    9       27     3  59    5.31   578.3    3.2      56.294
2014    9       27     4   4    5.31   578.1    3.2      56.285
2014    9       27     4   9    5.31   578.0    3.2      56.276
2014    9       27     4  14    5.30   577.8    3.2      56.266
2014    9       27     4  20    5.30   577.6    3.2      56.255
2014    9       27     4  25    5.30   577.5    3.2      56.244
2014    9       27     4  30    5.30   577.3    3.2      56.232
2014    9       27     4  35    5.30   577.1    3.2      56.219
2014    9       27     4  41    5.29   577.0    3.2      56.206
2014    9       27     4  46    5.29   576.8    3.2      56.193
2014    9       27     4  51    5.29   576.6    3.2      56.178
2014    9       27     4  56    5.29   576.4    3.2      56.164
2014    9       27     5   1    5.29   576.3    3.2      56.149
2014    9       27     5   7    5.28   576.1    3.2      56.133
2014    9       27     5  12    5.28   575.9    3.2      56.118
2014    9       27     5  17    5.28   575.7    3.2      56.102
2014    9       27     5  22    5.28   575.5    3.2      56.086
2014    9       27     5  28    5.28   575.4    3.2      56.071
2014    9       27     5  33    5.27   575.2    3.2      56.054
2014    9       27     5  38    5.27   575.0    3.2      56.038
2014    9       27     5  43    5.27   574.8    3.2      56.023
2014    9       27     5  49    5.27   574.6    3.2      56.007
2014    9       27     5  54    5.27   574.4    3.2      55.992
2014    9       27     5  59    5.26   574.3    3.2      55.977
2014    9       27     6   4    5.26   574.1    3.2      55.962
2014    9       27     6   9    5.26   573.9    3.2      55.946
2014    9       27     6  15    5.26   573.7    3.2      55.931
2014    9       27     6  20    5.26   573.6    3.2      55.914
2014    9       27     6  25    5.25   573.4    3.2      55.896
2014    9       27     6  30    5.25   573.2    3.2      55.878
2014    9       27     6  36    5.25   573.0    3.2      55.859
2014    9       27     6  41    5.25   572.9    3.2      55.839
2014    9       27     6  46    5.25   572.7    3.2      55.819
2014    9       27     6  51    5.24   572.5    3.2      55.798
2014    9       27     6  57    5.24   572.3    3.2      55.776
2014    9       27     7   2    5.24   572.1    3.2      55.753
2014    9       27     7   7    5.24   572.0    3.2      55.730
2014    9       27     7  12    5.24   571.8    3.2      55.706
2014    9       27     7  17    5.23   571.6    3.2      55.681
2014    9       27     7  23    5.23   571.4    3.2      55.657
2014    9       27     7  28    5.23   571.2    3.2      55.631
2014    9       27     7  33    5.23   571.0    3.2      55.605
2014    9       27     7  38    5.23   570.9    3.2      55.579
2014    9       27     7  44    5.22   570.7    3.2      55.552
2014    9       27     7  49    5.22   570.5    3.2      55.525
2014    9       27     7  54    5.22   570.3    3.2      55.498
2014    9       27     7  59    5.22   570.1    3.2      55.471
2014    9       27     8   5    5.22   569.9    3.2      55.443
2014    9       27     8  10    5.21   569.7    3.2      55.416
2014    9       27     8  15    5.21   569.5    3.2      55.389
2014    9       27     8  20    5.21   569.3    3.2      55.362
2014    9       27     8  25    5.21   569.1    3.2      55.335
2014    9       27     8  31    5.21   568.9    3.2      55.308
2014    9       27     8  36    5.20   568.7    3.2      55.282
2014    9       27     8  41    5.20   568.5    3.2      55.256
2014    9       27     8  46    5.20   568.3    3.2      55.230
2014    9       27     8  52    5.20   568.2    3.2      55.205
2014    9       27     8  57    5.20   568.0    3.2      55.180
2014    9       27     9   2    5.20   567.8    3.2      55.156
2014    9       27     9   7    5.19   567.6    3.2      55.132
2014    9       27     9  13    5.19   567.4    3.2      55.108
2014    9       27     9  18    5.19   567.2    3.2      55.085
2014    9       27     9  23    5.19   567.0    3.2      55.062
2014    9       27     9  28    5.19   566.8    3.2      55.039
2014    9       27     9  33    5.18   566.6    3.2      55.017
2014    9       27     9  39    5.18   566.4    3.2      54.995
2014    9       27     9  44    5.18   566.2    3.2      54.973
2014    9       27     9  49    5.18   566.0    3.2      54.951
2014    9       27     9  54    5.18   565.8    3.2      54.929
2014    9       27    10   0    5.17   565.6    3.2      54.907
2014    9       27    10   5    5.17   565.4    3.2      54.885
2014    9       27    10  10    5.17   565.1    3.2      54.863
2014    9       27    10  15    5.17   564.9    3.2      54.841
2014    9       27    10  20    5.17   564.7    3.2      54.819
2014    9       27    10  26    5.16   564.5    3.2      54.797
2014    9       27    10  31    5.16   564.3    3.2      54.775
2014    9       27    10  36    5.16   564.1    3.2      54.753
2014    9       27    10  41    5.16   563.9    3.2      54.731
2014    9       27    10  47    5.16   563.6    3.2      54.710
2014    9       27    10  52    5.15   563.4    3.2      54.688
2014    9       27    10  57    5.15   563.2    3.2      54.667
2014    9       27    11   2    5.15   563.0    3.2      54.646
2014    9       27    11   8    5.15   562.8    3.2      54.626
2014    9       27    11  13    5.15   562.5    3.2      54.606
2014    9       27    11  18    5.15   562.3    3.2      54.586
2014    9       27    11  23    5.14   562.1    3.2      54.568
2014    9       27    11  29    5.14   561.9    3.2      54.550
2014    9       27    11  34    5.14   561.6    3.2      54.533
2014    9       27    11  39    5.14   561.4    3.2      54.517
2014    9       27    11  44    5.14   561.2    3.2      54.501
2014    9       27    11  49    5.13   561.0    3.2      54.487
2014    9       27    11  55    5.13   560.7    3.2      54.473
2014    9       27    12   0    5.13   560.5    3.2      54.459
2014    9       27    12   5    5.13   560.3    3.2      54.447
2014    9       27    12  10    5.13   560.1    3.2      54.434
2014    9       27    12  16    5.13   559.8    3.2      54.422
2014    9       27    12  21    5.12   559.6    3.2      54.410
2014    9       27    12  26    5.12   559.4    3.2      54.399
2014    9       27    12  31    5.12   559.2    3.2      54.388
2014    9       27    12  37    5.12   559.0    3.2      54.377
2014    9       27    12  42    5.12   558.8    3.2      54.365
2014    9       27    12  47    5.12   558.5    3.2      54.354
2014    9       27    12  52    5.12   558.3    3.2      54.343
2014    9       27    12  57    5.11   558.1    3.2      54.332
2014    9       27    13   3    5.11   557.9    3.2      54.321
2014    9       27    13   8    5.11   557.7    3.2      54.309
2014    9       27    13  13    5.11   557.5    3.2      54.297
2014    9       27    13  18    5.11   557.3    3.2      54.285
2014    9       27    13  24    5.11   557.1    3.2      54.273
2014    9       27    13  29    5.10   556.9    3.2      54.260
2014    9       27    13  34    5.10   556.6    3.2      54.247
2014    9       27    13  39    5.10   556.4    3.2      54.234
2014    9       27    13  45    5.10   556.2    3.2      54.221
2014    9       27    13  50    5.10   556.0    3.2      54.207
2014    9       27    13  55    5.10   555.8    3.2      54.193
2014    9       27    14   0    5.10   555.6    3.2      54.178
2014    9       27    14   5    5.09   555.4    3.2      54.163
2014    9       27    14  11    5.09   555.2    3.2      54.148
2014    9       27    14  16    5.09   554.9    3.2      54.132
2014    9       27    14  21    5.09   554.7    3.2      54.116
2014    9       27    14  26    5.09   554.5    3.2      54.100
2014    9       27    14  32    5.09   554.3    3.2      54.083
2014    9       27    14  37    5.08   554.1    3.2      54.065
2014    9       27    14  42    5.08   553.9    3.2      54.047
2014    9       27    14  47    5.08   553.7    3.2      54.029
2014    9       27    14  53    5.08   553.5    3.2      54.010
2014    9       27    14  58    5.08   553.3    3.2      53.990
2014    9       27    15   3    5.08   553.0    3.2      53.970
2014    9       27    15   8    5.07   552.8    3.2      53.950
2014    9       27    15  13    5.07   552.6    3.2      53.929
2014    9       27    15  19    5.07   552.4    3.2      53.908
2014    9       27    15  24    5.07   552.2    3.2      53.886
2014    9       27    15  29    5.07   552.0    3.2      53.864
2014    9       27    15  34    5.07   551.8    3.2      53.841
2014    9       27    15  40    5.06   551.6    3.2      53.818
2014    9       27    15  45    5.06   551.4    3.2      53.795
2014    9       27    15  50    5.06   551.1    3.2      53.771
2014    9       27    15  55    5.06   550.9    3.2      53.747
2014    9       27    16   1    5.06   550.7    3.2      53.723
2014    9       27    16   6    5.06   550.5    3.2      53.698
2014    9       27    16  11    5.06   550.3    3.2      53.674
2014    9       27    16  16    5.05   550.1    3.2      53.649
2014    9       27    16  21    5.05   549.8    3.2      53.624
2014    9       27    16  27    5.05   549.6    3.2      53.599
2014    9       27    16  32    5.05   549.4    3.2      53.574
2014    9       27    16  37    5.05   549.2    3.3      53.549
2014    9       27    16  42    5.05   549.0    3.3      53.524
2014    9       27    16  48    5.04   548.7    3.3      53.499
2014    9       27    16  53    5.04   548.5    3.3      53.475
2014    9       27    16  58    5.04   548.3    3.3      53.451
2014    9       27    17   3    5.04   548.1    3.3      53.427
2014    9       27    17   9    5.04   547.9    3.3      53.403
2014    9       27    17  14    5.04   547.6    3.3      53.380
2014    9       27    17  19    5.04   547.4    3.3      53.358
2014    9       27    17  24    5.03   547.2    3.3      53.336
2014    9       27    17  29    5.03   547.0    3.3      53.314
2014    9       27    17  35    5.03   546.8    3.3      53.294
2014    9       27    17  40    5.03   546.5    3.3      53.273
2014    9       27    17  45    5.03   546.3    3.3      53.253
2014    9       27    17  50    5.03   546.1    3.3      53.234
2014    9       27    17  56    5.03   545.9    3.3      53.215
2014    9       27    18   1    5.03   545.7    3.3      53.197
2014    9       27    18   6    5.02   545.5    3.3      53.180
2014    9       27    18  11    5.02   545.2    3.3      53.162
2014    9       27    18  17    5.02   545.0    3.3      53.145
2014    9       27    18  22    5.02   544.8    3.3      53.129
2014    9       27    18  27    5.02   544.6    3.3      53.113
2014    9       27    18  32    5.02   544.4    3.3      53.097
2014    9       27    18  37    5.02   544.2    3.3      53.081
2014    9       27    18  43    5.02   544.0    3.3      53.066
2014    9       27    18  48    5.02   543.8    3.3      53.050
2014    9       27    18  53    5.01   543.5    3.3      53.034
2014    9       27    18  58    5.01   543.3    3.3      53.018
2014    9       27    19   4    5.01   543.1    3.3      53.002
2014    9       27    19   9    5.01   542.9    3.3      52.985
2014    9       27    19  14    5.01   542.7    3.3      52.968
2014    9       27    19  19    5.01   542.5    3.3      52.951
2014    9       27    19  25    5.01   542.3    3.3      52.933
2014    9       27    19  30    5.01   542.0    3.3      52.915
2014    9       27    19  35    5.01   541.8    3.3      52.896
2014    9       27    19  40    5.00   541.6    3.3      52.877
2014    9       27    19  45    5.00   541.4    3.3      52.857
2014    9       27    19  51    5.00   541.2    3.3      52.837
2014    9       27    19  56    5.00   541.0    3.3      52.816
2014    9       27    20   1    5.00   540.8    3.3      52.795
2014    9       27    20   6    5.00   540.5    3.3      52.773
2014    9       27    20  12    5.00   540.3    3.3      52.750
2014    9       27    20  17    5.00   540.1    3.3      52.727
2014    9       27    20  22    5.00   539.9    3.3      52.704
2014    9       27    20  27    4.99   539.7    3.3      52.680
2014    9       27    20  33    4.99   539.5    3.3      52.656
2014    9       27    20  38    4.99   539.3    3.3      52.631
2014    9       27    20  43    4.99   539.0    3.3      52.605
2014    9       27    20  48    4.99   538.8    3.3      52.579
2014    9       27    20  53    4.99   538.6    3.3      52.553
2014    9       27    20  59    4.99   538.4    3.3      52.526
2014    9       27    21   4    4.99   538.2    3.3      52.498
2014    9       27    21   9    4.99   538.0    3.3      52.471
2014    9       27    21  14    4.98   537.8    3.3      52.442
2014    9       27    21  20    4.98   537.5    3.3      52.413
2014    9       27    21  25    4.98   537.3    3.3      52.384
2014    9       27    21  30    4.98   537.1    3.3      52.355
2014    9       27    21  35    4.98   536.9    3.3      52.325
2014    9       27    21  41    4.98   536.7    3.3      52.294
2014    9       27    21  46    4.98   536.4    3.3      52.264
2014    9       27    21  51    4.98   536.2    3.3      52.232
2014    9       27    21  56    4.98   536.0    3.3      52.201
2014    9       27    22   1    4.97   535.8    3.3      52.169
2014    9       27    22   7    4.97   535.6    3.3      52.138
2014    9       27    22  12    4.97   535.3    3.3      52.106
2014    9       27    22  17    4.97   535.1    3.3      52.074
2014    9       27    22  22    4.97   534.9    3.3      52.041
2014    9       27    22  28    4.97   534.7    3.3      52.009
2014    9       27    22  33    4.97   534.4    3.3      51.977
2014    9       27    22  38    4.97   534.2    3.3      51.945
2014    9       27    22  43    4.97   534.0    3.3      51.913
2014    9       27    22  49    4.96   533.8    3.3      51.882
2014    9       27    22  54    4.96   533.5    3.3      51.850
2014    9       27    22  59    4.96   533.3    3.3      51.819
2014    9       27    23   4    4.96   533.1    3.3      51.788
2014    9       27    23   9    4.96   532.9    3.3      51.758
2014    9       27    23  15    4.96   532.6    3.3      51.728
2014    9       27    23  20    4.96   532.4    3.3      51.698
2014    9       27    23  25    4.96   532.2    3.3      51.668
2014    9       27    23  30    4.96   532.0    3.3      51.639
2014    9       27    23  36    4.96   531.7    3.3      51.610
2014    9       27    23  41    4.95   531.5    3.3      51.581
2014    9       27    23  46    4.95   531.3    3.3      51.553
2014    9       27    23  51    4.95   531.1    3.3      51.525
2014    9       27    23  57    4.95   530.9    3.4      51.497
2014    9       28     0   2    4.95   530.6    3.4      51.469
2014    9       28     0   7    4.95   530.4    3.4      51.442
2014    9       28     0  12    4.95   530.2    3.4      51.414
2014    9       28     0  17    4.95   530.0    3.4      51.387
2014    9       28     0  23    4.95   529.7    3.4      51.359
2014    9       28     0  28    4.95   529.5    3.4      51.332
2014    9       28     0  33    4.95   529.3    3.4      51.305
2014    9       28     0  38    4.95   529.1    3.4      51.278
2014    9       28     0  44    4.94   528.9    3.4      51.251
2014    9       28     0  49    4.94   528.6    3.4      51.223
2014    9       28     0  54    4.94   528.4    3.4      51.196
2014    9       28     0  59    4.94   528.2    3.4      51.169
2014    9       28     1   5    4.94   528.0    3.4      51.141
2014    9       28     1  10    4.94   527.8    3.4      51.114
2014    9       28     1  15    4.94   527.5    3.4      51.086
2014    9       28     1  20    4.94   527.3    3.4      51.059
2014    9       28     1  25    4.94   527.1    3.4      51.031
2014    9       28     1  31    4.94   526.9    3.4      51.003
2014    9       28     1  36    4.94   526.7    3.4      50.975
2014    9       28     1  41    4.94   526.4    3.4      50.947
2014    9       28     1  46    4.93   526.2    3.4      50.919
2014    9       28     1  52    4.93   526.0    3.4      50.891
2014    9       28     1  57    4.93   525.8    3.4      50.863
2014    9       28     2   2    4.93   525.6    3.4      50.835
2014    9       28     2   7    4.93   525.4    3.4      50.806
2014    9       28     2  13    4.93   525.2    3.4      50.778
2014    9       28     2  18    4.93   524.9    3.4      50.749
2014    9       28     2  23    4.93   524.7    3.4      50.720
2014    9       28     2  28    4.93   524.5    3.4      50.691
2014    9       28     2  33    4.93   524.3    3.4      50.662
2014    9       28     2  39    4.93   524.1    3.4      50.633
2014    9       28     2  44    4.93   523.9    3.4      50.604
2014    9       28     2  49    4.93   523.7    3.4      50.574
2014    9       28     2  54    4.93   523.5    3.4      50.544
2014    9       28     3   0    4.93   523.2    3.4      50.514
2014    9       28     3   5    4.92   523.0    3.4      50.484
2014    9       28     3  10    4.92   522.8    3.4      50.454
2014    9       28     3  15    4.92   522.6    3.4      50.423
2014    9       28     3  21    4.92   522.4    3.4      50.392
2014    9       28     3  26    4.92   522.2    3.4      50.361
2014    9       28     3  31    4.92   522.0    3.4      50.330
2014    9       28     3  36    4.92   521.8    3.5      50.298
2014    9       28     3  41    4.92   521.5    3.5      50.266
2014    9       28     3  47    4.92   521.3    3.5      50.234
2014    9       28     3  52    4.92   521.1    3.5      50.202
2014    9       28     3  57    4.92   520.9    3.5      50.169
2014    9       28     4   2    4.92   520.7    3.5      50.136
2014    9       28     4   8    4.92   520.5    3.5      50.103
2014    9       28     4  13    4.92   520.2    3.5      50.071
2014    9       28     4  18    4.92   520.0    3.5      50.038
2014    9       28     4  23    4.91   519.8    3.5      50.005
2014    9       28     4  29    4.91   519.6    3.5      49.971
2014    9       28     4  34    4.91   519.4    3.5      49.938
2014    9       28     4  39    4.91   519.2    3.5      49.905
2014    9       28     4  44    4.91   518.9    3.5      49.873
2014    9       28     4  49    4.91   518.7    3.5      49.840
2014    9       28     4  55    4.91   518.5    3.5      49.807
2014    9       28     5   0    4.91   518.3    3.5      49.775
2014    9       28     5   5    4.91   518.1    3.5      49.743
2014    9       28     5  10    4.91   517.9    3.5      49.711
2014    9       28     5  16    4.91   517.6    3.5      49.679
2014    9       28     5  21    4.91   517.4    3.5      49.648
2014    9       28     5  26    4.91   517.2    3.5      49.617
2014    9       28     5  31    4.91   517.0    3.5      49.586
2014    9       28     5  37    4.91   516.8    3.5      49.555
2014    9       28     5  42    4.91   516.6    3.5      49.524
2014    9       28     5  47    4.91   516.4    3.5      49.494
2014    9       28     5  52    4.91   516.2    3.5      49.464
2014    9       28     5  57    4.91   516.0    3.5      49.434
2014    9       28     6   3    4.91   515.7    3.5      49.404
2014    9       28     6   8    4.91   515.5    3.5      49.374
2014    9       28     6  13    4.90   515.3    3.5      49.344
2014    9       28     6  18    4.90   515.1    3.5      49.315
2014    9       28     6  24    4.90   514.9    3.5      49.285
2014    9       28     6  29    4.90   514.7    3.5      49.255
2014    9       28     6  34    4.90   514.5    3.5      49.226
2014    9       28     6  39    4.90   514.3    3.5      49.196
2014    9       28     6  45    4.90   514.1    3.5      49.167
2014    9       28     6  50    4.90   513.9    3.5      49.137
2014    9       28     6  55    4.90   513.7    3.5      49.107
2014    9       28     7   0    4.90   513.5    3.6      49.077
2014    9       28     7   5    4.90   513.3    3.6      49.047
2014    9       28     7  11    4.90   513.0    3.6      49.017
2014    9       28     7  16    4.90   512.8    3.6      48.987
2014    9       28     7  21    4.90   512.6    3.6      48.957
2014    9       28     7  26    4.90   512.4    3.6      48.926
2014    9       28     7  32    4.90   512.2    3.6      48.896
2014    9       28     7  37    4.90   512.0    3.6      48.865
2014    9       28     7  42    4.90   511.8    3.6      48.835
2014    9       28     7  47    4.90   511.6    3.6      48.804
2014    9       28     7  53    4.90   511.4    3.6      48.773
2014    9       28     7  58    4.90   511.2    3.6      48.743
2014    9       28     8   3    4.90   511.0    3.6      48.712
2014    9       28     8   8    4.89   510.8    3.6      48.681
2014    9       28     8  13    4.89   510.6    3.6      48.650
2014    9       28     8  19    4.89   510.4    3.6      48.619
2014    9       28     8  24    4.89   510.2    3.6      48.588
2014    9       28     8  29    4.89   509.9    3.6      48.557
2014    9       28     8  34    4.89   509.7    3.6      48.526
2014    9       28     8  40    4.89   509.5    3.6      48.495
2014    9       28     8  45    4.89   509.3    3.6      48.465
2014    9       28     8  50    4.89   509.1    3.6      48.434
2014    9       28     8  55    4.89   508.9    3.6      48.403
2014    9       28     9   1    4.89   508.7    3.6      48.373
2014    9       28     9   6    4.89   508.5    3.6      48.342
2014    9       28     9  11    4.89   508.3    3.6      48.311
2014    9       28     9  16    4.89   508.1    3.6      48.281
2014    9       28     9  21    4.89   507.9    3.6      48.251
2014    9       28     9  27    4.89   507.7    3.6      48.220
2014    9       28     9  32    4.89   507.5    3.6      48.190
2014    9       28     9  37    4.89   507.3    3.6      48.160
2014    9       28     9  42    4.89   507.1    3.6      48.130
2014    9       28     9  48    4.89   506.9    3.6      48.100
2014    9       28     9  53    4.88   506.7    3.6      48.070
2014    9       28     9  58    4.88   506.5    3.6      48.041
2014    9       28    10   3    4.88   506.3    3.6      48.011
2014    9       28    10   9    4.88   506.1    3.6      47.982
2014    9       28    10  14    4.88   505.9    3.6      47.952
2014    9       28    10  19    4.88   505.7    3.6      47.923
2014    9       28    10  24    4.88   505.5    3.6      47.894
2014    9       28    10  30    4.88   505.3    3.6      47.864
2014    9       28    10  35    4.88   505.1    3.6      47.835
2014    9       28    10  40    4.88   504.9    3.6      47.806
2014    9       28    10  45    4.88   504.7    3.7      47.777
2014    9       28    10  50    4.88   504.5    3.7      47.748
2014    9       28    10  56    4.88   504.3    3.7      47.719
2014    9       28    11   1    4.88   504.1    3.7      47.690
2014    9       28    11   6    4.88   503.9    3.7      47.661
2014    9       28    11  11    4.88   503.7    3.7      47.632
2014    9       28    11  17    4.88   503.5    3.7      47.604
2014    9       28    11  22    4.88   503.3    3.7      47.575
2014    9       28    11  27    4.88   503.1    3.7      47.546
2014    9       28    11  32    4.88   502.9    3.7      47.517
2014    9       28    11  38    4.87   502.7    3.7      47.489
2014    9       28    11  43    4.87   502.5    3.7      47.460
2014    9       28    11  48    4.87   502.3    3.7      47.431
2014    9       28    11  53    4.87   502.1    3.7      47.403
2014    9       28    11  58    4.87   501.9    3.7      47.374
2014    9       28    12   4    4.87   501.7    3.7      47.346
2014    9       28    12   9    4.87   501.4    3.7      47.317
2014    9       28    12  14    4.87   501.2    3.7      47.289
2014    9       28    12  19    4.87   501.0    3.7      47.260
2014    9       28    12  25    4.87   500.8    3.7      47.232
2014    9       28    12  30    4.87   500.6    3.7      47.204
2014    9       28    12  35    4.87   500.4    3.7      47.176
2014    9       28    12  40    4.87   500.2    3.7      47.148
2014    9       28    12  46    4.87   500.0    3.7      47.120
2014    9       28    12  51    4.87   499.8    3.7      47.092
2014    9       28    12  56    4.87   499.6    3.7      47.064
2014    9       28    13   1    4.87   499.4    3.7      47.036
2014    9       28    13   6    4.87   499.2    3.7      47.009
2014    9       28    13  12    4.87   499.0    3.7      46.981
2014    9       28    13  17    4.87   498.8    3.7      46.954
2014    9       28    13  22    4.87   498.6    3.7      46.926
2014    9       28    13  27    4.87   498.4    3.7      46.899
2014    9       28    13  33    4.87   498.2    3.7      46.872
2014    9       28    13  38    4.87   498.0    3.7      46.845
2014    9       28    13  43    4.86   497.8    3.7      46.818
2014    9       28    13  48    4.86   497.6    3.7      46.791
2014    9       28    13  54    4.86   497.4    3.7      46.764
2014    9       28    13  59    4.86   497.2    3.7      46.737
2014    9       28    14   4    4.86   497.0    3.7      46.711
2014    9       28    14   9    4.86   496.8    3.7      46.684
2014    9       28    14  14    4.86   496.6    3.7      46.658
2014    9       28    14  20    4.86   496.4    3.8      46.631
2014    9       28    14  25    4.86   496.2    3.8      46.605
2014    9       28    14  30    4.86   496.0    3.8      46.578
2014    9       28    14  35    4.86   495.8    3.8      46.552
2014    9       28    14  41    4.86   495.6    3.8      46.526
2014    9       28    14  46    4.86   495.4    3.8      46.500
2014    9       28    14  51    4.86   495.3    3.8      46.473
2014    9       28    14  56    4.86   495.1    3.8      46.447
2014    9       28    15   1    4.86   494.9    3.8      46.421
2014    9       28    15   7    4.86   494.7    3.8      46.395
2014    9       28    15  12    4.86   494.5    3.8      46.369
2014    9       28    15  17    4.86   494.3    3.8      46.343
2014    9       28    15  22    4.86   494.1    3.8      46.317
2014    9       28    15  28    4.86   493.9    3.8      46.291
2014    9       28    15  33    4.86   493.7    3.8      46.265
2014    9       28    15  38    4.86   493.5    3.8      46.239
2014    9       28    15  43    4.86   493.3    3.8      46.213
2014    9       28    15  49    4.86   493.1    3.8      46.188
2014    9       28    15  54    4.86   492.9    3.8      46.162
2014    9       28    15  59    4.86   492.7    3.8      46.136
2014    9       28    16   4    4.86   492.5    3.8      46.111
2014    9       28    16   9    4.86   492.3    3.8      46.085
2014    9       28    16  15    4.86   492.1    3.8      46.059
2014    9       28    16  20    4.86   491.9    3.8      46.034
2014    9       28    16  25    4.86   491.7    3.8      46.008
2014    9       28    16  30    4.86   491.6    3.8      45.983
2014    9       28    16  36    4.86   491.4    3.8      45.957
2014    9       28    16  41    4.86   491.2    3.8      45.931
2014    9       28    16  46    4.86   491.0    3.8      45.906
2014    9       28    16  51    4.86   490.8    3.8      45.880
2014    9       28    16  57    4.86   490.6    3.8      45.855
2014    9       28    17   2    4.86   490.4    3.8      45.829
2014    9       28    17   7    4.85   490.2    3.8      45.803
2014    9       28    17  12    4.85   490.0    3.8      45.777
2014    9       28    17  18    4.85   489.8    3.8      45.752
2014    9       28    17  23    4.85   489.6    3.8      45.726
2014    9       28    17  28    4.85   489.4    3.8      45.700
2014    9       28    17  33    4.85   489.2    3.8      45.673
2014    9       28    17  38    4.85   489.1    3.9      45.647
2014    9       28    17  44    4.85   488.9    3.9      45.621
2014    9       28    17  49    4.85   488.7    3.9      45.594
2014    9       28    17  54    4.85   488.5    3.9      45.568
2014    9       28    17  59    4.85   488.3    3.9      45.541
2014    9       28    18   5    4.85   488.1    3.9      45.514
2014    9       28    18  10    4.85   487.9    3.9      45.487
2014    9       28    18  15    4.85   487.7    3.9      45.460
2014    9       28    18  20    4.85   487.5    3.9      45.433
2014    9       28    18  26    4.85   487.3    3.9      45.406
2014    9       28    18  31    4.85   487.1    3.9      45.378
2014    9       28    18  36    4.85   486.9    3.9      45.350
2014    9       28    18  41    4.85   486.7    3.9      45.322
2014    9       28    18  46    4.85   486.5    3.9      45.294
2014    9       28    18  52    4.85   486.4    3.9      45.265
2014    9       28    18  57    4.85   486.2    3.9      45.236
2014    9       28    19   2    4.85   486.0    3.9      45.208
2014    9       28    19   7    4.85   485.8    3.9      45.179
2014    9       28    19  13    4.85   485.6    3.9      45.150
2014    9       28    19  18    4.85   485.4    3.9      45.120
2014    9       28    19  23    4.85   485.2    3.9      45.090
2014    9       28    19  28    4.85   485.0    3.9      45.061
2014    9       28    19  34    4.85   484.8    3.9      45.031
2014    9       28    19  39    4.85   484.6    3.9      45.001
2014    9       28    19  44    4.85   484.4    3.9      44.971
2014    9       28    19  49    4.84   484.2    3.9      44.941
2014    9       28    19  54    4.84   484.0    3.9      44.910
2014    9       28    20   0    4.84   483.8    3.9      44.880
2014    9       28    20   5    4.84   483.6    3.9      44.850
2014    9       28    20  10    4.84   483.4    3.9      44.819
2014    9       28    20  15    4.84   483.2    3.9      44.789
2014    9       28    20  21    4.84   483.0    3.9      44.759
2014    9       28    20  26    4.84   482.8    3.9      44.728
2014    9       28    20  31    4.84   482.6    3.9      44.698
2014    9       28    20  36    4.84   482.4    3.9      44.668
2014    9       28    20  42    4.84   482.2    3.9      44.637
2014    9       28    20  47    4.84   482.1    3.9      44.607
2014    9       28    20  52    4.84   481.9    3.9      44.577
2014    9       28    20  57    4.84   481.7    3.9      44.547
2014    9       28    21   2    4.84   481.5    3.9      44.517
2014    9       28    21   8    4.84   481.3    3.9      44.488
2014    9       28    21  13    4.84   481.1    3.9      44.458
2014    9       28    21  18    4.84   480.9    3.9      44.429
2014    9       28    21  23    4.84   480.7    3.9      44.399
2014    9       28    21  29    4.84   480.5    3.9      44.370
2014    9       28    21  34    4.84   480.3    3.9      44.341
2014    9       28    21  39    4.84   480.1    3.9      44.313
2014    9       28    21  44    4.84   479.9    3.9      44.284
2014    9       28    21  50    4.84   479.7    3.9      44.255
2014    9       28    21  55    4.84   479.5    4.0      44.227
2014    9       28    22   0    4.84   479.3    4.0      44.199
2014    9       28    22   5    4.84   479.1    4.0      44.170
2014    9       28    22  10    4.84   478.9    4.0      44.142
2014    9       28    22  16    4.84   478.7    4.0      44.115
2014    9       28    22  21    4.84   478.5    4.0      44.087
2014    9       28    22  26    4.84   478.3    4.0      44.059
2014    9       28    22  31    4.84   478.2    4.0      44.032
2014    9       28    22  37    4.84   478.0    4.0      44.005
2014    9       28    22  42    4.84   477.8    4.0      43.977
2014    9       28    22  47    4.84   477.6    4.0      43.950
2014    9       28    22  52    4.84   477.4    4.0      43.923
2014    9       28    22  58    4.84   477.2    4.0      43.896
2014    9       28    23   3    4.84   477.0    4.0      43.869
2014    9       28    23   8    4.84   476.8    4.0      43.842
2014    9       28    23  13    4.83   476.6    4.0      43.815
2014    9       28    23  18    4.83   476.4    4.0      43.788
2014    9       28    23  24    4.83   476.2    4.0      43.762
2014    9       28    23  29    4.83   476.0    4.0      43.735
2014    9       28    23  34    4.83   475.8    4.0      43.708
2014    9       28    23  39    4.83   475.6    4.0      43.681
2014    9       28    23  45    4.83   475.4    4.0      43.655
2014    9       28    23  50    4.83   475.2    4.0      43.628
2014    9       28    23  55    4.83   475.0    4.0      43.602
2014    9       29     0   0    4.83   474.8    4.0      43.575
2014    9       29     0   6    4.83   474.6    4.0      43.548
2014    9       29     0  11    4.83   474.4    4.0      43.522
2014    9       29     0  16    4.83   474.2    4.0      43.495
2014    9       29     0  21    4.83   474.1    4.0      43.469
2014    9       29     0  26    4.83   473.9    4.0      43.442
2014    9       29     0  32    4.83   473.7    4.0      43.416
2014    9       29     0  37    4.83   473.5    4.0      43.389
2014    9       29     0  42    4.83   473.3    4.0      43.363
2014    9       29     0  47    4.83   473.1    4.0      43.337
2014    9       29     0  53    4.83   472.9    4.0      43.311
2014    9       29     0  58    4.83   472.7    4.0      43.284
2014    9       29     1   3    4.83   472.5    4.0      43.258
2014    9       29     1   8    4.83   472.3    4.0      43.232
2014    9       29     1  14    4.83   472.1    4.0      43.206
2014    9       29     1  19    4.83   471.9    4.1      43.181
2014    9       29     1  24    4.83   471.7    4.1      43.155
2014    9       29     1  29    4.83   471.5    4.1      43.130
2014    9       29     1  34    4.83   471.3    4.1      43.104
2014    9       29     1  40    4.83   471.1    4.1      43.079
2014    9       29     1  45    4.83   470.9    4.1      43.054
2014    9       29     1  50    4.83   470.7    4.1      43.029
2014    9       29     1  55    4.83   470.5    4.1      43.004
2014    9       29     2   1    4.83   470.3    4.1      42.979
2014    9       29     2   6    4.83   470.1    4.1      42.954
2014    9       29     2  11    4.83   469.9    4.1      42.929
2014    9       29     2  16    4.83   469.7    4.1      42.905
2014    9       29     2  22    4.83   469.5    4.1      42.880
2014    9       29     2  27    4.83   469.3    4.1      42.856
2014    9       29     2  32    4.83   469.1    4.1      42.832
2014    9       29     2  37    4.83   468.9    4.1      42.808
2014    9       29     2  43    4.83   468.7    4.1      42.784
2014    9       29     2  48    4.83   468.5    4.1      42.760
2014    9       29     2  53    4.83   468.3    4.1      42.735
2014    9       29     2  58    4.83   468.1    4.1      42.711
2014    9       29     3   3    4.83   467.9    4.1      42.687
2014    9       29     3   9    4.83   467.7    4.1      42.663
2014    9       29     3  14    4.83   467.5    4.1      42.639
2014    9       29     3  19    4.83   467.3    4.1      42.615
2014    9       29     3  24    4.83   467.1    4.1      42.592
2014    9       29     3  30    4.83   466.9    4.1      42.568
2014    9       29     3  35    4.83   466.7    4.1      42.544
2014    9       29     3  40    4.83   466.5    4.1      42.520
2014    9       29     3  45    4.83   466.3    4.1      42.496
2014    9       29     3  51    4.83   466.1    4.1      42.472
2014    9       29     3  56    4.83   465.9    4.2      42.448
2014    9       29     4   1    4.83   465.7    4.2      42.424
2014    9       29     4   6    4.83   465.5    4.2      42.400
2014    9       29     4  11    4.83   465.3    4.2      42.377
2014    9       29     4  17    4.83   465.1    4.2      42.353
2014    9       29     4  22    4.83   464.9    4.2      42.329
2014    9       29     4  27    4.83   464.7    4.2      42.305
2014    9       29     4  32    4.83   464.5    4.2      42.281
2014    9       29     4  38    4.83   464.3    4.2      42.257
2014    9       29     4  43    4.83   464.1    4.2      42.233
2014    9       29     4  48    4.83   463.9    4.2      42.210
2014    9       29     4  53    4.83   463.7    4.2      42.186
2014    9       29     4  58    4.83   463.5    4.2      42.162
2014    9       29     5   4    4.83   463.3    4.2      42.138
2014    9       29     5   9    4.83   463.1    4.2      42.114
2014    9       29     5  14    4.83   462.9    4.2      42.090
2014    9       29     5  19    4.83   462.7    4.2      42.067
2014    9       29     5  25    4.83   462.5    4.2      42.043
2014    9       29     5  30    4.83   462.3    4.2      42.019
2014    9       29     5  35    4.83   462.1    4.2      41.995
2014    9       29     5  40    4.83   461.9    4.2      41.971
2014    9       29     5  46    4.83   461.7    4.2      41.948
2014    9       29     5  51    4.83   461.5    4.2      41.924
2014    9       29     5  56    4.83   461.3    4.2      41.900
2014    9       29     6   1    4.83   461.1    4.2      41.876
2014    9       29     6   6    4.83   460.9    4.2      41.852
2014    9       29     6  12    4.83   460.7    4.2      41.828
2014    9       29     6  17    4.83   460.5    4.2      41.804
2014    9       29     6  22    4.83   460.3    4.2      41.781
2014    9       29     6  27    4.83   460.1    4.2      41.757
2014    9       29     6  33    4.83   459.9    4.2      41.733
2014    9       29     6  38    4.83   459.7    4.3      41.709
2014    9       29     6  43    4.83   459.5    4.3      41.685
2014    9       29     6  48    4.83   459.3    4.3      41.661
2014    9       29     6  54    4.83   459.1    4.3      41.637
2014    9       29     6  59    4.83   458.9    4.3      41.613
2014    9       29     7   4    4.83   458.7    4.3      41.589
2014    9       29     7   9    4.83   458.5    4.3      41.565
2014    9       29     7  14    4.83   458.3    4.3      41.541
2014    9       29     7  20    4.83   458.0    4.3      41.517
2014    9       29     7  25    4.83   457.8    4.3      41.492
2014    9       29     7  30    4.83   457.6    4.3      41.468
2014    9       29     7  35    4.83   457.4    4.3      41.444
2014    9       29     7  41    4.83   457.2    4.3      41.419
2014    9       29     7  46    4.83   457.0    4.3      41.395
2014    9       29     7  51    4.83   456.8    4.3      41.370
2014    9       29     7  56    4.83   456.6    4.3      41.346
2014    9       29     8   2    4.83   456.4    4.3      41.321
2014    9       29     8   7    4.83   456.2    4.3      41.296
2014    9       29     8  12    4.83   456.0    4.3      41.271
2014    9       29     8  17    4.83   455.8    4.3      41.246
2014    9       29     8  23    4.83   455.6    4.3      41.221
2014    9       29     8  28    4.83   455.4    4.3      41.196
2014    9       29     8  33    4.83   455.2    4.3      41.171
2014    9       29     8  38    4.83   455.0    4.3      41.146
2014    9       29     8  43    4.83   454.8    4.3      41.121
2014    9       29     8  49    4.83   454.6    4.3      41.096
2014    9       29     8  54    4.83   454.4    4.3      41.070
2014    9       29     8  59    4.83   454.2    4.3      41.045
2014    9       29     9   4    4.83   454.0    4.3      41.019
2014    9       29     9  10    4.84   453.8    4.3      40.993
2014    9       29     9  15    4.84   453.6    4.4      40.968
2014    9       29     9  20    4.84   453.4    4.4      40.942
2014    9       29     9  25    4.84   453.2    4.4      40.916
2014    9       29     9  31    4.84   453.0    4.4      40.891
2014    9       29     9  36    4.84   452.8    4.4      40.864
2014    9       29     9  41    4.84   452.6    4.4      40.839
2014    9       29     9  46    4.84   452.4    4.4      40.813
2014    9       29     9  51    4.84   452.2    4.4      40.786
2014    9       29     9  57    4.84   452.0    4.4      40.760
2014    9       29    10   2    4.84   451.8    4.4      40.734
2014    9       29    10   7    4.84   451.6    4.4      40.708
2014    9       29    10  12    4.84   451.4    4.4      40.681
2014    9       29    10  18    4.84   451.2    4.4      40.655
2014    9       29    10  23    4.84   451.0    4.4      40.628
2014    9       29    10  28    4.84   450.8    4.4      40.602
2014    9       29    10  33    4.84   450.6    4.4      40.575
2014    9       29    10  39    4.84   450.4    4.4      40.549
2014    9       29    10  44    4.84   450.2    4.4      40.522
2014    9       29    10  49    4.84   450.0    4.4      40.495
2014    9       29    10  54    4.84   449.8    4.4      40.468
2014    9       29    10  59    4.84   449.6    4.4      40.442
2014    9       29    11   5    4.84   449.4    4.4      40.415
2014    9       29    11  10    4.84   449.2    4.4      40.388
2014    9       29    11  15    4.84   449.0    4.4      40.361
2014    9       29    11  20    4.84   448.8    4.4      40.334
2014    9       29    11  26    4.84   448.6    4.4      40.307
2014    9       29    11  31    4.84   448.4    4.5      40.280
2014    9       29    11  36    4.84   448.2    4.5      40.254
2014    9       29    11  41    4.85   448.0    4.5      40.227
2014    9       29    11  47    4.85   447.8    4.5      40.200
2014    9       29    11  52    4.85   447.6    4.5      40.173
2014    9       29    11  57    4.85   447.4    4.5      40.146
2014    9       29    12   2    4.85   447.2    4.5      40.120
2014    9       29    12   7    4.85   447.0    4.5      40.093
2014    9       29    12  13    4.85   446.7    4.5      40.066
2014    9       29    12  18    4.85   446.5    4.5      40.040
2014    9       29    12  23    4.85   446.3    4.5      40.013
2014    9       29    12  28    4.85   446.1    4.5      39.987
2014    9       29    12  34    4.85   445.9    4.5      39.961
2014    9       29    12  39    4.85   445.7    4.5      39.935
2014    9       29    12  44    4.85   445.5    4.5      39.908
2014    9       29    12  49    4.85   445.3    4.5      39.883
2014    9       29    12  55    4.85   445.1    4.5      39.857
2014    9       29    13   0    4.85   444.9    4.5      39.831
2014    9       29    13   5    4.85   444.7    4.5      39.805
2014    9       29    13  10    4.85   444.5    4.5      39.780
2014    9       29    13  15    4.85   444.3    4.5      39.754
2014    9       29    13  21    4.86   444.1    4.5      39.729
2014    9       29    13  26    4.86   443.9    4.5      39.704
2014    9       29    13  31    4.86   443.7    4.6      39.679
2014    9       29    13  36    4.86   443.5    4.6      39.654
2014    9       29    13  42    4.86   443.3    4.6      39.629
2014    9       29    13  47    4.86   443.1    4.6      39.604
2014    9       29    13  52    4.86   442.9    4.6      39.580
2014    9       29    13  57    4.86   442.7    4.6      39.555
2014    9       29    14   3    4.86   442.5    4.6      39.531
2014    9       29    14   8    4.86   442.3    4.6      39.506
2014    9       29    14  13    4.86   442.1    4.6      39.482
2014    9       29    14  18    4.86   441.9    4.6      39.457
2014    9       29    14  23    4.86   441.6    4.6      39.433
2014    9       29    14  29    4.86   441.4    4.6      39.409
2014    9       29    14  34    4.87   441.2    4.6      39.385
2014    9       29    14  39    4.87   441.0    4.6      39.360
2014    9       29    14  44    4.87   440.8    4.6      39.336
2014    9       29    14  50    4.87   440.6    4.6      39.312
2014    9       29    14  55    4.87   440.4    4.6      39.288
2014    9       29    15   0    4.87   440.2    4.6      39.264
2014    9       29    15   5    4.87   440.0    4.6      39.239
2014    9       29    15  11    4.87   439.8    4.6      39.215
2014    9       29    15  16    4.87   439.6    4.6      39.191
2014    9       29    15  21    4.87   439.4    4.7      39.167
2014    9       29    15  26    4.87   439.2    4.7      39.142
2014    9       29    15  31    4.87   439.0    4.7      39.118
2014    9       29    15  37    4.88   438.8    4.7      39.094
2014    9       29    15  42    4.88   438.6    4.7      39.069
2014    9       29    15  47    4.88   438.4    4.7      39.045
2014    9       29    15  52    4.88   438.2    4.7      39.020
2014    9       29    15  58    4.88   438.0    4.7      38.995
2014    9       29    16   3    4.88   437.8    4.7      38.971
2014    9       29    16   8    4.88   437.6    4.7      38.946
2014    9       29    16  13    4.88   437.4    4.7      38.921
2014    9       29    16  19    4.88   437.2    4.7      38.896
2014    9       29    16  24    4.88   437.0    4.7      38.871
2014    9       29    16  29    4.88   436.8    4.7      38.846
2014    9       29    16  34    4.89   436.6    4.7      38.821
2014    9       29    16  40    4.89   436.4    4.7      38.795
2014    9       29    16  45    4.89   436.2    4.7      38.770
2014    9       29    16  50    4.89   436.0    4.7      38.744
2014    9       29    16  55    4.89   435.8    4.7      38.719
2014    9       29    17   0    4.89   435.6    4.7      38.693
2014    9       29    17   6    4.89   435.4    4.7      38.667
2014    9       29    17  11    4.89   435.2    4.8      38.641
2014    9       29    17  16    4.89   435.0    4.8      38.615
2014    9       29    17  21    4.89   434.8    4.8      38.590
2014    9       29    17  27    4.90   434.6    4.8      38.563
2014    9       29    17  32    4.90   434.4    4.8      38.537
2014    9       29    17  37    4.90   434.1    4.8      38.511
2014    9       29    17  42    4.90   433.9    4.8      38.485
2014    9       29    17  48    4.90   433.7    4.8      38.458
2014    9       29    17  53    4.90   433.5    4.8      38.432
2014    9       29    17  58    4.90   433.3    4.8      38.405
2014    9       29    18   3    4.90   433.1    4.8      38.379
2014    9       29    18   8    4.90   432.9    4.8      38.352
2014    9       29    18  14    4.91   432.7    4.8      38.325
2014    9       29    18  19    4.91   432.5    4.8      38.298
2014    9       29    18  24    4.91   432.3    4.8      38.272
2014    9       29    18  29    4.91   432.1    4.8      38.245
2014    9       29    18  35    4.91   431.9    4.8      38.218
2014    9       29    18  40    4.91   431.7    4.8      38.191
2014    9       29    18  45    4.91   431.5    4.8      38.164
2014    9       29    18  50    4.91   431.3    4.8      38.137
2014    9       29    18  56    4.91   431.1    4.9      38.110
2014    9       29    19   1    4.92   430.9    4.9      38.083
2014    9       29    19   6    4.92   430.7    4.9      38.056
2014    9       29    19  11    4.92   430.5    4.9      38.029
2014    9       29    19  16    4.92   430.3    4.9      38.002
2014    9       29    19  22    4.92   430.1    4.9      37.975
2014    9       29    19  27    4.92   429.9    4.9      37.948
2014    9       29    19  32    4.92   429.7    4.9      37.921
2014    9       29    19  37    4.93   429.5    4.9      37.894
2014    9       29    19  43    4.93   429.3    4.9      37.867
2014    9       29    19  48    4.93   429.1    4.9      37.840
2014    9       29    19  53    4.93   428.9    4.9      37.813
2014    9       29    19  58    4.93   428.7    4.9      37.786
2014    9       29    20   4    4.93   428.5    4.9      37.760
2014    9       29    20   9    4.93   428.3    4.9      37.733
2014    9       29    20  14    4.93   428.1    4.9      37.706
2014    9       29    20  19    4.94   427.9    4.9      37.679
2014    9       29    20  24    4.94   427.7    4.9      37.653
2014    9       29    20  30    4.94   427.5    5.0      37.626
2014    9       29    20  35    4.94   427.3    5.0      37.600
2014    9       29    20  40    4.94   427.1    5.0      37.573
2014    9       29    20  45    4.94   426.9    5.0      37.547
2014    9       29    20  51    4.95   426.7    5.0      37.520
2014    9       29    20  56    4.95   426.5    5.0      37.494
2014    9       29    21   1    4.95   426.3    5.0      37.468
2014    9       29    21   6    4.95   426.1    5.0      37.442
2014    9       29    21  11    4.95   425.9    5.0      37.416
2014    9       29    21  17    4.95   425.7    5.0      37.390
2014    9       29    21  22    4.95   425.5    5.0      37.365
2014    9       29    21  27    4.96   425.3    5.0      37.339
2014    9       29    21  32    4.96   425.1    5.0      37.313
2014    9       29    21  38    4.96   424.9    5.0      37.288
2014    9       29    21  43    4.96   424.7    5.0      37.263
2014    9       29    21  48    4.96   424.5    5.0      37.238
2014    9       29    21  53    4.97   424.3    5.1      37.213
2014    9       29    21  59    4.97   424.1    5.1      37.188
2014    9       29    22   4    4.97   423.9    5.1      37.163
2014    9       29    22   9    4.97   423.6    5.1      37.138
2014    9       29    22  14    4.97   423.4    5.1      37.114
2014    9       29    22  20    4.97   423.3    5.1      37.089
2014    9       29    22  25    4.98   423.1    5.1      37.065
2014    9       29    22  30    4.98   422.9    5.1      37.041
2014    9       29    22  35    4.98   422.7    5.1      37.017
2014    9       29    22  40    4.98   422.5    5.1      36.993
2014    9       29    22  46    4.98   422.3    5.1      36.969
2014    9       29    22  51    4.99   422.1    5.1      36.945
2014    9       29    22  56    4.99   421.9    5.1      36.922
2014    9       29    23   1    4.99   421.7    5.1      36.898
2014    9       29    23   7    4.99   421.5    5.1      36.875
2014    9       29    23  12    4.99   421.3    5.2      36.852
2014    9       29    23  17    5.00   421.1    5.2      36.829
2014    9       29    23  22    5.00   420.9    5.2      36.806
2014    9       29    23  28    5.00   420.7    5.2      36.784
2014    9       29    23  33    5.00   420.5    5.2      36.761
2014    9       29    23  38    5.00   420.3    5.2      36.738
2014    9       29    23  43    5.01   420.1    5.2      36.716
2014    9       29    23  49    5.01   419.9    5.2      36.694
2014    9       29    23  54    5.01   419.7    5.2      36.672
2014    9       29    23  59    5.01   419.5    5.2      36.650
2014    9       30     0   4    5.02   419.3    5.2      36.628
2014    9       30     0   9    5.02   419.1    5.2      36.606
2014    9       30     0  15    5.02   418.9    5.2      36.584
2014    9       30     0  20    5.02   418.7    5.2      36.562
2014    9       30     0  25    5.02   418.5    5.3      36.541
2014    9       30     0  30    5.03   418.3    5.3      36.519
2014    9       30     0  36    5.03   418.1    5.3      36.498
2014    9       30     0  41    5.03   417.9    5.3      36.476
2014    9       30     0  46    5.03   417.7    5.3      36.455
2014    9       30     0  51    5.04   417.6    5.3      36.434
2014    9       30     0  57    5.04   417.4    5.3      36.413
2014    9       30     1   2    5.04   417.2    5.3      36.392
2014    9       30     1   7    5.04   417.0    5.3      36.371
2014    9       30     1  12    5.05   416.8    5.3      36.350
2014    9       30     1  17    5.05   416.6    5.3      36.329
2014    9       30     1  23    5.05   416.4    5.3      36.308
2014    9       30     1  28    5.05   416.2    5.3      36.287
2014    9       30     1  33    5.06   416.0    5.4      36.267
2014    9       30     1  38    5.06   415.8    5.4      36.246
2014    9       30     1  44    5.06   415.7    5.4      36.225
2014    9       30     1  49    5.07   415.5    5.4      36.205
2014    9       30     1  54    5.07   415.3    5.4      36.184
2014    9       30     1  59    5.07   415.1    5.4      36.164
2014    9       30     2   5    5.07   414.9    5.4      36.144
2014    9       30     2  10    5.08   414.7    5.4      36.123
2014    9       30     2  15    5.08   414.6    5.4      36.103
2014    9       30     2  20    5.08   414.4    5.4      36.083
2014    9       30     2  25    5.08   414.2    5.4      36.063
2014    9       30     2  31    5.09   414.0    5.4      36.043
2014    9       30     2  36    5.09   413.8    5.4      36.023
2014    9       30     2  41    5.09   413.6    5.5      36.003
2014    9       30     2  46    5.10   413.5    5.5      35.983
2014    9       30     2  52    5.10   413.3    5.5      35.963
2014    9       30     2  57    5.10   413.1    5.5      35.943
2014    9       30     3   2    5.10   412.9    5.5      35.924
2014    9       30     3   7    5.11   412.7    5.5      35.904
2014    9       30     3  13    5.11   412.6    5.5      35.885
2014    9       30     3  18    5.11   412.4    5.5      35.865
2014    9       30     3  23    5.12   412.2    5.5      35.846
2014    9       30     3  28    5.12   412.0    5.5      35.827
2014    9       30     3  33    5.12   411.9    5.5      35.808
2014    9       30     3  39    5.13   411.7    5.5      35.789
2014    9       30     3  44    5.13   411.5    5.6      35.771
2014    9       30     3  49    5.13   411.3    5.6      35.752
2014    9       30     3  54    5.13   411.2    5.6      35.733
2014    9       30     4   0    5.14   411.0    5.6      35.715
2014    9       30     4   5    5.14   410.8    5.6      35.697
2014    9       30     4  10    5.14   410.6    5.6      35.679
2014    9       30     4  15    5.15   410.5    5.6      35.661
2014    9       30     4  21    5.15   410.3    5.6      35.643
2014    9       30     4  26    5.15   410.1    5.6      35.626
2014    9       30     4  31    5.16   410.0    5.6      35.608
2014    9       30     4  36    5.16   409.8    5.6      35.591
2014    9       30     4  41    5.16   409.6    5.7      35.574
2014    9       30     4  47    5.17   409.5    5.7      35.557
2014    9       30     4  52    5.17   409.3    5.7      35.541
2014    9       30     4  57    5.17   409.1    5.7      35.524
2014    9       30     5   2    5.18   409.0    5.7      35.508
2014    9       30     5   8    5.18   408.8    5.7      35.492
2014    9       30     5  13    5.18   408.6    5.7      35.476
2014    9       30     5  18    5.19   408.5    5.7      35.460
2014    9       30     5  23    5.19   408.3    5.7      35.444
2014    9       30     5  29    5.19   408.2    5.7      35.429
2014    9       30     5  34    5.20   408.0    5.7      35.414
2014    9       30     5  39    5.20   407.8    5.8      35.399
2014    9       30     5  44    5.20   407.7    5.8      35.384
2014    9       30     5  49    5.21   407.5    5.8      35.369
2014    9       30     5  55    5.21   407.4    5.8      35.355
2014    9       30     6   0    5.21   407.2    5.8      35.340
2014    9       30     6   5    5.22   407.0    5.8      35.326
2014    9       30     6  10    5.22   406.9    5.8      35.312
2014    9       30     6  16    5.23   406.7    5.8      35.298
2014    9       30     6  21    5.23   406.6    5.8      35.285
2014    9       30     6  26    5.23   406.4    5.8      35.271
2014    9       30     6  31    5.24   406.3    5.8      35.258
2014    9       30     6  37    5.24   406.1    5.9      35.245
2014    9       30     6  42    5.24   406.0    5.9      35.232
2014    9       30     6  47    5.25   405.8    5.9      35.219
2014    9       30     6  52    5.25   405.7    5.9      35.206
2014    9       30     6  58    5.25   405.5    5.9      35.194
2014    9       30     7   3    5.26   405.4    5.9      35.181
2014    9       30     7   8    5.26   405.2    5.9      35.169
2014    9       30     7  13    5.27   405.1    5.9      35.157
2014    9       30     7  18    5.27   404.9    5.9      35.145
2014    9       30     7  24    5.27   404.8    5.9      35.133
2014    9       30     7  29    5.28   404.6    6.0      35.121
2014    9       30     7  34    5.28   404.5    6.0      35.109
2014    9       30     7  39    5.29   404.3    6.0      35.097
2014    9       30     7  45    5.29   404.2    6.0      35.086
2014    9       30     7  50    5.29   404.0    6.0      35.074
2014    9       30     7  55    5.30   403.9    6.0      35.063
2014    9       30     8   0    5.30   403.8    6.0      35.052
2014    9       30     8   6    5.31   403.6    6.0      35.041
2014    9       30     8  11    5.31   403.5    6.0      35.029
2014    9       30     8  16    5.31   403.3    6.0      35.019
2014    9       30     8  21    5.32   403.2    6.0      35.008
2014    9       30     8  26    5.32   403.1    6.1      34.997
2014    9       30     8  32    5.33   402.9    6.1      34.986
2014    9       30     8  37    5.33   402.8    6.1      34.976
2014    9       30     8  42    5.33   402.6    6.1      34.965
2014    9       30     8  47    5.34   402.5    6.1      34.955
2014    9       30     8  53    5.34   402.4    6.1      34.945
2014    9       30     8  58    5.35   402.2    6.1      34.935
2014    9       30     9   3    5.35   402.1    6.1      34.925
2014    9       30     9   8    5.35   402.0    6.1      34.915
2014    9       30     9  14    5.36   401.8    6.1      34.906
2014    9       30     9  19    5.36   401.7    6.2      34.896
2014    9       30     9  24    5.37   401.6    6.2      34.887
2014    9       30     9  29    5.37   401.4    6.2      34.878
2014    9       30     9  34    5.38   401.3    6.2      34.869
2014    9       30     9  40    5.38   401.2    6.2      34.860
2014    9       30     9  45    5.38   401.0    6.2      34.851
2014    9       30     9  50    5.39   400.9    6.2      34.842
2014    9       30     9  55    5.39   400.8    6.2      34.834
2014    9       30    10   1    5.40   400.6    6.2      34.825
2014    9       30    10   6    5.40   400.5    6.2      34.817
2014    9       30    10  11    5.41   400.4    6.3      34.809
2014    9       30    10  16    5.41   400.3    6.3      34.801
2014    9       30    10  22    5.42   400.1    6.3      34.794
2014    9       30    10  27    5.42   400.0    6.3      34.786
2014    9       30    10  32    5.42   399.9    6.3      34.779
2014    9       30    10  37    5.43   399.8    6.3      34.772
2014    9       30    10  42    5.43   399.7    6.3      34.765
2014    9       30    10  48    5.44   399.5    6.3      34.758
2014    9       30    10  53    5.44   399.4    6.3      34.751
2014    9       30    10  58    5.45   399.3    6.3      34.745
2014    9       30    11   3    5.45   399.2    6.4      34.738
2014    9       30    11   9    5.46   399.1    6.4      34.732
2014    9       30    11  14    5.46   398.9    6.4      34.726
2014    9       30    11  19    5.47   398.8    6.4      34.720
2014    9       30    11  24    5.47   398.7    6.4      34.714
2014    9       30    11  30    5.47   398.6    6.4      34.708
2014    9       30    11  35    5.48   398.5    6.4      34.703
2014    9       30    11  40    5.48   398.4    6.4      34.698
2014    9       30    11  45    5.49   398.3    6.4      34.693
2014    9       30    11  50    5.49   398.1    6.4      34.688
2014    9       30    11  56    5.50   398.0    6.5      34.683
2014    9       30    12   1    5.50   397.9    6.5      34.678
2014    9       30    12   6    5.51   397.8    6.5      34.673
2014    9       30    12  11    5.51   397.7    6.5      34.669
2014    9       30    12  17    5.52   397.6    6.5      34.665
2014    9       30    12  22    5.52   397.5    6.5      34.661
2014    9       30    12  27    5.53   397.4    6.5      34.657
2014    9       30    12  32    5.53   397.3    6.5      34.653
2014    9       30    12  38    5.54   397.2    6.5      34.650
2014    9       30    12  43    5.54   397.1    6.5      34.646
2014    9       30    12  48    5.55   397.0    6.6      34.643
2014    9       30    12  53    5.55   396.9    6.6      34.640
2014    9       30    12  58    5.56   396.8    6.6      34.637
2014    9       30    13   4    5.56   396.7    6.6      34.635
2014    9       30    13   9    5.57   396.6    6.6      34.632
2014    9       30    13  14    5.57   396.5    6.6      34.630
2014    9       30    13  19    5.58   396.4    6.6      34.627
2014    9       30    13  25    5.58   396.3    6.6      34.625
2014    9       30    13  30    5.59   396.2    6.6      34.623
2014    9       30    13  35    5.59   396.1    6.6      34.622
2014    9       30    13  40    5.60   396.0    6.7      34.620
2014    9       30    13  46    5.60   395.9    6.7      34.619
2014    9       30    13  51    5.61   395.8    6.7      34.618
2014    9       30    13  56    5.61   395.7    6.7      34.617
2014    9       30    14   1    5.62   395.6    6.7      34.616
2014    9       30    14   7    5.62   395.5    6.7      34.615
2014    9       30    14  12    5.63   395.4    6.7      34.615
2014    9       30    14  17    5.63   395.3    6.7      34.615
2014    9       30    14  22    5.64   395.2    6.7      34.615
2014    9       30    14  27    5.64   395.1    6.7      34.615
2014    9       30    14  33    5.65   395.0    6.8      34.615
2014    9       30    14  38    5.65   394.9    6.8      34.616
2014    9       30    14  43    5.66   394.9    6.8      34.616
2014    9       30    14  48    5.66   394.8    6.8      34.617
2014    9       30    14  54    5.67   394.7    6.8      34.618
2014    9       30    14  59    5.67   394.6    6.8      34.619
2014    9       30    15   4    5.68   394.5    6.8      34.620
2014    9       30    15   9    5.68   394.4    6.8      34.621
2014    9       30    15  15    5.69   394.3    6.8      34.623
2014    9       30    15  20    5.69   394.3    6.8      34.624
2014    9       30    15  25    5.70   394.2    6.9      34.626
2014    9       30    15  30    5.70   394.1    6.9      34.627
2014    9       30    15  35    5.71   394.0    6.9      34.629
2014    9       30    15  41    5.71   393.9    6.9      34.632
2014    9       30    15  46    5.72   393.8    6.9      34.634
2014    9       30    15  51    5.72   393.8    6.9      34.636
2014    9       30    15  56    5.73   393.7    6.9      34.639
2014    9       30    16   2    5.73   393.6    6.9      34.641
2014    9       30    16   7    5.74   393.5    6.9      34.644
2014    9       30    16  12    5.74   393.4    6.9      34.647
2014    9       30    16  17    5.75   393.4    6.9      34.650
2014    9       30    16  23    5.76   393.3    7.0      34.653
2014    9       30    16  28    5.76   393.2    7.0      34.656
2014    9       30    16  33    5.77   393.1    7.0      34.660
2014    9       30    16  38    5.77   393.0    7.0      34.663
2014    9       30    16  43    5.78   393.0    7.0      34.667
2014    9       30    16  49    5.78   392.9    7.0      34.671
2014    9       30    16  54    5.79   392.8    7.0      34.675
2014    9       30    16  59    5.79   392.7    7.0      34.679
2014    9       30    17   4    5.80   392.7    7.0      34.683
2014    9       30    17  10    5.80   392.6    7.0      34.688
2014    9       30    17  15    5.81   392.5    7.0      34.692
2014    9       30    17  20    5.81   392.5    7.1      34.697
2014    9       30    17  25    5.82   392.4    7.1      34.702
2014    9       30    17  31    5.83   392.3    7.1      34.706
2014    9       30    17  36    5.83   392.2    7.1      34.712
2014    9       30    17  41    5.84   392.2    7.1      34.717
2014    9       30    17  46    5.84   392.1    7.1      34.722
2014    9       30    17  51    5.85   392.0    7.1      34.728
2014    9       30    17  57    5.85   392.0    7.1      34.733
2014    9       30    18   2    5.86   391.9    7.1      34.739
2014    9       30    18   7    5.86   391.8    7.1      34.745
2014    9       30    18  12    5.87   391.8    7.1      34.751
2014    9       30    18  18    5.88   391.7    7.2      34.757
2014    9       30    18  23    5.88   391.6    7.2      34.763
2014    9       30    18  28    5.89   391.6    7.2      34.770
2014    9       30    18  33    5.89   391.5    7.2      34.776
2014    9       30    18  39    5.90   391.4    7.2      34.783
2014    9       30    18  44    5.90   391.4    7.2      34.790
2014    9       30    18  49    5.91   391.3    7.2      34.797
2014    9       30    18  54    5.91   391.3    7.2      34.804
2014    9       30    18  59    5.92   391.2    7.2      34.812
2014    9       30    19   5    5.93   391.1    7.2      34.819
2014    9       30    19  10    5.93   391.1    7.2      34.827
2014    9       30    19  15    5.94   391.0    7.3      34.835
2014    9       30    19  20    5.94   391.0    7.3      34.843
2014    9       30    19  26    5.95   390.9    7.3      34.851
2014    9       30    19  31    5.95   390.8    7.3      34.860
2014    9       30    19  36    5.96   390.8    7.3      34.868
2014    9       30    19  41    5.97   390.7    7.3      34.877
2014    9       30    19  47    5.97   390.7    7.3      34.886
2014    9       30    19  52    5.98   390.6    7.3      34.895
2014    9       30    19  57    5.98   390.6    7.3      34.904
2014    9       30    20   2    5.99   390.5    7.3      34.914
2014    9       30    20   8    6.00   390.5    7.3      34.923
2014    9       30    20  13    6.00   390.4    7.4      34.933
2014    9       30    20  18    6.01   390.4    7.4      34.943
2014    9       30    20  23    6.01   390.3    7.4      34.953
2014    9       30    20  28    6.02   390.3    7.4      34.964
2014    9       30    20  34    6.02   390.2    7.4      34.974
2014    9       30    20  39    6.03   390.2    7.4      34.985
2014    9       30    20  44    6.04   390.1    7.4      34.995
2014    9       30    20  49    6.04   390.1    7.4      35.006
2014    9       30    20  55    6.05   390.0    7.4      35.017
2014    9       30    21   0    6.05   390.0    7.4      35.028
2014    9       30    21   5    6.06   389.9    7.4      35.039
2014    9       30    21  10    6.07   389.9    7.5      35.050
2014    9       30    21  16    6.07   389.8    7.5      35.062
2014    9       30    21  21    6.08   389.8    7.5      35.073
2014    9       30    21  26    6.08   389.7    7.5      35.085
2014    9       30    21  31    6.09   389.7    7.5      35.096
2014    9       30    21  36    6.09   389.6    7.5      35.108
2014    9       30    21  42    6.10   389.6    7.5      35.120
2014    9       30    21  47    6.11   389.6    7.5      35.132
2014    9       30    21  52    6.11   389.5    7.5      35.144
2014    9       30    21  57    6.12   389.5    7.5      35.156
2014    9       30    22   3    6.12   389.4    7.5      35.168
2014    9       30    22   8    6.13   389.4    7.5      35.180
2014    9       30    22  13    6.14   389.4    7.6      35.192
2014    9       30    22  18    6.14   389.3    7.6      35.205
2014    9       30    22  24    6.15   389.3    7.6      35.217
2014    9       30    22  29    6.15   389.2    7.6      35.230
2014    9       30    22  34    6.16   389.2    7.6      35.242
2014    9       30    22  39    6.17   389.2    7.6      35.255
2014    9       30    22  45    6.17   389.1    7.6      35.268
2014    9       30    22  50    6.18   389.1    7.6      35.282
2014    9       30    22  55    6.18   389.0    7.6      35.295
2014    9       30    23   0    6.19   389.0    7.6      35.309
2014    9       30    23   5    6.20   389.0    7.6      35.322
2014    9       30    23  11    6.20   388.9    7.6      35.337
2014    9       30    23  16    6.21   388.9    7.7      35.351
2014    9       30    23  21    6.22   388.9    7.7      35.366
2014    9       30    23  26    6.22   388.8    7.7      35.381
2014    9       30    23  32    6.23   388.8    7.7      35.397
2014    9       30    23  37    6.23   388.8    7.7      35.413
2014    9       30    23  42    6.24   388.8    7.7      35.430
2014    9       30    23  47    6.25   388.7    7.7      35.447
2014    9       30    23  53    6.25   388.7    7.7      35.464
2014    9       30    23  58    6.26   388.7    7.7      35.482
2014   10        1     0   3    6.26   388.7    7.7      35.500
2014   10        1     0   8    6.27   388.6    7.7      35.519
2014   10        1     0  13    6.28   388.6    7.7      35.537
2014   10        1     0  19    6.28   388.6    7.8      35.556
2014   10        1     0  24    6.29   388.6    7.8      35.576
2014   10        1     0  29    6.29   388.5    7.8      35.595
2014   10        1     0  34    6.30   388.5    7.8      35.615
2014   10        1     0  40    6.31   388.5    7.8      35.635
2014   10        1     0  45    6.31   388.5    7.8      35.655
2014   10        1     0  50    6.32   388.5    7.8      35.675
2014   10        1     0  55    6.32   388.4    7.8      35.695
2014   10        1     1   1    6.33   388.4    7.8      35.715
2014   10        1     1   6    6.33   388.4    7.8      35.735
2014   10        1     1  11    6.34   388.4    7.8      35.755
2014   10        1     1  16    6.35   388.4    7.8      35.776
2014   10        1     1  21    6.35   388.3    7.8      35.796
2014   10        1     1  27    6.36   388.3    7.8      35.816
2014   10        1     1  32    6.36   388.3    7.8      35.836
2014   10        1     1  37    6.37   388.3    7.9      35.856
2014   10        1     1  42    6.38   388.3    7.9      35.876
2014   10        1     1  48    6.38   388.3    7.9      35.896
2014   10        1     1  53    6.39   388.2    7.9      35.916
2014   10        1     1  58    6.39   388.2    7.9      35.935
2014   10        1     2   3    6.40   388.2    7.9      35.955
2014   10        1     2   9    6.41   388.2    7.9      35.975
2014   10        1     2  14    6.41   388.2    7.9      35.995
2014   10        1     2  19    6.42   388.2    7.9      36.015
2014   10        1     2  24    6.42   388.1    7.9      36.034
2014   10        1     2  29    6.43   388.1    7.9      36.054
2014   10        1     2  35    6.43   388.1    7.9      36.074
2014   10        1     2  40    6.44   388.1    7.9      36.094
2014   10        1     2  45    6.45   388.1    7.9      36.114
2014   10        1     2  50    6.45   388.1    7.9      36.133
2014   10        1     2  56    6.46   388.1    8.0      36.153
2014   10        1     3   1    6.46   388.1    8.0      36.173
2014   10        1     3   6    6.47   388.0    8.0      36.193
2014   10        1     3  11    6.48   388.0    8.0      36.213
2014   10        1     3  17    6.48   388.0    8.0      36.233
2014   10        1     3  22    6.49   388.0    8.0      36.254
2014   10        1     3  27    6.49   388.0    8.0      36.274
2014   10        1     3  32    6.50   388.0    8.0      36.294
2014   10        1     3  37    6.51   388.0    8.0      36.315
2014   10        1     3  43    6.51   388.0    8.0      36.335
2014   10        1     3  48    6.52   388.0    8.0      36.356
2014   10        1     3  53    6.52   388.0    8.0      36.377
2014   10        1     3  58    6.53   387.9    8.0      36.397
2014   10        1     4   4    6.54   387.9    8.0      36.418
2014   10        1     4   9    6.54   387.9    8.0      36.439
2014   10        1     4  14    6.55   387.9    8.0      36.460
2014   10        1     4  19    6.55   387.9    8.1      36.482
2014   10        1     4  25    6.56   387.9    8.1      36.503
2014   10        1     4  30    6.57   387.9    8.1      36.525
2014   10        1     4  35    6.57   387.9    8.1      36.546
2014   10        1     4  40    6.58   387.9    8.1      36.568
2014   10        1     4  46    6.58   387.9    8.1      36.590
2014   10        1     4  51    6.59   387.9    8.1      36.612
2014   10        1     4  56    6.60   387.9    8.1      36.635
2014   10        1     5   1    6.60   387.9    8.1      36.658
2014   10        1     5   6    6.61   387.9    8.1      36.681
2014   10        1     5  12    6.62   387.9    8.1      36.705
2014   10        1     5  17    6.62   387.9    8.1      36.729
2014   10        1     5  22    6.63   387.9    8.1      36.754
2014   10        1     5  27    6.64   387.9    8.1      36.780
2014   10        1     5  33    6.64   387.9    8.2      36.806
2014   10        1     5  38    6.65   388.0    8.2      36.832
2014   10        1     5  43    6.65   388.0    8.2      36.859
2014   10        1     5  48    6.66   388.0    8.2      36.887
2014   10        1     5  54    6.67   388.0    8.2      36.916
2014   10        1     5  59    6.67   388.0    8.2      36.946
2014   10        1     6   4    6.68   388.0    8.2      36.977
2014   10        1     6   9    6.68   388.0    8.2      37.008
2014   10        1     6  14    6.69   388.1    8.2      37.041
2014   10        1     6  20    6.70   388.1    8.2      37.073
2014   10        1     6  25    6.70   388.1    8.2      37.107
2014   10        1     6  30    6.71   388.1    8.2      37.140
2014   10        1     6  35    6.71   388.1    8.2      37.174
2014   10        1     6  41    6.72   388.2    8.2      37.208
2014   10        1     6  46    6.72   388.2    8.2      37.242
2014   10        1     6  51    6.73   388.2    8.3      37.276
2014   10        1     6  56    6.74   388.2    8.3      37.310
2014   10        1     7   2    6.74   388.2    8.3      37.344
2014   10        1     7   7    6.75   388.3    8.3      37.379
2014   10        1     7  12    6.75   388.3    8.3      37.413
2014   10        1     7  17    6.76   388.3    8.3      37.447
2014   10        1     7  22    6.76   388.3    8.3      37.482
2014   10        1     7  28    6.77   388.4    8.3      37.517
2014   10        1     7  33    6.78   388.4    8.3      37.551
2014   10        1     7  38    6.78   388.4    8.3      37.586
2014   10        1     7  43    6.79   388.4    8.3      37.621
2014   10        1     7  49    6.79   388.5    8.3      37.655
2014   10        1     7  54    6.80   388.5    8.3      37.690
2014   10        1     7  59    6.80   388.5    8.3      37.724
2014   10        1     8   4    6.81   388.5    8.3      37.758
2014   10        1     8  10    6.81   388.6    8.3      37.792
2014   10        1     8  15    6.82   388.6    8.3      37.826
2014   10        1     8  20    6.82   388.6    8.3      37.860
2014   10        1     8  25    6.83   388.7    8.3      37.894
2014   10        1     8  30    6.83   388.7    8.3      37.927
2014   10        1     8  36    6.84   388.7    8.3      37.961
2014   10        1     8  41    6.84   388.7    8.3      37.994
2014   10        1     8  46    6.85   388.8    8.3      38.028
2014   10        1     8  51    6.85   388.8    8.3      38.061
2014   10        1     8  57    6.86   388.8    8.4      38.094
2014   10        1     9   2    6.86   388.9    8.4      38.127
2014   10        1     9   7    6.87   388.9    8.4      38.160
2014   10        1     9  12    6.87   388.9    8.4      38.193
2014   10        1     9  18    6.88   388.9    8.4      38.226
2014   10        1     9  23    6.88   389.0    8.4      38.259
2014   10        1     9  28    6.89   389.0    8.4      38.292
2014   10        1     9  33    6.89   389.0    8.4      38.325
2014   10        1     9  38    6.90   389.1    8.4      38.358
2014   10        1     9  44    6.90   389.1    8.4      38.391
2014   10        1     9  49    6.91   389.1    8.4      38.424
2014   10        1     9  54    6.91   389.2    8.4      38.456
2014   10        1     9  59    6.92   389.2    8.4      38.489
2014   10        1    10   5    6.92   389.2    8.4      38.522
2014   10        1    10  10    6.93   389.3    8.4      38.555
2014   10        1    10  15    6.93   389.3    8.4      38.588
2014   10        1    10  20    6.94   389.3    8.4      38.621
2014   10        1    10  26    6.94   389.4    8.4      38.654
2014   10        1    10  31    6.95   389.4    8.4      38.686
2014   10        1    10  36    6.95   389.4    8.4      38.719
2014   10        1    10  41    6.96   389.5    8.4      38.752
2014   10        1    10  47    6.96   389.5    8.4      38.785
2014   10        1    10  52    6.97   389.5    8.4      38.818
2014   10        1    10  57    6.97   389.6    8.4      38.851
2014   10        1    11   2    6.98   389.6    8.4      38.884
2014   10        1    11   7    6.98   389.6    8.4      38.917
2014   10        1    11  13    6.99   389.7    8.4      38.950
2014   10        1    11  18    6.99   389.7    8.4      38.984
2014   10        1    11  23    7.00   389.7    8.4      39.017
2014   10        1    11  28    7.00   389.8    8.4      39.051
2014   10        1    11  34    7.01   389.8    8.4      39.084
2014   10        1    11  39    7.01   389.9    8.4      39.118
2014   10        1    11  44    7.02   389.9    8.4      39.152
2014   10        1    11  49    7.03   389.9    8.4      39.186
2014   10        1    11  55    7.03   390.0    8.4      39.220
2014   10        1    12   0    7.04   390.0    8.4      39.254
2014   10        1    12   5    7.04   390.0    8.4      39.289
2014   10        1    12  10    7.05   390.1    8.4      39.324
2014   10        1    12  16    7.05   390.1    8.4      39.358
2014   10        1    12  21    7.06   390.2    8.5      39.394
2014   10        1    12  26    7.06   390.2    8.5      39.429
2014   10        1    12  31    7.07   390.3    8.5      39.465
2014   10        1    12  36    7.07   390.3    8.5      39.501
2014   10        1    12  42    7.08   390.3    8.5      39.538
2014   10        1    12  47    7.08   390.4    8.5      39.575
2014   10        1    12  52    7.09   390.4    8.5      39.613
2014   10        1    12  57    7.09   390.5    8.5      39.651
2014   10        1    13   3    7.10   390.5    8.5      39.690
2014   10        1    13   8    7.10   390.6    8.5      39.730
2014   10        1    13  13    7.11   390.6    8.5      39.770
2014   10        1    13  18    7.11   390.7    8.5      39.812
2014   10        1    13  24    7.12   390.7    8.5      39.855
2014   10        1    13  29    7.12   390.8    8.5      39.899
2014   10        1    13  34    7.13   390.8    8.5      39.944
2014   10        1    13  39    7.13   390.9    8.5      39.990
2014   10        1    13  44    7.14   390.9    8.5      40.036
2014   10        1    13  50    7.14   391.0    8.5      40.083
2014   10        1    13  55    7.15   391.0    8.5      40.131
2014   10        1    14   0    7.15   391.1    8.5      40.180
2014   10        1    14   5    7.16   391.2    8.5      40.229
2014   10        1    14  11    7.16   391.2    8.5      40.280
2014   10        1    14  16    7.16   391.3    8.5      40.331
2014   10        1    14  21    7.17   391.3    8.5      40.382
2014   10        1    14  26    7.17   391.4    8.5      40.435
2014   10        1    14  32    7.18   391.5    8.6      40.488
2014   10        1    14  37    7.18   391.5    8.6      40.541
2014   10        1    14  42    7.19   391.6    8.6      40.595
2014   10        1    14  47    7.19   391.6    8.6      40.649
2014   10        1    14  52    7.19   391.7    8.6      40.702
2014   10        1    14  58    7.20   391.8    8.6      40.755
2014   10        1    15   3    7.20   391.8    8.6      40.807
2014   10        1    15   8    7.21   391.9    8.6      40.859
2014   10        1    15  13    7.21   392.0    8.6      40.910
2014   10        1    15  19    7.21   392.0    8.6      40.961
2014   10        1    15  24    7.22   392.1    8.6      41.012
2014   10        1    15  29    7.22   392.1    8.6      41.062
2014   10        1    15  34    7.22   392.2    8.6      41.111
2014   10        1    15  40    7.23   392.3    8.6      41.160
2014   10        1    15  45    7.23   392.3    8.6      41.208
2014   10        1    15  50    7.24   392.4    8.6      41.255
2014   10        1    15  55    7.24   392.5    8.6      41.303
2014   10        1    16   0    7.24   392.5    8.6      41.349
2014   10        1    16   6    7.25   392.6    8.6      41.395
2014   10        1    16  11    7.25   392.7    8.6      41.441
2014   10        1    16  16    7.25   392.7    8.6      41.486
2014   10        1    16  21    7.26   392.8    8.6      41.531
2014   10        1    16  27    7.26   392.9    8.6      41.576
2014   10        1    16  32    7.26   393.0    8.6      41.620
2014   10        1    16  37    7.27   393.0    8.6      41.663
2014   10        1    16  42    7.27   393.1    8.6      41.707
2014   10        1    16  48    7.27   393.2    8.6      41.750
2014   10        1    16  53    7.28   393.2    8.6      41.792
2014   10        1    16  58    7.28   393.3    8.6      41.835
2014   10        1    17   3    7.28   393.4    8.6      41.877
2014   10        1    17   8    7.29   393.4    8.6      41.919
2014   10        1    17  14    7.29   393.5    8.6      41.960
2014   10        1    17  19    7.30   393.6    8.6      42.001
2014   10        1    17  24    7.30   393.6    8.6      42.042
2014   10        1    17  29    7.30   393.7    8.6      42.083
2014   10        1    17  35    7.31   393.8    8.6      42.123
2014   10        1    17  40    7.31   393.9    8.6      42.164
2014   10        1    17  45    7.31   393.9    8.6      42.204
2014   10        1    17  50    7.32   394.0    8.6      42.244
2014   10        1    17  56    7.32   394.1    8.6      42.283
2014   10        1    18   1    7.32   394.1    8.6      42.323
2014   10        1    18   6    7.33   394.2    8.6      42.363
2014   10        1    18  11    7.33   394.3    8.6      42.402
2014   10        1    18  17    7.33   394.4    8.6      42.441
2014   10        1    18  22    7.34   394.4    8.6      42.481
2014   10        1    18  27    7.34   394.5    8.6      42.520
2014   10        1    18  32    7.34   394.6    8.6      42.559
2014   10        1    18  37    7.35   394.7    8.6      42.599
2014   10        1    18  43    7.35   394.7    8.6      42.639
2014   10        1    18  48    7.36   394.8    8.6      42.679
2014   10        1    18  53    7.36   394.9    8.6      42.719
2014   10        1    18  58    7.36   394.9    8.6      42.759
2014   10        1    19   4    7.37   395.0    8.6      42.799
2014   10        1    19   9    7.37   395.1    8.6      42.840
2014   10        1    19  14    7.37   395.2    8.6      42.881
2014   10        1    19  19    7.38   395.3    8.6      42.923
2014   10        1    19  25    7.38   395.3    8.6      42.966
2014   10        1    19  30    7.39   395.4    8.6      43.009
2014   10        1    19  35    7.39   395.5    8.6      43.054
2014   10        1    19  40    7.39   395.6    8.6      43.099
2014   10        1    19  45    7.40   395.7    8.6      43.145
2014   10        1    19  51    7.40   395.8    8.6      43.191
2014   10        1    19  56    7.41   395.8    8.6      43.239
2014   10        1    20   1    7.41   395.9    8.6      43.288
2014   10        1    20   6    7.41   396.0    8.6      43.338
2014   10        1    20  12    7.42   396.1    8.6      43.389
2014   10        1    20  17    7.42   396.2    8.6      43.441
2014   10        1    20  22    7.42   396.3    8.6      43.494
2014   10        1    20  27    7.43   396.4    8.6      43.549
2014   10        1    20  33    7.43   396.5    8.6      43.605
2014   10        1    20  38    7.43   396.6    8.6      43.661
2014   10        1    20  43    7.44   396.7    8.6      43.719
2014   10        1    20  48    7.44   396.8    8.6      43.777
2014   10        1    20  54    7.44   396.9    8.6      43.834
2014   10        1    20  59    7.45   397.0    8.6      43.891
2014   10        1    21   4    7.45   397.1    8.6      43.947
2014   10        1    21   9    7.45   397.2    8.6      44.004
2014   10        1    21  14    7.45   397.4    8.6      44.060
2014   10        1    21  20    7.46   397.5    8.6      44.117
2014   10        1    21  25    7.46   397.6    8.6      44.173
2014   10        1    21  30    7.46   397.7    8.6      44.230
2014   10        1    21  35    7.46   397.8    8.6      44.286
2014   10        1    21  41    7.47   397.9    8.6      44.343
2014   10        1    21  46    7.47   398.0    8.6      44.399
2014   10        1    21  51    7.47   398.1    8.6      44.456
2014   10        1    21  56    7.47   398.2    8.6      44.512
2014   10        1    22   2    7.47   398.3    8.6      44.568
2014   10        1    22   7    7.48   398.5    8.6      44.623
2014   10        1    22  12    7.48   398.6    8.6      44.676
2014   10        1    22  17    7.48   398.7    8.6      44.730
2014   10        1    22  22    7.48   398.8    8.6      44.782
2014   10        1    22  28    7.49   398.9    8.6      44.834
2014   10        1    22  33    7.49   399.0    8.6      44.885
2014   10        1    22  38    7.49   399.1    8.5      44.935
2014   10        1    22  43    7.49   399.2    8.5      44.985
2014   10        1    22  49    7.49   399.4    8.5      45.034
2014   10        1    22  54    7.49   399.5    8.5      45.082
2014   10        1    22  59    7.50   399.6    8.5      45.130
2014   10        1    23   4    7.50   399.7    8.5      45.177
2014   10        1    23  10    7.50   399.8    8.5      45.224
2014   10        1    23  15    7.50   399.9    8.5      45.270
2014   10        1    23  20    7.50   400.0    8.5      45.315
2014   10        1    23  25    7.51   400.1    8.5      45.360
2014   10        1    23  30    7.51   400.3    8.5      45.405
2014   10        1    23  36    7.51   400.4    8.5      45.449
2014   10        1    23  41    7.51   400.5    8.5      45.493
2014   10        1    23  46    7.51   400.6    8.5      45.537
2014   10        1    23  51    7.51   400.7    8.5      45.580
2014   10        1    23  57    7.52   400.8    8.5      45.623
2014   10        2     0   2    7.52   400.9    8.5      45.666
2014   10        2     0   7    7.52   401.1    8.5      45.708
2014   10        2     0  12    7.52   401.2    8.5      45.751
2014   10        2     0  18    7.52   401.3    8.5      45.793
2014   10        2     0  23    7.52   401.4    8.5      45.835
2014   10        2     0  28    7.53   401.5    8.5      45.877
2014   10        2     0  33    7.53   401.6    8.5      45.920
2014   10        2     0  38    7.53   401.7    8.5      45.963
2014   10        2     0  44    7.53   401.9    8.5      46.006
2014   10        2     0  49    7.53   402.0    8.5      46.049
2014   10        2     0  54    7.54   402.1    8.5      46.092
2014   10        2     0  59    7.54   402.2    8.5      46.136
2014   10        2     1   5    7.54   402.3    8.5      46.180
2014   10        2     1  10    7.54   402.4    8.5      46.225
2014   10        2     1  15    7.55   402.6    8.5      46.270
2014   10        2     1  20    7.55   402.7    8.4      46.316
2014   10        2     1  26    7.55   402.8    8.4      46.363
2014   10        2     1  31    7.55   403.0    8.4      46.410
2014   10        2     1  36    7.55   403.1    8.4      46.458
2014   10        2     1  41    7.56   403.2    8.4      46.507
2014   10        2     1  47    7.56   403.4    8.4      46.556
2014   10        2     1  52    7.56   403.5    8.4      46.605
2014   10        2     1  57    7.56   403.7    8.4      46.654
2014   10        2     2   2    7.57   403.8    8.4      46.703
2014   10        2     2   7    7.57   403.9    8.4      46.752
2014   10        2     2  13    7.57   404.1    8.4      46.800
2014   10        2     2  18    7.57   404.2    8.4      46.849
2014   10        2     2  23    7.57   404.4    8.4      46.898
2014   10        2     2  28    7.58   404.5    8.4      46.947
2014   10        2     2  34    7.58   404.7    8.4      46.997
2014   10        2     2  39    7.58   404.8    8.4      47.047
2014   10        2     2  44    7.58   405.0    8.4      47.097
2014   10        2     2  49    7.58   405.1    8.4      47.147
2014   10        2     2  55    7.58   405.3    8.4      47.197
2014   10        2     3   0    7.59   405.4    8.4      47.248
2014   10        2     3   5    7.59   405.6    8.4      47.299
2014   10        2     3  10    7.59   405.7    8.4      47.351
2014   10        2     3  15    7.59   405.9    8.4      47.404
2014   10        2     3  21    7.59   406.1    8.4      47.457
2014   10        2     3  26    7.59   406.2    8.4      47.511
2014   10        2     3  31    7.59   406.4    8.4      47.566
2014   10        2     3  36    7.59   406.6    8.4      47.621
2014   10        2     3  42    7.59   406.7    8.4      47.677
2014   10        2     3  47    7.59   406.9    8.4      47.733
2014   10        2     3  52    7.59   407.1    8.4      47.788
2014   10        2     3  57    7.59   407.3    8.4      47.843
2014   10        2     4   3    7.59   407.4    8.4      47.897
2014   10        2     4   8    7.59   407.6    8.4      47.950
2014   10        2     4  13    7.59   407.8    8.4      48.002
2014   10        2     4  18    7.59   407.9    8.3      48.053
2014   10        2     4  24    7.59   408.1    8.3      48.104
2014   10        2     4  29    7.59   408.3    8.3      48.153
2014   10        2     4  34    7.59   408.4    8.3      48.202
2014   10        2     4  39    7.59   408.6    8.3      48.250
2014   10        2     4  44    7.59   408.8    8.3      48.298
2014   10        2     4  50    7.59   409.0    8.3      48.344
2014   10        2     4  55    7.59   409.1    8.3      48.390
2014   10        2     5   0    7.59   409.3    8.3      48.435
2014   10        2     5   5    7.59   409.5    8.3      48.480
2014   10        2     5  11    7.59   409.6    8.3      48.523
2014   10        2     5  16    7.59   409.8    8.3      48.566
2014   10        2     5  21    7.59   410.0    8.3      48.608
2014   10        2     5  26    7.59   410.2    8.2      48.650
2014   10        2     5  32    7.59   410.3    8.2      48.691
2014   10        2     5  37    7.59   410.5    8.2      48.731
2014   10        2     5  42    7.58   410.7    8.2      48.771
2014   10        2     5  47    7.58   410.8    8.2      48.810
2014   10        2     5  52    7.58   411.0    8.2      48.849
2014   10        2     5  58    7.58   411.2    8.2      48.887
2014   10        2     6   3    7.58   411.4    8.2      48.924
2014   10        2     6   8    7.58   411.5    8.2      48.961
2014   10        2     6  13    7.58   411.7    8.2      48.997
2014   10        2     6  19    7.58   411.9    8.2      49.033
2014   10        2     6  24    7.58   412.0    8.2      49.068
2014   10        2     6  29    7.57   412.2    8.1      49.102
2014   10        2     6  34    7.57   412.4    8.1      49.136
2014   10        2     6  40    7.57   412.5    8.1      49.170
2014   10        2     6  45    7.57   412.7    8.1      49.204
2014   10        2     6  50    7.57   412.9    8.1      49.237
2014   10        2     6  55    7.57   413.0    8.1      49.269
2014   10        2     7   0    7.57   413.2    8.1      49.301
2014   10        2     7   6    7.57   413.4    8.1      49.333
2014   10        2     7  11    7.56   413.5    8.1      49.365
2014   10        2     7  16    7.56   413.7    8.1      49.396
2014   10        2     7  21    7.56   413.8    8.1      49.426
2014   10        2     7  27    7.56   414.0    8.0      49.457
2014   10        2     7  32    7.56   414.2    8.0      49.487
2014   10        2     7  37    7.56   414.3    8.0      49.517
2014   10        2     7  42    7.56   414.5    8.0      49.547
2014   10        2     7  48    7.55   414.6    8.0      49.578
2014   10        2     7  53    7.55   414.8    8.0      49.608
2014   10        2     7  58    7.55   415.0    8.0      49.638
2014   10        2     8   3    7.55   415.1    8.0      49.669
2014   10        2     8   8    7.55   415.3    8.0      49.700
2014   10        2     8  14    7.55   415.4    8.0      49.730
2014   10        2     8  19    7.55   415.6    8.0      49.761
2014   10        2     8  24    7.54   415.7    8.0      49.792
2014   10        2     8  29    7.54   415.9    8.0      49.825
2014   10        2     8  35    7.54   416.1    7.9      49.857
2014   10        2     8  40    7.54   416.2    7.9      49.891
2014   10        2     8  45    7.54   416.4    7.9      49.924
2014   10        2     8  50    7.54   416.6    7.9      49.958
2014   10        2     8  56    7.54   416.7    7.9      49.993
2014   10        2     9   1    7.53   416.9    7.9      50.028
2014   10        2     9   6    7.53   417.1    7.9      50.063
2014   10        2     9  11    7.53   417.3    7.9      50.098
2014   10        2     9  17    7.53   417.4    7.9      50.133
2014   10        2     9  22    7.53   417.6    7.9      50.167
2014   10        2     9  27    7.52   417.8    7.9      50.200
2014   10        2     9  32    7.52   417.9    7.9      50.234
2014   10        2     9  37    7.52   418.1    7.9      50.267
2014   10        2     9  43    7.52   418.3    7.8      50.300
2014   10        2     9  48    7.51   418.5    7.8      50.332
2014   10        2     9  53    7.51   418.6    7.8      50.363
2014   10        2     9  58    7.51   418.8    7.8      50.394
2014   10        2    10   4    7.50   419.0    7.8      50.423
2014   10        2    10   9    7.50   419.1    7.8      50.453
2014   10        2    10  14    7.50   419.3    7.8      50.481
2014   10        2    10  19    7.50   419.5    7.8      50.510
2014   10        2    10  25    7.49   419.7    7.8      50.537
2014   10        2    10  30    7.49   419.8    7.8      50.563
2014   10        2    10  35    7.49   420.0    7.7      50.590
2014   10        2    10  40    7.48   420.2    7.7      50.615
2014   10        2    10  45    7.48   420.3    7.7      50.639
2014   10        2    10  51    7.48   420.5    7.7      50.664
2014   10        2    10  56    7.47   420.7    7.7      50.687
2014   10        2    11   1    7.47   420.8    7.7      50.710
2014   10        2    11   6    7.47   421.0    7.7      50.732
2014   10        2    11  12    7.46   421.2    7.7      50.753
2014   10        2    11  17    7.46   421.3    7.7      50.774
2014   10        2    11  22    7.45   421.5    7.6      50.794
2014   10        2    11  27    7.45   421.7    7.6      50.813
2014   10        2    11  33    7.45   421.8    7.6      50.832
2014   10        2    11  38    7.44   422.0    7.6      50.850
2014   10        2    11  43    7.44   422.1    7.6      50.867
2014   10        2    11  48    7.43   422.3    7.6      50.884
2014   10        2    11  54    7.43   422.5    7.6      50.900
2014   10        2    11  59    7.42   422.6    7.6      50.916
2014   10        2    12   4    7.42   422.8    7.6      50.930
2014   10        2    12   9    7.42   422.9    7.5      50.944
2014   10        2    12  14    7.41   423.1    7.5      50.957
2014   10        2    12  20    7.41   423.2    7.5      50.969
2014   10        2    12  25    7.40   423.4    7.5      50.980
2014   10        2    12  30    7.40   423.5    7.5      50.991
2014   10        2    12  35    7.39   423.7    7.5      51.001
2014   10        2    12  41    7.39   423.8    7.5      51.011
2014   10        2    12  46    7.38   423.9    7.5      51.019
2014   10        2    12  51    7.38   424.1    7.4      51.027
2014   10        2    12  56    7.37   424.2    7.4      51.035
2014   10        2    13   2    7.37   424.3    7.4      51.042
2014   10        2    13   7    7.36   424.5    7.4      51.049
2014   10        2    13  12    7.36   424.6    7.4      51.056
2014   10        2    13  17    7.36   424.7    7.4      51.063
2014   10        2    13  22    7.35   424.9    7.4      51.070
2014   10        2    13  28    7.35   425.0    7.4      51.077
2014   10        2    13  33    7.34   425.1    7.4      51.085
2014   10        2    13  38    7.34   425.2    7.3      51.092
2014   10        2    13  43    7.33   425.4    7.3      51.099
2014   10        2    13  49    7.33   425.5    7.3      51.105
2014   10        2    13  54    7.32   425.6    7.3      51.111
2014   10        2    13  59    7.32   425.8    7.3      51.117
2014   10        2    14   4    7.31   425.9    7.3      51.121
2014   10        2    14  10    7.31   426.1    7.3      51.124
2014   10        2    14  15    7.30   426.2    7.3      51.126
2014   10        2    14  20    7.30   426.3    7.2      51.126
2014   10        2    14  25    7.29   426.5    7.2      51.126
2014   10        2    14  30    7.29   426.6    7.2      51.125
2014   10        2    14  36    7.28   426.7    7.2      51.123
2014   10        2    14  41    7.28   426.9    7.2      51.120
2014   10        2    14  46    7.27   427.0    7.2      51.116
2014   10        2    14  51    7.27   427.1    7.2      51.111
2014   10        2    14  57    7.26   427.3    7.2      51.105
2014   10        2    15   2    7.26   427.4    7.2      51.099
2014   10        2    15   7    7.25   427.5    7.1      51.092
2014   10        2    15  12    7.25   427.6    7.1      51.084
2014   10        2    15  18    7.24   427.7    7.1      51.077
2014   10        2    15  23    7.24   427.9    7.1      51.068
2014   10        2    15  28    7.23   428.0    7.1      51.059
2014   10        2    15  33    7.22   428.1    7.1      51.050
2014   10        2    15  38    7.22   428.2    7.1      51.040
2014   10        2    15  44    7.21   428.3    7.1      51.030
2014   10        2    15  49    7.21   428.4    7.1      51.019
2014   10        2    15  54    7.20   428.5    7.0      51.008
2014   10        2    15  59    7.20   428.6    7.0      50.996
2014   10        2    16   5    7.19   428.7    7.0      50.984
2014   10        2    16  10    7.18   428.8    7.0      50.971
2014   10        2    16  15    7.18   428.9    7.0      50.959
2014   10        2    16  20    7.17   429.0    7.0      50.946
2014   10        2    16  26    7.17   429.1    7.0      50.932
2014   10        2    16  31    7.16   429.2    7.0      50.919
2014   10        2    16  36    7.16   429.3    7.0      50.905
2014   10        2    16  41    7.15   429.4    6.9      50.890
2014   10        2    16  47    7.14   429.5    6.9      50.875
2014   10        2    16  52    7.14   429.6    6.9      50.860
2014   10        2    16  57    7.13   429.7    6.9      50.843
2014   10        2    17   2    7.13   429.8    6.9      50.827
2014   10        2    17   7    7.12   429.9    6.9      50.809
2014   10        2    17  13    7.11   430.0    6.9      50.791
2014   10        2    17  18    7.11   430.1    6.9      50.773
2014   10        2    17  23    7.10   430.1    6.9      50.753
2014   10        2    17  28    7.10   430.2    6.9      50.733
2014   10        2    17  34    7.09   430.3    6.8      50.712
2014   10        2    17  39    7.09   430.4    6.8      50.691
2014   10        2    17  44    7.08   430.4    6.8      50.669
2014   10        2    17  49    7.07   430.5    6.8      50.647
2014   10        2    17  55    7.07   430.6    6.8      50.625
2014   10        2    18   0    7.06   430.6    6.8      50.602
2014   10        2    18   5    7.06   430.7    6.8      50.579
2014   10        2    18  10    7.05   430.8    6.8      50.555
2014   10        2    18  15    7.04   430.8    6.8      50.532
2014   10        2    18  21    7.04   430.9    6.8      50.508
2014   10        2    18  26    7.03   430.9    6.7      50.484
2014   10        2    18  31    7.03   431.0    6.7      50.460
2014   10        2    18  36    7.02   431.1    6.7      50.436
2014   10        2    18  42    7.01   431.1    6.7      50.413
2014   10        2    18  47    7.01   431.2    6.7      50.389
2014   10        2    18  52    7.00   431.2    6.7      50.365
2014   10        2    18  57    7.00   431.3    6.7      50.341
2014   10        2    19   3    6.99   431.3    6.7      50.318
2014   10        2    19   8    6.98   431.4    6.7      50.294
2014   10        2    19  13    6.98   431.4    6.7      50.269
2014   10        2    19  18    6.97   431.5    6.7      50.246
2014   10        2    19  24    6.97   431.5    6.7      50.222
2014   10        2    19  29    6.96   431.5    6.7      50.199
2014   10        2    19  34    6.96   431.6    6.6      50.177
2014   10        2    19  39    6.95   431.6    6.6      50.154
2014   10        2    19  44    6.94   431.6    6.6      50.132
2014   10        2    19  50    6.94   431.6    6.6      50.109
2014   10        2    19  55    6.93   431.7    6.6      50.088
2014   10        2    20   0    6.93   431.7    6.6      50.068
2014   10        2    20   5    6.92   431.7    6.6      50.047
2014   10        2    20  11    6.92   431.7    6.6      50.027
2014   10        2    20  16    6.91   431.7    6.6      50.007
2014   10        2    20  21    6.91   431.7    6.6      49.987
2014   10        2    20  26    6.90   431.8    6.6      49.967
2014   10        2    20  32    6.89   431.8    6.6      49.947
2014   10        2    20  37    6.89   431.8    6.6      49.928
2014   10        2    20  42    6.88   431.8    6.6      49.910
2014   10        2    20  47    6.88   431.8    6.5      49.891
2014   10        2    20  52    6.87   431.9    6.5      49.873
2014   10        2    20  58    6.87   431.9    6.5      49.854
2014   10        2    21   3    6.86   431.9    6.5      49.835
2014   10        2    21   8    6.86   432.0    6.5      49.815
2014   10        2    21  13    6.85   432.0    6.5      49.794
2014   10        2    21  19    6.85   432.0    6.5      49.772
2014   10        2    21  24    6.84   432.1    6.5      49.749
2014   10        2    21  29    6.84   432.1    6.5      49.725
2014   10        2    21  34    6.83   432.1    6.5      49.700
2014   10        2    21  40    6.83   432.2    6.5      49.674
2014   10        2    21  45    6.82   432.2    6.5      49.647
2014   10        2    21  50    6.82   432.2    6.5      49.620
2014   10        2    21  55    6.81   432.2    6.5      49.592
2014   10        2    22   0    6.81   432.3    6.5      49.563
2014   10        2    22   6    6.80   432.3    6.4      49.533
2014   10        2    22  11    6.79   432.3    6.4      49.503
2014   10        2    22  16    6.79   432.3    6.4      49.472
2014   10        2    22  21    6.78   432.4    6.4      49.441
2014   10        2    22  27    6.78   432.4    6.4      49.409
2014   10        2    22  32    6.77   432.4    6.4      49.378
2014   10        2    22  37    6.77   432.4    6.4      49.345
2014   10        2    22  42    6.76   432.4    6.4      49.313
2014   10        2    22  48    6.75   432.4    6.4      49.280
2014   10        2    22  53    6.75   432.5    6.4      49.246
2014   10        2    22  58    6.74   432.5    6.4      49.213
2014   10        2    23   3    6.74   432.5    6.4      49.179
2014   10        2    23   8    6.73   432.5    6.4      49.144
2014   10        2    23  14    6.73   432.5    6.4      49.110
2014   10        2    23  19    6.72   432.5    6.3      49.075
2014   10        2    23  24    6.71   432.5    6.3      49.040
2014   10        2    23  29    6.71   432.5    6.3      49.004
2014   10        2    23  35    6.70   432.5    6.3      48.968
2014   10        2    23  40    6.70   432.5    6.3      48.933
2014   10        2    23  45    6.69   432.5    6.3      48.896
2014   10        2    23  50    6.69   432.6    6.3      48.860
2014   10        2    23  56    6.68   432.6    6.3      48.823
2014   10        3     0   1    6.68   432.6    6.3      48.785
2014   10        3     0   6    6.67   432.6    6.3      48.747
2014   10        3     0  11    6.66   432.6    6.3      48.709
2014   10        3     0  17    6.66   432.5    6.3      48.670
2014   10        3     0  22    6.65   432.5    6.3      48.630
2014   10        3     0  27    6.65   432.5    6.3      48.591
2014   10        3     0  32    6.64   432.5    6.3      48.551
2014   10        3     0  37    6.64   432.5    6.3      48.511
2014   10        3     0  43    6.63   432.5    6.2      48.470
2014   10        3     0  48    6.63   432.5    6.2      48.430
2014   10        3     0  53    6.62   432.5    6.2      48.390
2014   10        3     0  58    6.62   432.4    6.2      48.350
2014   10        3     1   4    6.61   432.4    6.2      48.310
2014   10        3     1   9    6.61   432.4    6.2      48.270
2014   10        3     1  14    6.60   432.4    6.2      48.230
2014   10        3     1  19    6.60   432.3    6.2      48.191
2014   10        3     1  25    6.59   432.3    6.2      48.153
2014   10        3     1  30    6.59   432.3    6.2      48.115
2014   10        3     1  35    6.58   432.3    6.2      48.078
2014   10        3     1  40    6.58   432.2    6.2      48.042
2014   10        3     1  45    6.57   432.2    6.2      48.007
2014   10        3     1  51    6.57   432.2    6.2      47.972
2014   10        3     1  56    6.57   432.1    6.2      47.939
2014   10        3     2   1    6.56   432.1    6.2      47.906
2014   10        3     2   6    6.56   432.1    6.2      47.873
2014   10        3     2  12    6.55   432.0    6.2      47.842
2014   10        3     2  17    6.55   432.0    6.2      47.812
2014   10        3     2  22    6.54   432.0    6.2      47.783
2014   10        3     2  27    6.54   431.9    6.2      47.756
2014   10        3     2  33    6.54   431.9    6.2      47.731
2014   10        3     2  38    6.53   431.9    6.2      47.706
2014   10        3     2  43    6.53   431.8    6.2      47.683
2014   10        3     2  48    6.52   431.8    6.2      47.660
2014   10        3     2  54    6.52   431.8    6.2      47.639
2014   10        3     2  59    6.52   431.7    6.2      47.619
2014   10        3     3   4    6.51   431.7    6.2      47.600
2014   10        3     3   9    6.51   431.7    6.2      47.582
2014   10        3     3  14    6.50   431.6    6.2      47.563
2014   10        3     3  20    6.50   431.6    6.2      47.545
2014   10        3     3  25    6.50   431.6    6.2      47.526
2014   10        3     3  30    6.49   431.5    6.2      47.508
2014   10        3     3  35    6.49   431.5    6.2      47.491
2014   10        3     3  41    6.49   431.5    6.2      47.473
2014   10        3     3  46    6.48   431.4    6.2      47.456
2014   10        3     3  51    6.48   431.4    6.2      47.438
2014   10        3     3  56    6.47   431.4    6.2      47.420
2014   10        3     4   1    6.47   431.3    6.2      47.402
2014   10        3     4   7    6.47   431.3    6.2      47.384
2014   10        3     4  12    6.46   431.3    6.2      47.365
2014   10        3     4  17    6.46   431.2    6.2      47.346
2014   10        3     4  22    6.46   431.2    6.2      47.326
2014   10        3     4  28    6.45   431.2    6.2      47.306
2014   10        3     4  33    6.45   431.1    6.2      47.285
2014   10        3     4  38    6.45   431.1    6.2      47.264
2014   10        3     4  43    6.44   431.0    6.2      47.242
2014   10        3     4  49    6.44   431.0    6.2      47.220
2014   10        3     4  54    6.43   431.0    6.1      47.198
2014   10        3     4  59    6.43   430.9    6.1      47.175
2014   10        3     5   4    6.43   430.9    6.1      47.152
2014   10        3     5  10    6.42   430.9    6.1      47.129
2014   10        3     5  15    6.42   430.8    6.1      47.105
2014   10        3     5  20    6.42   430.8    6.1      47.081
2014   10        3     5  25    6.41   430.8    6.1      47.057
2014   10        3     5  30    6.41   430.7    6.1      47.032
2014   10        3     5  36    6.40   430.7    6.1      47.007
2014   10        3     5  41    6.40   430.6    6.1      46.982
2014   10        3     5  46    6.40   430.6    6.1      46.957
2014   10        3     5  51    6.39   430.6    6.1      46.931
2014   10        3     5  57    6.39   430.5    6.1      46.906
2014   10        3     6   2    6.39   430.5    6.1      46.880
2014   10        3     6   7    6.38   430.4    6.1      46.854
2014   10        3     6  12    6.38   430.4    6.1      46.827
2014   10        3     6  18    6.37   430.4    6.1      46.801
2014   10        3     6  23    6.37   430.3    6.1      46.774
2014   10        3     6  28    6.37   430.3    6.1      46.747
2014   10        3     6  33    6.36   430.2    6.1      46.720
2014   10        3     6  38    6.36   430.2    6.1      46.693
2014   10        3     6  44    6.36   430.2    6.1      46.666
2014   10        3     6  49    6.35   430.1    6.1      46.638
2014   10        3     6  54    6.35   430.1    6.1      46.611
2014   10        3     6  59    6.34   430.0    6.1      46.583
2014   10        3     7   5    6.34   430.0    6.1      46.555
2014   10        3     7  10    6.34   429.9    6.1      46.526
2014   10        3     7  15    6.33   429.9    6.1      46.498
2014   10        3     7  20    6.33   429.9    6.1      46.470
2014   10        3     7  26    6.33   429.8    6.1      46.441
2014   10        3     7  31    6.32   429.8    6.1      46.412
2014   10        3     7  36    6.32   429.7    6.1      46.383
2014   10        3     7  41    6.32   429.7    6.1      46.354
2014   10        3     7  47    6.31   429.6    6.1      46.325
2014   10        3     7  52    6.31   429.6    6.1      46.296
2014   10        3     7  57    6.31   429.5    6.0      46.267
2014   10        3     8   2    6.30   429.5    6.0      46.237
2014   10        3     8   7    6.30   429.4    6.0      46.208
2014   10        3     8  13    6.30   429.4    6.0      46.179
2014   10        3     8  18    6.29   429.3    6.0      46.149
2014   10        3     8  23    6.29   429.3    6.0      46.120
2014   10        3     8  28    6.29   429.2    6.0      46.091
2014   10        3     8  34    6.28   429.2    6.0      46.062
2014   10        3     8  39    6.28   429.1    6.0      46.033
2014   10        3     8  44    6.28   429.1    6.0      46.004
2014   10        3     8  49    6.27   429.0    6.0      45.976
2014   10        3     8  55    6.27   429.0    6.0      45.947
2014   10        3     9   0    6.27   428.9    6.0      45.919
2014   10        3     9   5    6.26   428.9    6.0      45.891
2014   10        3     9  10    6.26   428.8    6.0      45.864
2014   10        3     9  15    6.26   428.8    6.0      45.836
2014   10        3     9  21    6.25   428.7    6.0      45.809
2014   10        3     9  26    6.25   428.7    6.0      45.782
2014   10        3     9  31    6.25   428.6    6.0      45.756
2014   10        3     9  36    6.25   428.6    6.0      45.731
2014   10        3     9  42    6.24   428.5    6.0      45.706
2014   10        3     9  47    6.24   428.5    6.0      45.681
2014   10        3     9  52    6.24   428.4    6.0      45.657
2014   10        3     9  57    6.23   428.4    6.0      45.633
2014   10        3    10   3    6.23   428.3    6.0      45.610
2014   10        3    10   8    6.23   428.3    6.0      45.587
2014   10        3    10  13    6.23   428.2    6.0      45.565
2014   10        3    10  18    6.22   428.1    6.0      45.544
2014   10        3    10  24    6.22   428.1    6.0      45.523
2014   10        3    10  29    6.22   428.0    6.0      45.502
2014   10        3    10  34    6.22   428.0    6.0      45.483
2014   10        3    10  39    6.21   427.9    6.0      45.464
2014   10        3    10  44    6.21   427.9    6.0      45.445
2014   10        3    10  50    6.21   427.8    6.0      45.427
2014   10        3    10  55    6.21   427.8    6.0      45.409
2014   10        3    11   0    6.20   427.7    6.0      45.392
2014   10        3    11   5    6.20   427.6    6.0      45.374
2014   10        3    11  11    6.20   427.6    6.0      45.356
2014   10        3    11  16    6.19   427.5    6.0      45.338
2014   10        3    11  21    6.19   427.5    6.0      45.321
2014   10        3    11  26    6.19   427.4    6.0      45.302
2014   10        3    11  32    6.19   427.4    6.0      45.284
2014   10        3    11  37    6.18   427.3    6.0      45.266
2014   10        3    11  42    6.18   427.2    6.0      45.248
2014   10        3    11  47    6.18   427.2    6.0      45.229
2014   10        3    11  52    6.18   427.1    6.0      45.211
2014   10        3    11  58    6.18   427.1    6.0      45.192
2014   10        3    12   3    6.17   427.0    6.0      45.173
2014   10        3    12   8    6.17   426.9    6.0      45.154
2014   10        3    12  13    6.17   426.9    6.0      45.135
2014   10        3    12  19    6.17   426.8    6.0      45.116
2014   10        3    12  24    6.16   426.8    6.0      45.097
2014   10        3    12  29    6.16   426.7    6.0      45.077
2014   10        3    12  34    6.16   426.6    6.0      45.058
2014   10        3    12  40    6.16   426.6    6.0      45.039
2014   10        3    12  45    6.15   426.5    6.0      45.019
2014   10        3    12  50    6.15   426.4    6.0      45.000
2014   10        3    12  55    6.15   426.4    6.0      44.980
2014   10        3    13   0    6.15   426.3    6.0      44.961
2014   10        3    13   6    6.14   426.2    6.0      44.941
2014   10        3    13  11    6.14   426.2    6.0      44.922
2014   10        3    13  16    6.14   426.1    6.0      44.902
2014   10        3    13  21    6.14   426.0    6.0      44.883
2014   10        3    13  27    6.13   426.0    6.0      44.864
2014   10        3    13  32    6.13   425.9    6.0      44.844
2014   10        3    13  37    6.13   425.8    6.0      44.825
2014   10        3    13  42    6.13   425.8    6.0      44.806
2014   10        3    13  48    6.12   425.7    6.0      44.787
2014   10        3    13  53    6.12   425.6    6.0      44.768
2014   10        3    13  58    6.12   425.6    6.0      44.749
2014   10        3    14   3    6.12   425.5    6.0      44.731
2014   10        3    14   9    6.12   425.4    6.0      44.712
2014   10        3    14  14    6.11   425.4    6.0      44.694
2014   10        3    14  19    6.11   425.3    6.0      44.676
2014   10        3    14  24    6.11   425.2    6.0      44.657
2014   10        3    14  29    6.11   425.2    6.0      44.639
2014   10        3    14  35    6.11   425.1    6.0      44.622
2014   10        3    14  40    6.10   425.0    6.0      44.604
2014   10        3    14  45    6.10   424.9    6.0      44.587
2014   10        3    14  50    6.10   424.9    6.0      44.569
2014   10        3    14  56    6.10   424.8    6.0      44.552
2014   10        3    15   1    6.09   424.7    6.0      44.535
2014   10        3    15   6    6.09   424.7    6.0      44.517
2014   10        3    15  11    6.09   424.6    6.0      44.499
2014   10        3    15  17    6.09   424.5    6.0      44.481
2014   10        3    15  22    6.09   424.4    6.0      44.462
2014   10        3    15  27    6.08   424.4    6.0      44.443
2014   10        3    15  32    6.08   424.3    6.0      44.424
2014   10        3    15  37    6.08   424.2    6.0      44.404
2014   10        3    15  43    6.08   424.2    6.0      44.384
2014   10        3    15  48    6.08   424.1    6.0      44.364
2014   10        3    15  53    6.07   424.0    6.0      44.344
2014   10        3    15  58    6.07   423.9    6.0      44.323
2014   10        3    16   4    6.07   423.9    6.0      44.302
2014   10        3    16   9    6.07   423.8    6.0      44.280
2014   10        3    16  14    6.07   423.7    6.0      44.258
2014   10        3    16  19    6.06   423.6    6.0      44.236
2014   10        3    16  25    6.06   423.6    6.0      44.214
2014   10        3    16  30    6.06   423.5    6.0      44.191
2014   10        3    16  35    6.06   423.4    6.0      44.169
2014   10        3    16  40    6.06   423.3    6.0      44.146
2014   10        3    16  46    6.05   423.3    6.0      44.123
2014   10        3    16  51    6.05   423.2    6.0      44.099
2014   10        3    16  56    6.05   423.1    6.0      44.076
2014   10        3    17   1    6.05   423.0    6.0      44.053
2014   10        3    17   6    6.05   422.9    6.0      44.029
2014   10        3    17  12    6.04   422.9    6.0      44.005
2014   10        3    17  17    6.04   422.8    6.0      43.981
2014   10        3    17  22    6.04   422.7    6.0      43.958
2014   10        3    17  27    6.04   422.6    6.0      43.934
2014   10        3    17  33    6.04   422.6    6.0      43.910
2014   10        3    17  38    6.04   422.5    6.0      43.886
2014   10        3    17  43    6.03   422.4    6.0      43.862
2014   10        3    17  48    6.03   422.3    6.0      43.838
2014   10        3    17  54    6.03   422.2    6.0      43.814
2014   10        3    17  59    6.03   422.2    5.9      43.791
2014   10        3    18   4    6.03   422.1    5.9      43.767
2014   10        3    18   9    6.03   422.0    5.9      43.743
2014   10        3    18  14    6.02   421.9    5.9      43.720
2014   10        3    18  20    6.02   421.8    5.9      43.696
2014   10        3    18  25    6.02   421.8    5.9      43.672
2014   10        3    18  30    6.02   421.7    5.9      43.649
2014   10        3    18  35    6.02   421.6    5.9      43.626
2014   10        3    18  41    6.01   421.5    5.9      43.602
2014   10        3    18  46    6.01   421.4    5.9      43.579
2014   10        3    18  51    6.01   421.3    5.9      43.556
2014   10        3    18  56    6.01   421.3    5.9      43.533
2014   10        3    19   2    6.01   421.2    5.9      43.510
2014   10        3    19   7    6.01   421.1    5.9      43.487
2014   10        3    19  12    6.01   421.0    5.9      43.464
2014   10        3    19  17    6.00   420.9    5.9      43.441
2014   10        3    19  22    6.00   420.8    5.9      43.418
2014   10        3    19  28    6.00   420.7    5.9      43.395
2014   10        3    19  33    6.00   420.7    5.9      43.372
2014   10        3    19  38    6.00   420.6    5.9      43.349
2014   10        3    19  43    6.00   420.5    5.9      43.327
2014   10        3    19  49    5.99   420.4    5.9      43.304
2014   10        3    19  54    5.99   420.3    5.9      43.282
2014   10        3    19  59    5.99   420.2    5.9      43.260
2014   10        3    20   4    5.99   420.1    5.9      43.238
2014   10        3    20  10    5.99   420.0    5.9      43.216
2014   10        3    20  15    5.99   419.9    5.9      43.194
2014   10        3    20  20    5.99   419.8    5.9      43.172
2014   10        3    20  25    5.98   419.7    5.9      43.151
2014   10        3    20  30    5.98   419.6    5.9      43.130
2014   10        3    20  36    5.98   419.6    6.0      43.109
2014   10        3    20  41    5.98   419.5    6.0      43.089
2014   10        3    20  46    5.98   419.4    6.0      43.069
2014   10        3    20  51    5.98   419.3    6.0      43.050
2014   10        3    20  57    5.98   419.2    6.0      43.030
2014   10        3    21   2    5.98   419.1    6.0      43.012
2014   10        3    21   7    5.97   419.0    6.0      42.994
2014   10        3    21  12    5.97   418.9    6.0      42.976
2014   10        3    21  18    5.97   418.8    6.0      42.959
2014   10        3    21  23    5.97   418.7    6.0      42.942
2014   10        3    21  28    5.97   418.6    6.0      42.926
2014   10        3    21  33    5.97   418.5    6.0      42.910
2014   10        3    21  39    5.97   418.4    6.0      42.895
2014   10        3    21  44    5.97   418.3    6.0      42.880
2014   10        3    21  49    5.97   418.2    6.0      42.867
2014   10        3    21  54    5.97   418.1    6.0      42.853
2014   10        3    21  59    5.96   418.0    6.0      42.840
2014   10        3    22   5    5.96   417.9    6.0      42.828
2014   10        3    22  10    5.96   417.8    6.0      42.816
2014   10        3    22  15    5.96   417.7    6.0      42.803
2014   10        3    22  20    5.96   417.6    6.0      42.791
2014   10        3    22  26    5.96   417.6    6.0      42.780
2014   10        3    22  31    5.96   417.5    6.0      42.768
2014   10        3    22  36    5.96   417.4    6.0      42.756
2014   10        3    22  41    5.96   417.3    6.0      42.744
2014   10        3    22  47    5.96   417.2    6.0      42.733
2014   10        3    22  52    5.96   417.1    6.0      42.721
2014   10        3    22  57    5.96   417.0    6.0      42.709
2014   10        3    23   2    5.96   416.9    6.0      42.698
2014   10        3    23   8    5.96   416.8    6.0      42.687
2014   10        3    23  13    5.95   416.7    6.0      42.675
2014   10        3    23  18    5.95   416.6    6.0      42.664
2014   10        3    23  23    5.95   416.5    6.0      42.653
2014   10        3    23  28    5.95   416.4    6.0      42.641
2014   10        3    23  34    5.95   416.3    6.0      42.630
2014   10        3    23  39    5.95   416.2    6.0      42.619
2014   10        3    23  44    5.95   416.1    6.0      42.608
2014   10        3    23  49    5.95   416.0    6.0      42.597
2014   10        3    23  55    5.95   416.0    6.0      42.586
2014   10        4     0   0    5.95   415.9    6.0      42.575
