year    month   day   hour  minute  B_enl V_enl   n_enl       T_enl
[year] [month] [day] [hour][minute] [nT]  [km/s]  [cm-3]      [kK]
2014    9       23     0   2    6.93   557.8    4.6      51.350
2014    9       23     0   7    6.93   557.8    4.6      51.347
2014    9       23     0  12    6.93   557.9    4.6      51.344
2014    9       23     0  18    6.93   558.0    4.6      51.342
2014    9       23     0  23    6.93   558.0    4.6      51.340
2014    9       23     0  28    6.93   558.1    4.6      51.339
2014    9       23     0  33    6.92   558.2    4.6      51.338
2014    9       23     0  39    6.92   558.2    4.6      51.337
2014    9       23     0  44    6.92   558.3    4.6      51.337
2014    9       23     0  49    6.92   558.4    4.6      51.338
2014    9       23     0  55    6.92   558.4    4.6      51.339
2014    9       23     1   0    6.92   558.5    4.6      51.340
2014    9       23     1   5    6.92   558.6    4.6      51.343
2014    9       23     1  10    6.91   558.6    4.6      51.346
2014    9       23     1  16    6.91   558.7    4.6      51.349
2014    9       23     1  21    6.91   558.8    4.6      51.354
2014    9       23     1  26    6.91   558.8    4.6      51.359
2014    9       23     1  32    6.91   558.9    4.6      51.364
2014    9       23     1  37    6.91   559.0    4.6      51.369
2014    9       23     1  42    6.90   559.0    4.6      51.373
2014    9       23     1  47    6.90   559.1    4.6      51.378
2014    9       23     1  53    6.90   559.2    4.6      51.382
2014    9       23     1  58    6.90   559.2    4.6      51.386
2014    9       23     2   3    6.90   559.3    4.6      51.390
2014    9       23     2   9    6.90   559.4    4.6      51.393
2014    9       23     2  14    6.90   559.4    4.6      51.397
2014    9       23     2  19    6.89   559.5    4.6      51.400
2014    9       23     2  24    6.89   559.6    4.6      51.403
2014    9       23     2  30    6.89   559.6    4.6      51.405
2014    9       23     2  35    6.89   559.7    4.6      51.408
2014    9       23     2  40    6.89   559.8    4.6      51.411
2014    9       23     2  46    6.89   559.8    4.5      51.413
2014    9       23     2  51    6.88   559.9    4.5      51.415
2014    9       23     2  56    6.88   560.0    4.5      51.417
2014    9       23     3   1    6.88   560.0    4.5      51.419
2014    9       23     3   7    6.88   560.1    4.5      51.420
2014    9       23     3  12    6.88   560.2    4.5      51.422
2014    9       23     3  17    6.88   560.2    4.5      51.423
2014    9       23     3  23    6.88   560.3    4.5      51.424
2014    9       23     3  28    6.87   560.4    4.5      51.426
2014    9       23     3  33    6.87   560.4    4.5      51.427
2014    9       23     3  38    6.87   560.5    4.5      51.428
2014    9       23     3  44    6.87   560.6    4.5      51.429
2014    9       23     3  49    6.87   560.6    4.5      51.429
2014    9       23     3  54    6.87   560.7    4.5      51.430
2014    9       23     4   0    6.86   560.8    4.5      51.429
2014    9       23     4   5    6.86   560.8    4.5      51.429
2014    9       23     4  10    6.86   560.9    4.5      51.428
2014    9       23     4  15    6.86   561.0    4.5      51.427
2014    9       23     4  21    6.86   561.0    4.5      51.426
2014    9       23     4  26    6.86   561.1    4.5      51.424
2014    9       23     4  31    6.86   561.2    4.5      51.422
2014    9       23     4  37    6.85   561.2    4.5      51.420
2014    9       23     4  42    6.85   561.3    4.5      51.418
2014    9       23     4  47    6.85   561.4    4.5      51.415
2014    9       23     4  52    6.85   561.4    4.5      51.412
2014    9       23     4  58    6.85   561.5    4.5      51.409
2014    9       23     5   3    6.85   561.5    4.5      51.406
2014    9       23     5   8    6.85   561.6    4.5      51.402
2014    9       23     5  14    6.84   561.7    4.5      51.398
2014    9       23     5  19    6.84   561.7    4.5      51.394
2014    9       23     5  24    6.84   561.8    4.5      51.390
2014    9       23     5  29    6.84   561.9    4.5      51.386
2014    9       23     5  35    6.84   561.9    4.5      51.382
2014    9       23     5  40    6.84   562.0    4.5      51.378
2014    9       23     5  45    6.84   562.0    4.5      51.374
2014    9       23     5  51    6.83   562.1    4.5      51.370
2014    9       23     5  56    6.83   562.2    4.5      51.366
2014    9       23     6   1    6.83   562.2    4.5      51.362
2014    9       23     6   7    6.83   562.3    4.5      51.358
2014    9       23     6  12    6.83   562.3    4.5      51.354
2014    9       23     6  17    6.83   562.4    4.5      51.351
2014    9       23     6  22    6.83   562.5    4.5      51.347
2014    9       23     6  28    6.83   562.5    4.5      51.344
2014    9       23     6  33    6.83   562.6    4.5      51.341
2014    9       23     6  38    6.82   562.6    4.5      51.338
2014    9       23     6  44    6.82   562.7    4.5      51.335
2014    9       23     6  49    6.82   562.8    4.5      51.333
2014    9       23     6  54    6.82   562.8    4.4      51.331
2014    9       23     6  59    6.82   562.9    4.4      51.329
2014    9       23     7   5    6.82   562.9    4.4      51.327
2014    9       23     7  10    6.82   563.0    4.4      51.326
2014    9       23     7  15    6.82   563.1    4.4      51.325
2014    9       23     7  21    6.81   563.1    4.4      51.325
2014    9       23     7  26    6.81   563.2    4.4      51.326
2014    9       23     7  31    6.81   563.2    4.4      51.328
2014    9       23     7  36    6.81   563.3    4.4      51.331
2014    9       23     7  42    6.81   563.4    4.4      51.335
2014    9       23     7  47    6.81   563.4    4.4      51.340
2014    9       23     7  52    6.81   563.5    4.4      51.346
2014    9       23     7  58    6.81   563.5    4.4      51.354
2014    9       23     8   3    6.81   563.6    4.4      51.363
2014    9       23     8   8    6.81   563.7    4.4      51.373
2014    9       23     8  13    6.80   563.7    4.4      51.385
2014    9       23     8  19    6.80   563.8    4.4      51.397
2014    9       23     8  24    6.80   563.9    4.4      51.410
2014    9       23     8  29    6.80   563.9    4.4      51.423
2014    9       23     8  35    6.80   564.0    4.4      51.436
2014    9       23     8  40    6.80   564.0    4.4      51.448
2014    9       23     8  45    6.80   564.1    4.4      51.460
2014    9       23     8  50    6.80   564.2    4.4      51.472
2014    9       23     8  56    6.80   564.2    4.4      51.483
2014    9       23     9   1    6.80   564.3    4.4      51.494
2014    9       23     9   6    6.80   564.4    4.4      51.505
2014    9       23     9  12    6.79   564.4    4.4      51.516
2014    9       23     9  17    6.79   564.5    4.4      51.526
2014    9       23     9  22    6.79   564.5    4.4      51.536
2014    9       23     9  27    6.79   564.6    4.4      51.545
2014    9       23     9  33    6.79   564.7    4.4      51.555
2014    9       23     9  38    6.79   564.7    4.4      51.565
2014    9       23     9  43    6.79   564.8    4.4      51.574
2014    9       23     9  49    6.79   564.8    4.4      51.583
2014    9       23     9  54    6.79   564.9    4.4      51.591
2014    9       23     9  59    6.79   564.9    4.4      51.599
2014    9       23    10   4    6.79   565.0    4.4      51.606
2014    9       23    10  10    6.78   565.1    4.4      51.613
2014    9       23    10  15    6.78   565.1    4.4      51.620
2014    9       23    10  20    6.78   565.2    4.4      51.626
2014    9       23    10  26    6.78   565.2    4.4      51.632
2014    9       23    10  31    6.78   565.3    4.4      51.638
2014    9       23    10  36    6.78   565.3    4.4      51.643
2014    9       23    10  41    6.78   565.4    4.4      51.648
2014    9       23    10  47    6.78   565.5    4.4      51.652
2014    9       23    10  52    6.78   565.5    4.4      51.657
2014    9       23    10  57    6.78   565.6    4.4      51.660
2014    9       23    11   3    6.77   565.6    4.4      51.663
2014    9       23    11   8    6.77   565.7    4.4      51.666
2014    9       23    11  13    6.77   565.7    4.4      51.668
2014    9       23    11  18    6.77   565.8    4.4      51.669
2014    9       23    11  24    6.77   565.8    4.4      51.670
2014    9       23    11  29    6.77   565.9    4.4      51.670
2014    9       23    11  34    6.77   566.0    4.4      51.671
2014    9       23    11  40    6.77   566.0    4.4      51.670
2014    9       23    11  45    6.77   566.1    4.4      51.669
2014    9       23    11  50    6.77   566.1    4.4      51.668
2014    9       23    11  55    6.77   566.2    4.4      51.666
2014    9       23    12   1    6.76   566.2    4.4      51.664
2014    9       23    12   6    6.76   566.3    4.4      51.662
2014    9       23    12  11    6.76   566.3    4.4      51.660
2014    9       23    12  17    6.76   566.4    4.4      51.657
2014    9       23    12  22    6.76   566.4    4.3      51.654
2014    9       23    12  27    6.76   566.5    4.3      51.651
2014    9       23    12  33    6.76   566.5    4.3      51.647
2014    9       23    12  38    6.76   566.6    4.3      51.644
2014    9       23    12  43    6.76   566.6    4.3      51.641
2014    9       23    12  48    6.76   566.6    4.3      51.638
2014    9       23    12  54    6.76   566.7    4.3      51.634
2014    9       23    12  59    6.75   566.7    4.3      51.631
2014    9       23    13   4    6.75   566.8    4.3      51.628
2014    9       23    13  10    6.75   566.8    4.3      51.626
2014    9       23    13  15    6.75   566.9    4.3      51.623
2014    9       23    13  20    6.75   566.9    4.3      51.621
2014    9       23    13  25    6.75   567.0    4.3      51.619
2014    9       23    13  31    6.75   567.0    4.3      51.617
2014    9       23    13  36    6.75   567.1    4.3      51.616
2014    9       23    13  41    6.75   567.1    4.3      51.615
2014    9       23    13  47    6.75   567.2    4.3      51.614
2014    9       23    13  52    6.75   567.2    4.3      51.614
2014    9       23    13  57    6.75   567.3    4.3      51.614
2014    9       23    14   2    6.75   567.3    4.3      51.614
2014    9       23    14   8    6.75   567.4    4.3      51.615
2014    9       23    14  13    6.75   567.4    4.3      51.616
2014    9       23    14  18    6.75   567.5    4.3      51.618
2014    9       23    14  24    6.74   567.5    4.3      51.621
2014    9       23    14  29    6.74   567.5    4.3      51.624
2014    9       23    14  34    6.74   567.6    4.3      51.628
2014    9       23    14  39    6.74   567.6    4.3      51.633
2014    9       23    14  45    6.74   567.7    4.3      51.638
2014    9       23    14  50    6.74   567.7    4.3      51.645
2014    9       23    14  55    6.74   567.8    4.3      51.653
2014    9       23    15   1    6.74   567.8    4.3      51.662
2014    9       23    15   6    6.74   567.9    4.3      51.672
2014    9       23    15  11    6.74   567.9    4.3      51.684
2014    9       23    15  16    6.74   568.0    4.3      51.696
2014    9       23    15  22    6.74   568.0    4.3      51.710
2014    9       23    15  27    6.74   568.1    4.3      51.725
2014    9       23    15  32    6.74   568.1    4.3      51.740
2014    9       23    15  38    6.74   568.2    4.3      51.756
2014    9       23    15  43    6.74   568.2    4.3      51.772
2014    9       23    15  48    6.74   568.3    4.3      51.788
2014    9       23    15  53    6.74   568.4    4.3      51.805
2014    9       23    15  59    6.74   568.4    4.3      51.823
2014    9       23    16   4    6.74   568.5    4.3      51.841
2014    9       23    16   9    6.74   568.5    4.3      51.859
2014    9       23    16  15    6.74   568.6    4.3      51.878
2014    9       23    16  20    6.74   568.6    4.3      51.898
2014    9       23    16  25    6.74   568.7    4.3      51.917
2014    9       23    16  30    6.74   568.7    4.3      51.938
2014    9       23    16  36    6.74   568.8    4.3      51.958
2014    9       23    16  41    6.74   568.8    4.3      51.978
2014    9       23    16  46    6.74   568.9    4.3      51.999
2014    9       23    16  52    6.74   568.9    4.3      52.019
2014    9       23    16  57    6.74   569.0    4.3      52.039
2014    9       23    17   2    6.74   569.1    4.3      52.059
2014    9       23    17   7    6.73   569.1    4.3      52.078
2014    9       23    17  13    6.73   569.2    4.3      52.097
2014    9       23    17  18    6.73   569.2    4.3      52.115
2014    9       23    17  23    6.73   569.3    4.3      52.132
2014    9       23    17  29    6.73   569.3    4.3      52.149
2014    9       23    17  34    6.73   569.4    4.3      52.166
2014    9       23    17  39    6.73   569.5    4.3      52.181
2014    9       23    17  44    6.73   569.5    4.3      52.196
2014    9       23    17  50    6.73   569.6    4.3      52.210
2014    9       23    17  55    6.73   569.6    4.3      52.223
2014    9       23    18   0    6.73   569.7    4.3      52.235
2014    9       23    18   6    6.73   569.7    4.3      52.247
2014    9       23    18  11    6.73   569.8    4.3      52.258
2014    9       23    18  16    6.73   569.8    4.3      52.268
2014    9       23    18  22    6.73   569.9    4.3      52.278
2014    9       23    18  27    6.73   570.0    4.3      52.286
2014    9       23    18  32    6.73   570.0    4.3      52.294
2014    9       23    18  37    6.73   570.1    4.3      52.302
2014    9       23    18  43    6.73   570.1    4.3      52.309
2014    9       23    18  48    6.73   570.2    4.3      52.316
2014    9       23    18  53    6.73   570.2    4.3      52.322
2014    9       23    18  59    6.73   570.3    4.3      52.327
2014    9       23    19   4    6.73   570.3    4.3      52.332
2014    9       23    19   9    6.73   570.4    4.3      52.336
2014    9       23    19  14    6.73   570.4    4.3      52.341
2014    9       23    19  20    6.73   570.5    4.3      52.344
2014    9       23    19  25    6.73   570.5    4.3      52.348
2014    9       23    19  30    6.73   570.6    4.3      52.351
2014    9       23    19  36    6.73   570.6    4.3      52.354
2014    9       23    19  41    6.73   570.7    4.3      52.357
2014    9       23    19  46    6.73   570.7    4.3      52.360
2014    9       23    19  51    6.73   570.8    4.3      52.362
2014    9       23    19  57    6.73   570.8    4.3      52.365
2014    9       23    20   2    6.73   570.9    4.3      52.368
2014    9       23    20   7    6.73   570.9    4.2      52.371
2014    9       23    20  13    6.73   571.0    4.2      52.374
2014    9       23    20  18    6.73   571.0    4.2      52.377
2014    9       23    20  23    6.73   571.0    4.2      52.381
2014    9       23    20  28    6.73   571.1    4.2      52.385
2014    9       23    20  34    6.73   571.1    4.2      52.389
2014    9       23    20  39    6.73   571.2    4.2      52.393
2014    9       23    20  44    6.73   571.2    4.2      52.398
2014    9       23    20  50    6.73   571.3    4.2      52.404
2014    9       23    20  55    6.73   571.3    4.2      52.410
2014    9       23    21   0    6.73   571.4    4.2      52.416
2014    9       23    21   5    6.73   571.4    4.2      52.423
2014    9       23    21  11    6.73   571.5    4.2      52.431
2014    9       23    21  16    6.73   571.5    4.2      52.439
2014    9       23    21  21    6.73   571.6    4.2      52.448
2014    9       23    21  27    6.73   571.6    4.2      52.458
2014    9       23    21  32    6.73   571.7    4.2      52.468
2014    9       23    21  37    6.73   571.7    4.2      52.479
2014    9       23    21  42    6.73   571.8    4.2      52.491
2014    9       23    21  48    6.73   571.9    4.2      52.504
2014    9       23    21  53    6.73   571.9    4.2      52.518
2014    9       23    21  58    6.73   572.0    4.2      52.533
2014    9       23    22   4    6.73   572.0    4.2      52.548
2014    9       23    22   9    6.73   572.1    4.2      52.565
2014    9       23    22  14    6.73   572.1    4.2      52.583
2014    9       23    22  19    6.73   572.2    4.2      52.601
2014    9       23    22  25    6.73   572.2    4.2      52.621
2014    9       23    22  30    6.73   572.3    4.2      52.641
2014    9       23    22  35    6.73   572.3    4.2      52.661
2014    9       23    22  41    6.73   572.4    4.2      52.683
2014    9       23    22  46    6.73   572.5    4.2      52.705
2014    9       23    22  51    6.73   572.5    4.2      52.727
2014    9       23    22  57    6.73   572.6    4.2      52.751
2014    9       23    23   2    6.73   572.6    4.2      52.775
2014    9       23    23   7    6.73   572.7    4.2      52.800
2014    9       23    23  12    6.73   572.8    4.2      52.826
2014    9       23    23  18    6.73   572.8    4.2      52.853
2014    9       23    23  23    6.73   572.9    4.2      52.880
2014    9       23    23  28    6.73   573.0    4.2      52.908
2014    9       23    23  34    6.73   573.0    4.2      52.936
2014    9       23    23  39    6.73   573.1    4.2      52.965
2014    9       23    23  44    6.73   573.1    4.2      52.994
2014    9       23    23  49    6.73   573.2    4.2      53.023
2014    9       23    23  55    6.73   573.3    4.2      53.053
2014    9       24     0   0    6.73   573.3    4.2      53.083
2014    9       24     0   5    6.74   573.4    4.2      53.113
2014    9       24     0  11    6.74   573.5    4.2      53.143
2014    9       24     0  16    6.74   573.5    4.2      53.173
2014    9       24     0  21    6.74   573.6    4.2      53.203
2014    9       24     0  26    6.74   573.7    4.2      53.233
2014    9       24     0  32    6.74   573.8    4.2      53.263
2014    9       24     0  37    6.74   573.8    4.2      53.293
2014    9       24     0  42    6.74   573.9    4.2      53.322
2014    9       24     0  48    6.74   574.0    4.2      53.352
2014    9       24     0  53    6.74   574.1    4.2      53.380
2014    9       24     0  58    6.74   574.1    4.2      53.407
2014    9       24     1   3    6.74   574.2    4.2      53.433
2014    9       24     1   9    6.74   574.3    4.2      53.459
2014    9       24     1  14    6.74   574.4    4.2      53.483
2014    9       24     1  19    6.74   574.5    4.2      53.506
2014    9       24     1  25    6.74   574.5    4.2      53.529
2014    9       24     1  30    6.74   574.6    4.2      53.551
2014    9       24     1  35    6.74   574.7    4.2      53.572
2014    9       24     1  40    6.74   574.8    4.2      53.593
2014    9       24     1  46    6.74   574.8    4.2      53.614
2014    9       24     1  51    6.74   574.9    4.2      53.633
2014    9       24     1  56    6.74   575.0    4.2      53.653
2014    9       24     2   2    6.74   575.1    4.2      53.671
2014    9       24     2   7    6.74   575.1    4.2      53.690
2014    9       24     2  12    6.74   575.2    4.2      53.708
2014    9       24     2  17    6.74   575.3    4.2      53.726
2014    9       24     2  23    6.74   575.4    4.2      53.743
2014    9       24     2  28    6.74   575.4    4.2      53.760
2014    9       24     2  33    6.74   575.5    4.2      53.777
2014    9       24     2  39    6.74   575.6    4.2      53.794
2014    9       24     2  44    6.74   575.7    4.2      53.810
2014    9       24     2  49    6.74   575.8    4.2      53.826
2014    9       24     2  54    6.74   575.8    4.2      53.843
2014    9       24     3   0    6.75   575.9    4.2      53.859
2014    9       24     3   5    6.75   576.0    4.2      53.875
2014    9       24     3  10    6.75   576.1    4.2      53.891
2014    9       24     3  16    6.75   576.2    4.2      53.907
2014    9       24     3  21    6.75   576.2    4.2      53.923
2014    9       24     3  26    6.75   576.3    4.2      53.939
2014    9       24     3  31    6.75   576.4    4.2      53.956
2014    9       24     3  37    6.75   576.5    4.2      53.972
2014    9       24     3  42    6.75   576.6    4.2      53.989
2014    9       24     3  47    6.75   576.7    4.2      54.007
2014    9       24     3  53    6.75   576.7    4.2      54.024
2014    9       24     3  58    6.75   576.8    4.2      54.042
2014    9       24     4   3    6.75   576.9    4.2      54.060
2014    9       24     4   9    6.75   577.0    4.2      54.079
2014    9       24     4  14    6.75   577.1    4.2      54.097
2014    9       24     4  19    6.75   577.2    4.2      54.117
2014    9       24     4  24    6.75   577.3    4.2      54.136
2014    9       24     4  30    6.76   577.4    4.2      54.157
2014    9       24     4  35    6.76   577.5    4.2      54.178
2014    9       24     4  40    6.76   577.6    4.2      54.200
2014    9       24     4  46    6.76   577.7    4.2      54.222
2014    9       24     4  51    6.76   577.8    4.2      54.245
2014    9       24     4  56    6.76   577.9    4.2      54.268
2014    9       24     5   1    6.76   578.0    4.2      54.292
2014    9       24     5   7    6.76   578.1    4.2      54.317
2014    9       24     5  12    6.76   578.2    4.2      54.343
2014    9       24     5  17    6.76   578.3    4.2      54.370
2014    9       24     5  23    6.76   578.4    4.2      54.398
2014    9       24     5  28    6.76   578.5    4.2      54.426
2014    9       24     5  33    6.76   578.6    4.2      54.455
2014    9       24     5  38    6.76   578.7    4.2      54.484
2014    9       24     5  44    6.76   578.8    4.2      54.514
2014    9       24     5  49    6.76   578.9    4.2      54.543
2014    9       24     5  54    6.76   579.0    4.2      54.573
2014    9       24     6   0    6.76   579.1    4.2      54.603
2014    9       24     6   5    6.77   579.2    4.2      54.633
2014    9       24     6  10    6.77   579.3    4.2      54.663
2014    9       24     6  15    6.77   579.4    4.2      54.694
2014    9       24     6  21    6.77   579.5    4.2      54.726
2014    9       24     6  26    6.77   579.6    4.2      54.758
2014    9       24     6  31    6.77   579.7    4.2      54.790
2014    9       24     6  37    6.77   579.8    4.2      54.823
2014    9       24     6  42    6.77   579.9    4.2      54.857
2014    9       24     6  47    6.77   580.1    4.2      54.891
2014    9       24     6  52    6.77   580.2    4.2      54.926
2014    9       24     6  58    6.77   580.3    4.2      54.961
2014    9       24     7   3    6.77   580.4    4.2      54.998
2014    9       24     7   8    6.77   580.5    4.2      55.034
2014    9       24     7  14    6.77   580.6    4.2      55.072
2014    9       24     7  19    6.77   580.7    4.2      55.109
2014    9       24     7  24    6.77   580.9    4.2      55.147
2014    9       24     7  29    6.77   581.0    4.2      55.186
2014    9       24     7  35    6.77   581.1    4.2      55.224
2014    9       24     7  40    6.77   581.2    4.2      55.262
2014    9       24     7  45    6.77   581.3    4.2      55.301
2014    9       24     7  51    6.77   581.4    4.2      55.339
2014    9       24     7  56    6.77   581.6    4.1      55.377
2014    9       24     8   1    6.77   581.7    4.1      55.416
2014    9       24     8   6    6.77   581.8    4.1      55.454
2014    9       24     8  12    6.77   581.9    4.1      55.492
2014    9       24     8  17    6.77   582.0    4.1      55.529
2014    9       24     8  22    6.77   582.2    4.1      55.566
2014    9       24     8  28    6.77   582.3    4.1      55.603
2014    9       24     8  33    6.78   582.4    4.1      55.639
2014    9       24     8  38    6.78   582.5    4.1      55.676
2014    9       24     8  43    6.78   582.6    4.1      55.712
2014    9       24     8  49    6.78   582.8    4.1      55.747
2014    9       24     8  54    6.78   582.9    4.1      55.782
2014    9       24     8  59    6.78   583.0    4.1      55.818
2014    9       24     9   5    6.78   583.1    4.1      55.853
2014    9       24     9  10    6.78   583.3    4.1      55.888
2014    9       24     9  15    6.78   583.4    4.1      55.922
2014    9       24     9  20    6.78   583.5    4.1      55.956
2014    9       24     9  26    6.78   583.6    4.1      55.990
2014    9       24     9  31    6.78   583.8    4.1      56.023
2014    9       24     9  36    6.78   583.9    4.1      56.055
2014    9       24     9  42    6.78   584.1    4.1      56.086
2014    9       24     9  47    6.78   584.2    4.1      56.116
2014    9       24     9  52    6.78   584.3    4.1      56.146
2014    9       24     9  58    6.78   584.5    4.1      56.175
2014    9       24    10   3    6.78   584.6    4.1      56.203
2014    9       24    10   8    6.78   584.8    4.1      56.230
2014    9       24    10  13    6.79   584.9    4.1      56.257
2014    9       24    10  19    6.79   585.1    4.1      56.283
2014    9       24    10  24    6.79   585.2    4.1      56.309
2014    9       24    10  29    6.79   585.4    4.1      56.334
2014    9       24    10  35    6.79   585.5    4.1      56.358
2014    9       24    10  40    6.79   585.7    4.1      56.383
2014    9       24    10  45    6.79   585.8    4.1      56.407
2014    9       24    10  50    6.79   586.0    4.1      56.431
2014    9       24    10  56    6.79   586.1    4.1      56.454
2014    9       24    11   1    6.79   586.3    4.1      56.478
2014    9       24    11   6    6.79   586.4    4.1      56.501
2014    9       24    11  12    6.79   586.6    4.1      56.524
2014    9       24    11  17    6.79   586.8    4.1      56.546
2014    9       24    11  22    6.79   586.9    4.1      56.568
2014    9       24    11  27    6.79   587.1    4.1      56.590
2014    9       24    11  33    6.79   587.2    4.1      56.613
2014    9       24    11  38    6.79   587.4    4.1      56.635
2014    9       24    11  43    6.79   587.5    4.1      56.657
2014    9       24    11  49    6.79   587.7    4.1      56.680
2014    9       24    11  54    6.79   587.9    4.1      56.704
2014    9       24    11  59    6.80   588.0    4.1      56.728
2014    9       24    12   4    6.80   588.2    4.1      56.753
2014    9       24    12  10    6.80   588.4    4.1      56.780
2014    9       24    12  15    6.80   588.5    4.1      56.808
2014    9       24    12  20    6.80   588.7    4.1      56.838
2014    9       24    12  26    6.80   588.9    4.1      56.869
2014    9       24    12  31    6.80   589.0    4.1      56.903
2014    9       24    12  36    6.80   589.2    4.1      56.938
2014    9       24    12  41    6.80   589.4    4.1      56.976
2014    9       24    12  47    6.80   589.6    4.1      57.015
2014    9       24    12  52    6.80   589.8    4.1      57.054
2014    9       24    12  57    6.80   589.9    4.1      57.095
2014    9       24    13   3    6.80   590.1    4.1      57.136
2014    9       24    13   8    6.80   590.3    4.1      57.176
2014    9       24    13  13    6.80   590.5    4.1      57.217
2014    9       24    13  18    6.80   590.7    4.1      57.258
2014    9       24    13  24    6.80   590.9    4.1      57.299
2014    9       24    13  29    6.80   591.0    4.1      57.340
2014    9       24    13  34    6.80   591.2    4.1      57.382
2014    9       24    13  40    6.80   591.4    4.1      57.425
2014    9       24    13  45    6.80   591.6    4.1      57.467
2014    9       24    13  50    6.80   591.8    4.0      57.511
2014    9       24    13  55    6.80   592.0    4.0      57.554
2014    9       24    14   1    6.80   592.2    4.0      57.598
2014    9       24    14   6    6.80   592.4    4.0      57.641
2014    9       24    14  11    6.80   592.6    4.0      57.685
2014    9       24    14  17    6.80   592.7    4.0      57.728
2014    9       24    14  22    6.80   592.9    4.0      57.771
2014    9       24    14  27    6.80   593.1    4.0      57.814
2014    9       24    14  33    6.80   593.3    4.0      57.856
2014    9       24    14  38    6.79   593.5    4.0      57.898
2014    9       24    14  43    6.79   593.7    4.0      57.939
2014    9       24    14  48    6.79   593.9    4.0      57.979
2014    9       24    14  54    6.79   594.1    4.0      58.019
2014    9       24    14  59    6.79   594.2    4.0      58.059
2014    9       24    15   4    6.79   594.4    4.0      58.099
2014    9       24    15  10    6.79   594.6    4.0      58.138
2014    9       24    15  15    6.79   594.8    4.0      58.176
2014    9       24    15  20    6.79   595.0    4.0      58.215
2014    9       24    15  25    6.79   595.2    4.0      58.253
2014    9       24    15  31    6.79   595.3    4.0      58.292
2014    9       24    15  36    6.79   595.5    4.0      58.330
2014    9       24    15  41    6.79   595.7    4.0      58.368
2014    9       24    15  47    6.79   595.9    4.0      58.406
2014    9       24    15  52    6.79   596.1    4.0      58.444
2014    9       24    15  57    6.79   596.3    4.0      58.482
2014    9       24    16   2    6.79   596.4    4.0      58.520
2014    9       24    16   8    6.79   596.6    4.0      58.557
2014    9       24    16  13    6.79   596.8    4.0      58.595
2014    9       24    16  18    6.79   597.0    4.0      58.632
2014    9       24    16  24    6.79   597.2    4.0      58.668
2014    9       24    16  29    6.79   597.4    4.0      58.703
2014    9       24    16  34    6.79   597.6    4.0      58.738
2014    9       24    16  39    6.79   597.8    4.0      58.771
2014    9       24    16  45    6.78   598.0    4.0      58.804
2014    9       24    16  50    6.78   598.2    4.0      58.835
2014    9       24    16  55    6.78   598.4    4.0      58.866
2014    9       24    17   1    6.78   598.6    3.9      58.896
2014    9       24    17   6    6.78   598.7    3.9      58.924
2014    9       24    17  11    6.78   598.9    3.9      58.952
2014    9       24    17  16    6.78   599.1    3.9      58.979
2014    9       24    17  22    6.78   599.3    3.9      59.005
2014    9       24    17  27    6.78   599.5    3.9      59.030
2014    9       24    17  32    6.78   599.7    3.9      59.055
2014    9       24    17  38    6.78   599.9    3.9      59.079
2014    9       24    17  43    6.78   600.1    3.9      59.102
2014    9       24    17  48    6.78   600.3    3.9      59.125
2014    9       24    17  53    6.78   600.5    3.9      59.148
2014    9       24    17  59    6.78   600.7    3.9      59.171
2014    9       24    18   4    6.78   600.9    3.9      59.194
2014    9       24    18   9    6.77   601.1    3.9      59.216
2014    9       24    18  15    6.77   601.3    3.9      59.239
2014    9       24    18  20    6.77   601.5    3.9      59.262
2014    9       24    18  25    6.77   601.7    3.9      59.285
2014    9       24    18  31    6.77   601.9    3.9      59.307
2014    9       24    18  36    6.77   602.1    3.9      59.330
2014    9       24    18  41    6.77   602.2    3.9      59.352
2014    9       24    18  46    6.77   602.4    3.9      59.375
2014    9       24    18  52    6.77   602.6    3.9      59.397
2014    9       24    18  57    6.77   602.8    3.9      59.420
2014    9       24    19   2    6.77   603.0    3.9      59.444
2014    9       24    19   8    6.77   603.2    3.9      59.468
2014    9       24    19  13    6.76   603.4    3.9      59.492
2014    9       24    19  18    6.76   603.6    3.9      59.518
2014    9       24    19  23    6.76   603.8    3.9      59.545
2014    9       24    19  29    6.76   604.0    3.9      59.572
2014    9       24    19  34    6.76   604.2    3.9      59.601
2014    9       24    19  39    6.76   604.5    3.9      59.632
2014    9       24    19  45    6.76   604.7    3.9      59.664
2014    9       24    19  50    6.76   604.9    3.9      59.699
2014    9       24    19  55    6.76   605.1    3.9      59.734
2014    9       24    20   0    6.75   605.3    3.9      59.770
2014    9       24    20   6    6.75   605.5    3.9      59.806
2014    9       24    20  11    6.75   605.7    3.8      59.843
2014    9       24    20  16    6.75   605.9    3.8      59.879
2014    9       24    20  22    6.75   606.1    3.8      59.916
2014    9       24    20  27    6.75   606.4    3.8      59.952
2014    9       24    20  32    6.75   606.6    3.8      59.987
2014    9       24    20  37    6.74   606.8    3.8      60.023
2014    9       24    20  43    6.74   607.0    3.8      60.059
2014    9       24    20  48    6.74   607.2    3.8      60.095
2014    9       24    20  53    6.74   607.4    3.8      60.131
2014    9       24    20  59    6.74   607.6    3.8      60.166
2014    9       24    21   4    6.74   607.8    3.8      60.202
2014    9       24    21   9    6.73   608.0    3.8      60.237
2014    9       24    21  14    6.73   608.2    3.8      60.272
2014    9       24    21  20    6.73   608.4    3.8      60.307
2014    9       24    21  25    6.73   608.6    3.8      60.342
2014    9       24    21  30    6.73   608.8    3.8      60.376
2014    9       24    21  36    6.72   609.0    3.8      60.410
2014    9       24    21  41    6.72   609.2    3.8      60.444
2014    9       24    21  46    6.72   609.4    3.8      60.478
2014    9       24    21  51    6.72   609.6    3.8      60.511
2014    9       24    21  57    6.72   609.8    3.8      60.544
2014    9       24    22   2    6.71   610.0    3.8      60.576
2014    9       24    22   7    6.71   610.2    3.8      60.608
2014    9       24    22  13    6.71   610.4    3.8      60.639
2014    9       24    22  18    6.71   610.6    3.8      60.671
2014    9       24    22  23    6.71   610.8    3.7      60.702
2014    9       24    22  28    6.70   611.0    3.7      60.732
2014    9       24    22  34    6.70   611.2    3.7      60.762
2014    9       24    22  39    6.70   611.4    3.7      60.791
2014    9       24    22  44    6.70   611.6    3.7      60.821
2014    9       24    22  50    6.70   611.8    3.7      60.849
2014    9       24    22  55    6.69   611.9    3.7      60.877
2014    9       24    23   0    6.69   612.1    3.7      60.904
2014    9       24    23   5    6.69   612.3    3.7      60.930
2014    9       24    23  11    6.69   612.5    3.7      60.956
2014    9       24    23  16    6.69   612.7    3.7      60.980
2014    9       24    23  21    6.68   612.9    3.7      61.004
2014    9       24    23  27    6.68   613.0    3.7      61.026
2014    9       24    23  32    6.68   613.2    3.7      61.048
2014    9       24    23  37    6.68   613.4    3.7      61.068
2014    9       24    23  43    6.67   613.5    3.7      61.087
2014    9       24    23  48    6.67   613.7    3.7      61.105
2014    9       24    23  53    6.67   613.9    3.7      61.122
2014    9       24    23  58    6.67   614.1    3.7      61.138
2014    9       25     0   4    6.67   614.2    3.7      61.152
2014    9       25     0   9    6.66   614.4    3.7      61.165
2014    9       25     0  14    6.66   614.6    3.7      61.178
2014    9       25     0  20    6.66   614.7    3.7      61.189
2014    9       25     0  25    6.66   614.9    3.7      61.199
2014    9       25     0  30    6.65   615.0    3.7      61.209
2014    9       25     0  35    6.65   615.2    3.7      61.217
2014    9       25     0  41    6.65   615.4    3.7      61.225
2014    9       25     0  46    6.65   615.5    3.7      61.232
2014    9       25     0  51    6.65   615.7    3.6      61.239
2014    9       25     0  57    6.64   615.8    3.6      61.245
2014    9       25     1   2    6.64   616.0    3.6      61.250
2014    9       25     1   7    6.64   616.1    3.6      61.255
2014    9       25     1  12    6.64   616.3    3.6      61.259
2014    9       25     1  18    6.63   616.4    3.6      61.263
2014    9       25     1  23    6.63   616.6    3.6      61.267
2014    9       25     1  28    6.63   616.7    3.6      61.271
2014    9       25     1  34    6.63   616.9    3.6      61.274
2014    9       25     1  39    6.62   617.0    3.6      61.278
2014    9       25     1  44    6.62   617.1    3.6      61.281
2014    9       25     1  49    6.62   617.3    3.6      61.284
2014    9       25     1  55    6.62   617.4    3.6      61.287
2014    9       25     2   0    6.61   617.6    3.6      61.290
2014    9       25     2   5    6.61   617.7    3.6      61.294
2014    9       25     2  11    6.61   617.9    3.6      61.297
2014    9       25     2  16    6.61   618.0    3.6      61.300
2014    9       25     2  21    6.60   618.1    3.6      61.303
2014    9       25     2  26    6.60   618.3    3.6      61.307
2014    9       25     2  32    6.60   618.4    3.6      61.311
2014    9       25     2  37    6.60   618.5    3.6      61.315
2014    9       25     2  42    6.59   618.7    3.6      61.319
2014    9       25     2  48    6.59   618.8    3.6      61.324
2014    9       25     2  53    6.59   618.9    3.6      61.329
2014    9       25     2  58    6.59   619.1    3.6      61.335
2014    9       25     3   4    6.58   619.2    3.6      61.341
2014    9       25     3   9    6.58   619.3    3.6      61.347
2014    9       25     3  14    6.58   619.4    3.6      61.354
2014    9       25     3  19    6.58   619.6    3.6      61.362
2014    9       25     3  25    6.57   619.7    3.5      61.370
2014    9       25     3  30    6.57   619.8    3.5      61.380
2014    9       25     3  35    6.57   619.9    3.5      61.389
2014    9       25     3  41    6.56   620.1    3.5      61.400
2014    9       25     3  46    6.56   620.2    3.5      61.411
2014    9       25     3  51    6.56   620.3    3.5      61.422
2014    9       25     3  56    6.56   620.4    3.5      61.435
2014    9       25     4   2    6.55   620.6    3.5      61.448
2014    9       25     4   7    6.55   620.7    3.5      61.461
2014    9       25     4  12    6.55   620.8    3.5      61.475
2014    9       25     4  18    6.55   620.9    3.5      61.490
2014    9       25     4  23    6.54   621.0    3.5      61.505
2014    9       25     4  28    6.54   621.2    3.5      61.521
2014    9       25     4  33    6.54   621.3    3.5      61.537
2014    9       25     4  39    6.53   621.4    3.5      61.554
2014    9       25     4  44    6.53   621.5    3.5      61.571
2014    9       25     4  49    6.53   621.6    3.5      61.589
2014    9       25     4  55    6.53   621.7    3.5      61.608
2014    9       25     5   0    6.52   621.8    3.5      61.627
2014    9       25     5   5    6.52   621.9    3.5      61.646
2014    9       25     5  10    6.52   622.0    3.5      61.665
2014    9       25     5  16    6.51   622.1    3.5      61.685
2014    9       25     5  21    6.51   622.3    3.5      61.705
2014    9       25     5  26    6.51   622.4    3.5      61.726
2014    9       25     5  32    6.51   622.5    3.5      61.746
2014    9       25     5  37    6.50   622.6    3.5      61.766
2014    9       25     5  42    6.50   622.7    3.5      61.785
2014    9       25     5  47    6.50   622.8    3.5      61.804
2014    9       25     5  53    6.50   622.9    3.5      61.822
2014    9       25     5  58    6.49   623.0    3.5      61.838
2014    9       25     6   3    6.49   623.1    3.5      61.854
2014    9       25     6   9    6.49   623.2    3.5      61.868
2014    9       25     6  14    6.48   623.3    3.5      61.881
2014    9       25     6  19    6.48   623.4    3.5      61.893
2014    9       25     6  24    6.48   623.5    3.5      61.904
2014    9       25     6  30    6.48   623.6    3.5      61.913
2014    9       25     6  35    6.47   623.7    3.4      61.920
2014    9       25     6  40    6.47   623.8    3.4      61.926
2014    9       25     6  46    6.47   623.9    3.4      61.931
2014    9       25     6  51    6.47   623.9    3.4      61.934
2014    9       25     6  56    6.46   624.0    3.4      61.936
2014    9       25     7   1    6.46   624.1    3.4      61.937
2014    9       25     7   7    6.46   624.2    3.4      61.936
2014    9       25     7  12    6.45   624.3    3.4      61.934
2014    9       25     7  17    6.45   624.4    3.4      61.931
2014    9       25     7  23    6.45   624.5    3.4      61.926
2014    9       25     7  28    6.45   624.5    3.4      61.920
2014    9       25     7  33    6.44   624.6    3.4      61.913
2014    9       25     7  38    6.44   624.7    3.4      61.905
2014    9       25     7  44    6.44   624.8    3.4      61.896
2014    9       25     7  49    6.44   624.8    3.4      61.886
2014    9       25     7  54    6.43   624.9    3.4      61.876
2014    9       25     8   0    6.43   625.0    3.4      61.864
2014    9       25     8   5    6.43   625.1    3.4      61.852
2014    9       25     8  10    6.43   625.1    3.4      61.840
2014    9       25     8  16    6.42   625.2    3.4      61.827
2014    9       25     8  21    6.42   625.3    3.4      61.813
2014    9       25     8  26    6.42   625.3    3.4      61.799
2014    9       25     8  31    6.41   625.4    3.4      61.785
2014    9       25     8  37    6.41   625.5    3.4      61.770
2014    9       25     8  42    6.41   625.5    3.4      61.755
2014    9       25     8  47    6.41   625.6    3.4      61.739
2014    9       25     8  53    6.40   625.6    3.4      61.723
2014    9       25     8  58    6.40   625.7    3.4      61.707
2014    9       25     9   3    6.40   625.8    3.4      61.691
2014    9       25     9   8    6.39   625.8    3.4      61.675
2014    9       25     9  14    6.39   625.9    3.4      61.658
2014    9       25     9  19    6.39   625.9    3.4      61.642
2014    9       25     9  24    6.39   626.0    3.4      61.625
2014    9       25     9  30    6.38   626.0    3.4      61.608
2014    9       25     9  35    6.38   626.1    3.4      61.591
2014    9       25     9  40    6.38   626.1    3.4      61.575
2014    9       25     9  45    6.38   626.2    3.3      61.558
2014    9       25     9  51    6.37   626.2    3.3      61.542
2014    9       25     9  56    6.37   626.2    3.3      61.526
2014    9       25    10   1    6.37   626.3    3.3      61.511
2014    9       25    10   7    6.36   626.3    3.3      61.496
2014    9       25    10  12    6.36   626.4    3.3      61.481
2014    9       25    10  17    6.36   626.4    3.3      61.468
2014    9       25    10  22    6.36   626.4    3.3      61.454
2014    9       25    10  28    6.35   626.5    3.3      61.442
2014    9       25    10  33    6.35   626.5    3.3      61.430
2014    9       25    10  38    6.35   626.5    3.3      61.419
2014    9       25    10  44    6.35   626.6    3.3      61.409
2014    9       25    10  49    6.34   626.6    3.3      61.399
2014    9       25    10  54    6.34   626.6    3.3      61.391
2014    9       25    10  59    6.34   626.7    3.3      61.384
2014    9       25    11   5    6.34   626.7    3.3      61.377
2014    9       25    11  10    6.33   626.7    3.3      61.372
2014    9       25    11  15    6.33   626.8    3.3      61.368
2014    9       25    11  21    6.33   626.8    3.3      61.364
2014    9       25    11  26    6.33   626.8    3.3      61.362
2014    9       25    11  31    6.32   626.9    3.3      61.361
2014    9       25    11  36    6.32   626.9    3.3      61.362
2014    9       25    11  42    6.32   626.9    3.3      61.363
2014    9       25    11  47    6.32   626.9    3.3      61.366
2014    9       25    11  52    6.31   627.0    3.3      61.370
2014    9       25    11  58    6.31   627.0    3.3      61.376
2014    9       25    12   3    6.31   627.0    3.3      61.383
2014    9       25    12   8    6.31   627.1    3.3      61.392
2014    9       25    12  13    6.30   627.1    3.3      61.403
2014    9       25    12  19    6.30   627.1    3.3      61.415
2014    9       25    12  24    6.30   627.1    3.3      61.428
2014    9       25    12  29    6.30   627.2    3.3      61.443
2014    9       25    12  35    6.29   627.2    3.3      61.460
2014    9       25    12  40    6.29   627.2    3.3      61.478
2014    9       25    12  45    6.29   627.3    3.3      61.497
2014    9       25    12  51    6.29   627.3    3.3      61.516
2014    9       25    12  56    6.29   627.3    3.3      61.534
2014    9       25    13   1    6.28   627.4    3.3      61.552
2014    9       25    13   6    6.28   627.4    3.3      61.568
2014    9       25    13  12    6.28   627.4    3.3      61.582
2014    9       25    13  17    6.28   627.5    3.3      61.595
2014    9       25    13  22    6.27   627.5    3.3      61.606
2014    9       25    13  28    6.27   627.5    3.3      61.616
2014    9       25    13  33    6.27   627.6    3.3      61.624
2014    9       25    13  38    6.27   627.6    3.3      61.631
2014    9       25    13  43    6.26   627.6    3.3      61.636
2014    9       25    13  49    6.26   627.7    3.3      61.640
2014    9       25    13  54    6.26   627.7    3.3      61.642
2014    9       25    13  59    6.26   627.7    3.3      61.643
2014    9       25    14   5    6.26   627.8    3.3      61.643
2014    9       25    14  10    6.25   627.8    3.3      61.642
2014    9       25    14  15    6.25   627.8    3.3      61.639
2014    9       25    14  20    6.25   627.8    3.3      61.636
2014    9       25    14  26    6.25   627.9    3.3      61.631
2014    9       25    14  31    6.24   627.9    3.3      61.625
2014    9       25    14  36    6.24   627.9    3.3      61.619
2014    9       25    14  42    6.24   627.9    3.3      61.611
2014    9       25    14  47    6.24   628.0    3.3      61.603
2014    9       25    14  52    6.23   628.0    3.3      61.594
2014    9       25    14  57    6.23   628.0    3.3      61.584
2014    9       25    15   3    6.23   628.0    3.3      61.573
2014    9       25    15   8    6.23   628.0    3.3      61.562
2014    9       25    15  13    6.23   628.1    3.3      61.550
2014    9       25    15  19    6.22   628.1    3.3      61.537
2014    9       25    15  24    6.22   628.1    3.3      61.524
2014    9       25    15  29    6.22   628.1    3.3      61.510
2014    9       25    15  34    6.22   628.1    3.3      61.495
2014    9       25    15  40    6.21   628.2    3.3      61.480
2014    9       25    15  45    6.21   628.2    3.3      61.464
2014    9       25    15  50    6.21   628.2    3.3      61.448
2014    9       25    15  56    6.21   628.2    3.2      61.431
2014    9       25    16   1    6.20   628.2    3.2      61.413
2014    9       25    16   6    6.20   628.2    3.2      61.395
2014    9       25    16  12    6.20   628.3    3.2      61.377
2014    9       25    16  17    6.20   628.3    3.2      61.358
2014    9       25    16  22    6.19   628.3    3.2      61.338
2014    9       25    16  27    6.19   628.3    3.2      61.318
2014    9       25    16  33    6.19   628.3    3.2      61.298
2014    9       25    16  38    6.19   628.3    3.2      61.277
2014    9       25    16  43    6.18   628.3    3.2      61.256
2014    9       25    16  49    6.18   628.3    3.2      61.234
2014    9       25    16  54    6.18   628.3    3.2      61.213
2014    9       25    16  59    6.18   628.3    3.2      61.191
2014    9       25    17   4    6.17   628.3    3.2      61.169
2014    9       25    17  10    6.17   628.3    3.2      61.148
2014    9       25    17  15    6.17   628.3    3.2      61.126
2014    9       25    17  20    6.17   628.3    3.2      61.105
2014    9       25    17  26    6.17   628.3    3.2      61.084
2014    9       25    17  31    6.16   628.3    3.2      61.063
2014    9       25    17  36    6.16   628.3    3.2      61.042
2014    9       25    17  41    6.16   628.3    3.2      61.022
2014    9       25    17  47    6.16   628.3    3.2      61.003
2014    9       25    17  52    6.15   628.3    3.2      60.984
2014    9       25    17  57    6.15   628.3    3.2      60.966
2014    9       25    18   3    6.15   628.3    3.2      60.948
2014    9       25    18   8    6.15   628.3    3.2      60.931
2014    9       25    18  13    6.14   628.3    3.2      60.916
2014    9       25    18  18    6.14   628.3    3.2      60.901
2014    9       25    18  24    6.14   628.3    3.2      60.887
2014    9       25    18  29    6.14   628.3    3.2      60.874
2014    9       25    18  34    6.13   628.3    3.2      60.861
2014    9       25    18  40    6.13   628.3    3.2      60.850
2014    9       25    18  45    6.13   628.3    3.2      60.840
2014    9       25    18  50    6.13   628.3    3.2      60.832
2014    9       25    18  55    6.13   628.3    3.2      60.824
2014    9       25    19   1    6.12   628.2    3.2      60.817
2014    9       25    19   6    6.12   628.2    3.2      60.811
2014    9       25    19  11    6.12   628.2    3.2      60.807
2014    9       25    19  17    6.12   628.2    3.2      60.804
2014    9       25    19  22    6.11   628.2    3.2      60.802
2014    9       25    19  27    6.11   628.2    3.2      60.802
2014    9       25    19  32    6.11   628.2    3.2      60.804
2014    9       25    19  38    6.11   628.2    3.2      60.807
2014    9       25    19  43    6.10   628.1    3.2      60.811
2014    9       25    19  48    6.10   628.1    3.2      60.817
2014    9       25    19  54    6.10   628.1    3.2      60.824
2014    9       25    19  59    6.10   628.1    3.2      60.833
2014    9       25    20   4    6.10   628.1    3.2      60.843
2014    9       25    20   9    6.09   628.1    3.2      60.855
2014    9       25    20  15    6.09   628.0    3.2      60.867
2014    9       25    20  20    6.09   628.0    3.2      60.880
2014    9       25    20  25    6.09   628.0    3.2      60.892
2014    9       25    20  31    6.09   628.0    3.2      60.904
2014    9       25    20  36    6.08   628.0    3.2      60.915
2014    9       25    20  41    6.08   628.0    3.2      60.924
2014    9       25    20  46    6.08   627.9    3.2      60.933
2014    9       25    20  52    6.08   627.9    3.2      60.940
2014    9       25    20  57    6.07   627.9    3.2      60.946
2014    9       25    21   2    6.07   627.9    3.2      60.951
2014    9       25    21   8    6.07   627.9    3.2      60.955
2014    9       25    21  13    6.07   627.8    3.2      60.958
2014    9       25    21  18    6.07   627.8    3.2      60.960
2014    9       25    21  23    6.06   627.8    3.2      60.960
2014    9       25    21  29    6.06   627.8    3.2      60.959
2014    9       25    21  34    6.06   627.8    3.2      60.957
2014    9       25    21  39    6.06   627.8    3.2      60.954
2014    9       25    21  45    6.06   627.8    3.2      60.949
2014    9       25    21  50    6.05   627.7    3.2      60.943
2014    9       25    21  55    6.05   627.7    3.2      60.936
2014    9       25    22   0    6.05   627.7    3.2      60.928
2014    9       25    22   6    6.05   627.7    3.2      60.918
2014    9       25    22  11    6.05   627.7    3.2      60.908
2014    9       25    22  16    6.04   627.7    3.2      60.897
2014    9       25    22  22    6.04   627.6    3.2      60.885
2014    9       25    22  27    6.04   627.6    3.2      60.872
2014    9       25    22  32    6.04   627.6    3.2      60.859
2014    9       25    22  38    6.03   627.6    3.2      60.844
2014    9       25    22  43    6.03   627.6    3.2      60.829
2014    9       25    22  48    6.03   627.6    3.2      60.814
2014    9       25    22  53    6.03   627.5    3.2      60.797
2014    9       25    22  59    6.03   627.5    3.2      60.780
2014    9       25    23   4    6.02   627.5    3.2      60.762
2014    9       25    23   9    6.02   627.5    3.2      60.743
2014    9       25    23  15    6.02   627.5    3.2      60.724
2014    9       25    23  20    6.02   627.5    3.2      60.704
2014    9       25    23  25    6.01   627.5    3.2      60.683
2014    9       25    23  30    6.01   627.4    3.2      60.662
2014    9       25    23  36    6.01   627.4    3.2      60.640
2014    9       25    23  41    6.01   627.4    3.2      60.618
2014    9       25    23  46    6.00   627.4    3.2      60.594
2014    9       25    23  52    6.00   627.4    3.2      60.571
2014    9       25    23  57    6.00   627.3    3.2      60.546
2014    9       26     0   2    6.00   627.3    3.2      60.521
2014    9       26     0   7    5.99   627.3    3.1      60.496
2014    9       26     0  13    5.99   627.3    3.1      60.470
2014    9       26     0  18    5.99   627.2    3.1      60.444
2014    9       26     0  23    5.99   627.2    3.1      60.418
2014    9       26     0  29    5.98   627.2    3.1      60.391
2014    9       26     0  34    5.98   627.1    3.1      60.364
2014    9       26     0  39    5.98   627.1    3.1      60.338
2014    9       26     0  44    5.98   627.1    3.1      60.311
2014    9       26     0  50    5.97   627.0    3.1      60.285
2014    9       26     0  55    5.97   627.0    3.1      60.258
2014    9       26     1   0    5.97   627.0    3.1      60.232
2014    9       26     1   6    5.97   626.9    3.1      60.207
2014    9       26     1  11    5.96   626.9    3.1      60.182
2014    9       26     1  16    5.96   626.8    3.1      60.158
2014    9       26     1  21    5.96   626.8    3.1      60.135
2014    9       26     1  27    5.96   626.7    3.1      60.112
2014    9       26     1  32    5.96   626.7    3.1      60.090
2014    9       26     1  37    5.95   626.7    3.1      60.069
2014    9       26     1  43    5.95   626.6    3.1      60.049
2014    9       26     1  48    5.95   626.6    3.1      60.031
2014    9       26     1  53    5.95   626.5    3.1      60.013
2014    9       26     1  58    5.94   626.5    3.1      59.995
2014    9       26     2   4    5.94   626.4    3.1      59.980
2014    9       26     2   9    5.94   626.4    3.1      59.965
2014    9       26     2  14    5.94   626.3    3.1      59.951
2014    9       26     2  20    5.93   626.2    3.1      59.939
2014    9       26     2  25    5.93   626.2    3.1      59.927
2014    9       26     2  30    5.93   626.1    3.1      59.917
2014    9       26     2  35    5.93   626.1    3.1      59.908
2014    9       26     2  41    5.93   626.0    3.1      59.901
2014    9       26     2  46    5.92   626.0    3.1      59.894
2014    9       26     2  51    5.92   625.9    3.1      59.889
2014    9       26     2  57    5.92   625.9    3.1      59.885
2014    9       26     3   2    5.92   625.8    3.1      59.882
2014    9       26     3   7    5.91   625.7    3.1      59.880
2014    9       26     3  12    5.91   625.7    3.1      59.880
2014    9       26     3  18    5.91   625.6    3.1      59.882
2014    9       26     3  23    5.91   625.6    3.1      59.883
2014    9       26     3  28    5.91   625.5    3.1      59.886
2014    9       26     3  34    5.90   625.4    3.1      59.890
2014    9       26     3  39    5.90   625.4    3.1      59.894
2014    9       26     3  44    5.90   625.3    3.1      59.898
2014    9       26     3  49    5.90   625.3    3.1      59.901
2014    9       26     3  55    5.90   625.2    3.1      59.904
2014    9       26     4   0    5.89   625.2    3.1      59.906
2014    9       26     4   5    5.89   625.1    3.1      59.908
2014    9       26     4  11    5.89   625.1    3.1      59.909
2014    9       26     4  16    5.89   625.0    3.1      59.909
2014    9       26     4  21    5.88   625.0    3.1      59.909
2014    9       26     4  26    5.88   624.9    3.1      59.907
2014    9       26     4  32    5.88   624.8    3.1      59.903
2014    9       26     4  37    5.88   624.8    3.1      59.898
2014    9       26     4  42    5.88   624.7    3.1      59.892
2014    9       26     4  48    5.87   624.7    3.1      59.885
2014    9       26     4  53    5.87   624.6    3.1      59.876
2014    9       26     4  58    5.87   624.6    3.1      59.866
2014    9       26     5   3    5.87   624.5    3.1      59.855
2014    9       26     5   9    5.86   624.4    3.1      59.842
2014    9       26     5  14    5.86   624.4    3.1      59.829
2014    9       26     5  19    5.86   624.3    3.1      59.814
2014    9       26     5  25    5.86   624.3    3.1      59.799
2014    9       26     5  30    5.85   624.2    3.1      59.782
2014    9       26     5  35    5.85   624.2    3.1      59.765
2014    9       26     5  40    5.85   624.1    3.1      59.746
2014    9       26     5  46    5.85   624.0    3.1      59.727
2014    9       26     5  51    5.85   624.0    3.1      59.707
2014    9       26     5  56    5.84   623.9    3.1      59.686
2014    9       26     6   2    5.84   623.8    3.1      59.664
2014    9       26     6   7    5.84   623.8    3.1      59.641
2014    9       26     6  12    5.84   623.7    3.1      59.617
2014    9       26     6  17    5.83   623.7    3.1      59.593
2014    9       26     6  23    5.83   623.6    3.1      59.568
2014    9       26     6  28    5.83   623.5    3.1      59.542
2014    9       26     6  33    5.83   623.5    3.1      59.516
2014    9       26     6  39    5.82   623.4    3.1      59.489
2014    9       26     6  44    5.82   623.3    3.1      59.461
2014    9       26     6  49    5.82   623.2    3.1      59.432
2014    9       26     6  54    5.82   623.2    3.1      59.403
2014    9       26     7   0    5.81   623.1    3.1      59.374
2014    9       26     7   5    5.81   623.0    3.1      59.343
2014    9       26     7  10    5.81   623.0    3.1      59.313
2014    9       26     7  16    5.81   622.9    3.1      59.281
2014    9       26     7  21    5.80   622.8    3.1      59.249
2014    9       26     7  26    5.80   622.7    3.1      59.217
2014    9       26     7  31    5.80   622.6    3.1      59.184
2014    9       26     7  37    5.80   622.6    3.1      59.151
2014    9       26     7  42    5.79   622.5    3.1      59.118
2014    9       26     7  47    5.79   622.4    3.1      59.085
2014    9       26     7  53    5.79   622.3    3.1      59.052
2014    9       26     7  58    5.79   622.2    3.1      59.019
2014    9       26     8   3    5.79   622.1    3.1      58.986
2014    9       26     8   8    5.78   622.0    3.1      58.954
2014    9       26     8  14    5.78   621.9    3.1      58.922
2014    9       26     8  19    5.78   621.8    3.1      58.890
2014    9       26     8  24    5.78   621.7    3.1      58.860
2014    9       26     8  30    5.77   621.6    3.1      58.830
2014    9       26     8  35    5.77   621.6    3.1      58.800
2014    9       26     8  40    5.77   621.5    3.1      58.772
2014    9       26     8  45    5.77   621.4    3.1      58.745
2014    9       26     8  51    5.77   621.3    3.1      58.719
2014    9       26     8  56    5.76   621.2    3.1      58.693
2014    9       26     9   1    5.76   621.1    3.1      58.669
2014    9       26     9   7    5.76   621.0    3.1      58.646
2014    9       26     9  12    5.76   620.9    3.1      58.623
2014    9       26     9  17    5.75   620.8    3.1      58.602
2014    9       26     9  22    5.75   620.7    3.1      58.581
2014    9       26     9  28    5.75   620.6    3.1      58.561
2014    9       26     9  33    5.75   620.5    3.1      58.542
2014    9       26     9  38    5.75   620.5    3.1      58.524
2014    9       26     9  44    5.74   620.4    3.1      58.506
2014    9       26     9  49    5.74   620.3    3.1      58.488
2014    9       26     9  54    5.74   620.2    3.1      58.471
2014    9       26     9  59    5.74   620.1    3.1      58.455
2014    9       26    10   5    5.73   620.0    3.1      58.439
2014    9       26    10  10    5.73   619.9    3.1      58.423
2014    9       26    10  15    5.73   619.8    3.1      58.408
2014    9       26    10  21    5.73   619.7    3.1      58.393
2014    9       26    10  26    5.72   619.6    3.1      58.379
2014    9       26    10  31    5.72   619.5    3.1      58.365
2014    9       26    10  36    5.72   619.4    3.1      58.351
2014    9       26    10  42    5.72   619.3    3.1      58.337
2014    9       26    10  47    5.71   619.2    3.1      58.324
2014    9       26    10  52    5.71   619.1    3.1      58.310
2014    9       26    10  58    5.71   619.0    3.1      58.296
2014    9       26    11   3    5.71   618.9    3.1      58.282
2014    9       26    11   8    5.70   618.8    3.1      58.268
2014    9       26    11  13    5.70   618.7    3.1      58.254
2014    9       26    11  19    5.70   618.6    3.1      58.240
2014    9       26    11  24    5.70   618.4    3.1      58.226
2014    9       26    11  29    5.69   618.3    3.1      58.211
2014    9       26    11  35    5.69   618.2    3.1      58.197
2014    9       26    11  40    5.69   618.1    3.1      58.182
2014    9       26    11  45    5.69   618.0    3.1      58.168
2014    9       26    11  50    5.68   617.9    3.1      58.153
2014    9       26    11  56    5.68   617.8    3.1      58.138
2014    9       26    12   1    5.68   617.7    3.1      58.123
2014    9       26    12   6    5.68   617.6    3.1      58.108
2014    9       26    12  12    5.68   617.4    3.1      58.094
2014    9       26    12  17    5.67   617.3    3.1      58.079
2014    9       26    12  22    5.67   617.2    3.1      58.065
2014    9       26    12  27    5.67   617.1    3.1      58.051
2014    9       26    12  33    5.67   617.0    3.1      58.038
2014    9       26    12  38    5.66   616.9    3.1      58.025
2014    9       26    12  43    5.66   616.7    3.1      58.012
2014    9       26    12  49    5.66   616.6    3.1      57.999
2014    9       26    12  54    5.66   616.5    3.1      57.987
2014    9       26    12  59    5.65   616.4    3.1      57.976
2014    9       26    13   4    5.65   616.3    3.1      57.964
2014    9       26    13  10    5.65   616.2    3.1      57.953
2014    9       26    13  15    5.65   616.0    3.1      57.942
2014    9       26    13  20    5.65   615.9    3.1      57.931
2014    9       26    13  26    5.64   615.8    3.1      57.921
2014    9       26    13  31    5.64   615.7    3.1      57.910
2014    9       26    13  36    5.64   615.6    3.1      57.899
2014    9       26    13  41    5.64   615.5    3.1      57.887
2014    9       26    13  47    5.64   615.4    3.1      57.874
2014    9       26    13  52    5.63   615.3    3.1      57.861
2014    9       26    13  57    5.63   615.2    3.1      57.846
2014    9       26    14   3    5.63   615.1    3.1      57.830
2014    9       26    14   8    5.63   615.0    3.1      57.813
2014    9       26    14  13    5.63   614.9    3.1      57.795
2014    9       26    14  19    5.62   614.8    3.1      57.775
2014    9       26    14  24    5.62   614.7    3.1      57.754
2014    9       26    14  29    5.62   614.6    3.1      57.733
2014    9       26    14  34    5.62   614.5    3.1      57.710
2014    9       26    14  40    5.61   614.3    3.1      57.686
2014    9       26    14  45    5.61   614.2    3.1      57.660
2014    9       26    14  50    5.61   614.1    3.1      57.635
2014    9       26    14  55    5.61   614.0    3.1      57.608
2014    9       26    15   1    5.61   613.9    3.1      57.580
2014    9       26    15   6    5.60   613.8    3.1      57.551
2014    9       26    15  11    5.60   613.7    3.1      57.523
2014    9       26    15  17    5.60   613.6    3.1      57.493
2014    9       26    15  22    5.60   613.4    3.1      57.463
2014    9       26    15  27    5.59   613.3    3.0      57.432
2014    9       26    15  32    5.59   613.2    3.0      57.402
2014    9       26    15  38    5.59   613.1    3.0      57.371
2014    9       26    15  43    5.59   613.0    3.0      57.340
2014    9       26    15  48    5.59   612.8    3.0      57.309
2014    9       26    15  54    5.58   612.7    3.0      57.277
2014    9       26    15  59    5.58   612.6    3.0      57.246
2014    9       26    16   4    5.58   612.5    3.0      57.215
2014    9       26    16   9    5.58   612.3    3.0      57.184
2014    9       26    16  15    5.57   612.2    3.0      57.152
2014    9       26    16  20    5.57   612.1    3.0      57.121
2014    9       26    16  25    5.57   611.9    3.0      57.089
2014    9       26    16  31    5.57   611.8    3.0      57.057
2014    9       26    16  36    5.56   611.7    3.0      57.026
2014    9       26    16  41    5.56   611.6    3.0      56.993
2014    9       26    16  46    5.56   611.4    3.0      56.961
2014    9       26    16  52    5.56   611.3    3.0      56.928
2014    9       26    16  57    5.55   611.1    3.0      56.895
2014    9       26    17   2    5.55   611.0    3.0      56.861
2014    9       26    17   8    5.55   610.9    3.0      56.828
2014    9       26    17  13    5.55   610.7    3.0      56.793
2014    9       26    17  18    5.54   610.6    3.0      56.759
2014    9       26    17  23    5.54   610.4    3.0      56.724
2014    9       26    17  29    5.54   610.3    3.0      56.689
2014    9       26    17  34    5.54   610.1    3.0      56.654
2014    9       26    17  39    5.53   610.0    3.0      56.619
2014    9       26    17  45    5.53   609.8    3.0      56.584
2014    9       26    17  50    5.53   609.7    3.0      56.549
2014    9       26    17  55    5.53   609.5    3.0      56.514
2014    9       26    18   0    5.52   609.4    3.0      56.480
2014    9       26    18   6    5.52   609.2    3.0      56.446
2014    9       26    18  11    5.52   609.0    3.0      56.413
2014    9       26    18  16    5.52   608.9    3.0      56.380
2014    9       26    18  22    5.52   608.7    3.0      56.348
2014    9       26    18  27    5.51   608.6    3.0      56.316
2014    9       26    18  32    5.51   608.4    3.0      56.286
2014    9       26    18  37    5.51   608.3    3.0      56.256
2014    9       26    18  43    5.51   608.1    3.0      56.227
2014    9       26    18  48    5.50   607.9    3.0      56.200
2014    9       26    18  53    5.50   607.8    3.0      56.174
2014    9       26    18  59    5.50   607.6    3.0      56.148
2014    9       26    19   4    5.50   607.5    3.0      56.125
2014    9       26    19   9    5.50   607.3    3.0      56.102
2014    9       26    19  14    5.49   607.2    3.0      56.081
2014    9       26    19  20    5.49   607.0    3.0      56.061
2014    9       26    19  25    5.49   606.9    3.0      56.043
2014    9       26    19  30    5.49   606.7    3.0      56.026
2014    9       26    19  36    5.49   606.6    3.0      56.011
2014    9       26    19  41    5.49   606.5    3.0      55.997
2014    9       26    19  46    5.48   606.3    3.0      55.984
2014    9       26    19  52    5.48   606.2    3.0      55.972
2014    9       26    19  57    5.48   606.0    3.0      55.962
2014    9       26    20   2    5.48   605.9    3.0      55.953
2014    9       26    20   7    5.48   605.8    3.0      55.946
2014    9       26    20  13    5.48   605.6    3.0      55.938
2014    9       26    20  18    5.48   605.5    3.0      55.932
2014    9       26    20  23    5.47   605.4    3.0      55.926
2014    9       26    20  29    5.47   605.2    3.0      55.919
2014    9       26    20  34    5.47   605.1    3.0      55.912
2014    9       26    20  39    5.47   605.0    3.0      55.905
2014    9       26    20  44    5.47   604.8    3.0      55.897
2014    9       26    20  50    5.47   604.7    3.0      55.889
2014    9       26    20  55    5.47   604.6    3.0      55.880
2014    9       26    21   0    5.47   604.4    3.0      55.871
2014    9       26    21   6    5.46   604.3    3.0      55.861
2014    9       26    21  11    5.46   604.2    3.0      55.850
2014    9       26    21  16    5.46   604.0    3.0      55.839
2014    9       26    21  21    5.46   603.9    3.0      55.827
2014    9       26    21  27    5.46   603.8    3.0      55.814
2014    9       26    21  32    5.46   603.6    3.0      55.800
2014    9       26    21  37    5.46   603.5    3.0      55.786
2014    9       26    21  43    5.45   603.4    3.0      55.771
2014    9       26    21  48    5.45   603.2    3.0      55.756
2014    9       26    21  53    5.45   603.1    3.0      55.739
2014    9       26    21  58    5.45   602.9    3.0      55.722
2014    9       26    22   4    5.45   602.8    3.0      55.705
2014    9       26    22   9    5.45   602.6    3.0      55.687
2014    9       26    22  14    5.44   602.5    3.0      55.668
2014    9       26    22  20    5.44   602.3    3.0      55.649
2014    9       26    22  25    5.44   602.2    3.0      55.629
2014    9       26    22  30    5.44   602.0    3.0      55.608
2014    9       26    22  35    5.44   601.9    3.0      55.588
2014    9       26    22  41    5.44   601.7    3.0      55.566
2014    9       26    22  46    5.43   601.6    3.0      55.544
2014    9       26    22  51    5.43   601.4    3.0      55.522
2014    9       26    22  57    5.43   601.2    3.0      55.499
2014    9       26    23   2    5.43   601.1    3.0      55.477
2014    9       26    23   7    5.43   600.9    3.0      55.454
2014    9       26    23  12    5.43   600.8    3.0      55.431
2014    9       26    23  18    5.43   600.6    3.0      55.407
2014    9       26    23  23    5.42   600.4    3.0      55.385
2014    9       26    23  28    5.42   600.3    3.0      55.362
2014    9       26    23  34    5.42   600.1    3.0      55.339
2014    9       26    23  39    5.42   600.0    3.0      55.317
2014    9       26    23  44    5.42   599.8    3.0      55.294
2014    9       26    23  49    5.42   599.7    3.0      55.271
2014    9       26    23  55    5.41   599.5    3.0      55.247
2014    9       27     0   0    5.41   599.4    3.0      55.223
2014    9       27     0   5    5.41   599.2    3.0      55.198
2014    9       27     0  11    5.41   599.1    3.0      55.173
2014    9       27     0  16    5.41   598.9    3.0      55.147
2014    9       27     0  21    5.41   598.7    3.0      55.120
2014    9       27     0  26    5.40   598.6    3.0      55.093
2014    9       27     0  32    5.40   598.4    3.0      55.065
2014    9       27     0  37    5.40   598.3    3.0      55.037
2014    9       27     0  42    5.40   598.1    3.0      55.009
2014    9       27     0  48    5.40   598.0    3.0      54.980
2014    9       27     0  53    5.39   597.8    3.0      54.951
2014    9       27     0  58    5.39   597.7    3.0      54.921
2014    9       27     1   3    5.39   597.5    3.0      54.890
2014    9       27     1   9    5.39   597.4    3.0      54.858
2014    9       27     1  14    5.39   597.2    3.0      54.826
2014    9       27     1  19    5.38   597.0    3.0      54.794
2014    9       27     1  25    5.38   596.9    3.0      54.761
2014    9       27     1  30    5.38   596.7    3.0      54.727
2014    9       27     1  35    5.38   596.6    3.0      54.694
2014    9       27     1  40    5.38   596.4    3.0      54.660
2014    9       27     1  46    5.37   596.2    3.0      54.625
2014    9       27     1  51    5.37   596.1    3.0      54.590
2014    9       27     1  56    5.37   595.9    3.0      54.555
2014    9       27     2   2    5.37   595.7    3.0      54.520
2014    9       27     2   7    5.37   595.6    3.0      54.485
2014    9       27     2  12    5.36   595.4    3.0      54.450
2014    9       27     2  17    5.36   595.2    3.0      54.414
2014    9       27     2  23    5.36   595.0    3.0      54.379
2014    9       27     2  28    5.36   594.9    3.0      54.344
2014    9       27     2  33    5.36   594.7    3.0      54.308
2014    9       27     2  39    5.35   594.5    3.0      54.273
2014    9       27     2  44    5.35   594.3    3.0      54.237
2014    9       27     2  49    5.35   594.2    3.0      54.202
2014    9       27     2  54    5.35   594.0    3.0      54.167
2014    9       27     3   0    5.34   593.8    3.0      54.132
2014    9       27     3   5    5.34   593.6    3.0      54.097
2014    9       27     3  10    5.34   593.4    3.0      54.063
2014    9       27     3  16    5.34   593.3    3.0      54.028
2014    9       27     3  21    5.34   593.1    3.0      53.994
2014    9       27     3  26    5.33   592.9    3.0      53.961
2014    9       27     3  31    5.33   592.7    3.0      53.927
2014    9       27     3  37    5.33   592.5    3.0      53.894
2014    9       27     3  42    5.33   592.3    3.0      53.861
2014    9       27     3  47    5.32   592.1    3.0      53.829
2014    9       27     3  53    5.32   591.9    3.0      53.797
2014    9       27     3  58    5.32   591.7    3.0      53.766
2014    9       27     4   3    5.32   591.5    3.0      53.736
2014    9       27     4   8    5.31   591.3    3.0      53.705
2014    9       27     4  14    5.31   591.1    3.0      53.676
2014    9       27     4  19    5.31   590.9    3.0      53.647
2014    9       27     4  24    5.31   590.7    3.0      53.619
2014    9       27     4  30    5.30   590.5    3.0      53.592
2014    9       27     4  35    5.30   590.3    3.0      53.565
2014    9       27     4  40    5.30   590.1    3.0      53.539
2014    9       27     4  45    5.30   589.9    3.0      53.513
2014    9       27     4  51    5.30   589.7    3.0      53.488
2014    9       27     4  56    5.29   589.5    3.0      53.464
2014    9       27     5   1    5.29   589.3    3.0      53.441
2014    9       27     5   7    5.29   589.1    3.0      53.419
2014    9       27     5  12    5.29   588.9    3.0      53.397
2014    9       27     5  17    5.28   588.7    3.0      53.376
2014    9       27     5  22    5.28   588.5    3.0      53.356
2014    9       27     5  28    5.28   588.3    3.0      53.337
2014    9       27     5  33    5.28   588.1    3.0      53.319
2014    9       27     5  38    5.28   587.9    3.0      53.303
2014    9       27     5  44    5.28   587.8    3.0      53.288
2014    9       27     5  49    5.27   587.6    3.0      53.274
2014    9       27     5  54    5.27   587.4    3.0      53.262
2014    9       27     5  59    5.27   587.2    3.0      53.252
2014    9       27     6   5    5.27   587.0    3.0      53.243
2014    9       27     6  10    5.27   586.8    3.0      53.236
2014    9       27     6  15    5.26   586.7    3.0      53.230
2014    9       27     6  21    5.26   586.5    3.0      53.224
2014    9       27     6  26    5.26   586.3    3.1      53.218
2014    9       27     6  31    5.26   586.2    3.1      53.213
2014    9       27     6  36    5.26   586.0    3.1      53.208
2014    9       27     6  42    5.25   585.9    3.1      53.203
2014    9       27     6  47    5.25   585.7    3.1      53.198
2014    9       27     6  52    5.25   585.5    3.1      53.193
2014    9       27     6  58    5.25   585.4    3.1      53.187
2014    9       27     7   3    5.25   585.2    3.1      53.181
2014    9       27     7   8    5.24   585.1    3.1      53.173
2014    9       27     7  13    5.24   584.9    3.1      53.165
2014    9       27     7  19    5.24   584.8    3.1      53.155
2014    9       27     7  24    5.24   584.6    3.1      53.144
2014    9       27     7  29    5.23   584.4    3.1      53.132
2014    9       27     7  35    5.23   584.3    3.1      53.118
2014    9       27     7  40    5.23   584.1    3.1      53.104
2014    9       27     7  45    5.23   583.9    3.1      53.088
2014    9       27     7  50    5.22   583.7    3.1      53.070
2014    9       27     7  56    5.22   583.6    3.1      53.052
2014    9       27     8   1    5.22   583.4    3.1      53.032
2014    9       27     8   6    5.22   583.2    3.1      53.011
2014    9       27     8  12    5.21   583.0    3.1      52.990
2014    9       27     8  17    5.21   582.8    3.1      52.967
2014    9       27     8  22    5.21   582.6    3.1      52.943
2014    9       27     8  27    5.21   582.4    3.1      52.919
2014    9       27     8  33    5.20   582.2    3.1      52.894
2014    9       27     8  38    5.20   582.0    3.1      52.868
2014    9       27     8  43    5.20   581.8    3.1      52.842
2014    9       27     8  49    5.20   581.6    3.1      52.815
2014    9       27     8  54    5.19   581.4    3.1      52.787
2014    9       27     8  59    5.19   581.2    3.1      52.759
2014    9       27     9   4    5.19   581.0    3.1      52.731
2014    9       27     9  10    5.19   580.8    3.1      52.702
2014    9       27     9  15    5.18   580.6    3.1      52.672
2014    9       27     9  20    5.18   580.4    3.1      52.642
2014    9       27     9  26    5.18   580.2    3.1      52.611
2014    9       27     9  31    5.18   580.0    3.1      52.579
2014    9       27     9  36    5.17   579.8    3.1      52.547
2014    9       27     9  41    5.17   579.6    3.1      52.513
2014    9       27     9  47    5.17   579.4    3.1      52.479
2014    9       27     9  52    5.17   579.2    3.1      52.444
2014    9       27     9  57    5.17   578.9    3.1      52.407
2014    9       27    10   3    5.16   578.7    3.1      52.370
2014    9       27    10   8    5.16   578.5    3.1      52.333
2014    9       27    10  13    5.16   578.3    3.1      52.294
2014    9       27    10  18    5.16   578.1    3.1      52.255
2014    9       27    10  24    5.15   577.9    3.1      52.215
2014    9       27    10  29    5.15   577.7    3.1      52.173
2014    9       27    10  34    5.15   577.4    3.1      52.132
2014    9       27    10  40    5.15   577.2    3.1      52.089
2014    9       27    10  45    5.15   577.0    3.1      52.046
2014    9       27    10  50    5.14   576.8    3.1      52.003
2014    9       27    10  55    5.14   576.6    3.1      51.958
2014    9       27    11   1    5.14   576.3    3.1      51.914
2014    9       27    11   6    5.14   576.1    3.1      51.868
2014    9       27    11  11    5.14   575.9    3.1      51.823
2014    9       27    11  17    5.13   575.7    3.1      51.777
2014    9       27    11  22    5.13   575.4    3.1      51.730
2014    9       27    11  27    5.13   575.2    3.1      51.684
2014    9       27    11  32    5.13   575.0    3.1      51.637
2014    9       27    11  38    5.13   574.7    3.1      51.590
2014    9       27    11  43    5.12   574.5    3.1      51.543
2014    9       27    11  48    5.12   574.3    3.1      51.495
2014    9       27    11  54    5.12   574.0    3.1      51.448
2014    9       27    11  59    5.12   573.8    3.1      51.401
2014    9       27    12   4    5.12   573.6    3.1      51.355
2014    9       27    12   9    5.11   573.3    3.1      51.308
2014    9       27    12  15    5.11   573.1    3.1      51.262
2014    9       27    12  20    5.11   572.8    3.1      51.216
2014    9       27    12  25    5.11   572.6    3.1      51.170
2014    9       27    12  31    5.11   572.4    3.1      51.126
2014    9       27    12  36    5.11   572.1    3.1      51.081
2014    9       27    12  41    5.10   571.9    3.1      51.037
2014    9       27    12  46    5.10   571.7    3.1      50.994
2014    9       27    12  52    5.10   571.4    3.1      50.952
2014    9       27    12  57    5.10   571.2    3.1      50.910
2014    9       27    13   2    5.10   571.0    3.1      50.869
2014    9       27    13   8    5.10   570.7    3.1      50.829
2014    9       27    13  13    5.10   570.5    3.1      50.790
2014    9       27    13  18    5.09   570.3    3.1      50.751
2014    9       27    13  23    5.09   570.1    3.1      50.714
2014    9       27    13  29    5.09   569.8    3.1      50.677
2014    9       27    13  34    5.09   569.6    3.1      50.642
2014    9       27    13  39    5.09   569.4    3.1      50.607
2014    9       27    13  45    5.09   569.2    3.1      50.573
2014    9       27    13  50    5.09   568.9    3.1      50.540
2014    9       27    13  55    5.09   568.7    3.1      50.507
2014    9       27    14   0    5.08   568.5    3.1      50.475
2014    9       27    14   6    5.08   568.3    3.1      50.444
2014    9       27    14  11    5.08   568.1    3.1      50.413
2014    9       27    14  16    5.08   567.8    3.1      50.382
2014    9       27    14  22    5.08   567.6    3.1      50.352
2014    9       27    14  27    5.08   567.4    3.1      50.322
2014    9       27    14  32    5.07   567.1    3.1      50.292
2014    9       27    14  37    5.07   566.9    3.1      50.263
2014    9       27    14  43    5.07   566.7    3.1      50.233
2014    9       27    14  48    5.07   566.4    3.1      50.204
2014    9       27    14  53    5.07   566.2    3.1      50.174
2014    9       27    14  59    5.07   565.9    3.1      50.145
2014    9       27    15   4    5.07   565.7    3.1      50.116
2014    9       27    15   9    5.06   565.4    3.1      50.087
2014    9       27    15  14    5.06   565.2    3.1      50.059
2014    9       27    15  20    5.06   564.9    3.1      50.030
2014    9       27    15  25    5.06   564.7    3.1      50.002
2014    9       27    15  30    5.06   564.4    3.1      49.974
2014    9       27    15  36    5.06   564.2    3.1      49.947
2014    9       27    15  41    5.06   563.9    3.1      49.919
2014    9       27    15  46    5.05   563.7    3.1      49.892
2014    9       27    15  51    5.05   563.4    3.1      49.865
2014    9       27    15  57    5.05   563.2    3.1      49.839
2014    9       27    16   2    5.05   562.9    3.1      49.813
2014    9       27    16   7    5.05   562.6    3.1      49.787
2014    9       27    16  13    5.05   562.4    3.1      49.762
2014    9       27    16  18    5.05   562.1    3.1      49.737
2014    9       27    16  23    5.05   561.9    3.1      49.713
2014    9       27    16  28    5.04   561.6    3.1      49.689
2014    9       27    16  34    5.04   561.3    3.1      49.666
2014    9       27    16  39    5.04   561.1    3.1      49.644
2014    9       27    16  44    5.04   560.8    3.1      49.623
2014    9       27    16  50    5.04   560.6    3.1      49.603
2014    9       27    16  55    5.04   560.3    3.1      49.584
2014    9       27    17   0    5.04   560.1    3.1      49.567
2014    9       27    17   6    5.04   559.8    3.1      49.550
2014    9       27    17  11    5.04   559.6    3.1      49.535
2014    9       27    17  16    5.04   559.4    3.1      49.521
2014    9       27    17  21    5.04   559.1    3.1      49.508
2014    9       27    17  27    5.04   558.9    3.1      49.497
2014    9       27    17  32    5.04   558.7    3.1      49.487
2014    9       27    17  37    5.04   558.5    3.1      49.477
2014    9       27    17  43    5.04   558.3    3.1      49.467
2014    9       27    17  48    5.04   558.1    3.1      49.458
2014    9       27    17  53    5.04   557.9    3.1      49.448
2014    9       27    17  58    5.04   557.6    3.1      49.438
2014    9       27    18   4    5.03   557.4    3.1      49.428
2014    9       27    18   9    5.03   557.2    3.1      49.416
2014    9       27    18  14    5.03   557.0    3.1      49.405
2014    9       27    18  20    5.03   556.8    3.1      49.392
2014    9       27    18  25    5.03   556.6    3.1      49.379
2014    9       27    18  30    5.03   556.4    3.1      49.365
2014    9       27    18  35    5.03   556.2    3.1      49.350
2014    9       27    18  41    5.03   556.0    3.1      49.334
2014    9       27    18  46    5.03   555.8    3.1      49.317
2014    9       27    18  51    5.03   555.6    3.1      49.299
2014    9       27    18  57    5.03   555.4    3.1      49.280
2014    9       27    19   2    5.02   555.2    3.1      49.261
2014    9       27    19   7    5.02   555.0    3.1      49.240
2014    9       27    19  12    5.02   554.7    3.1      49.218
2014    9       27    19  18    5.02   554.5    3.1      49.196
2014    9       27    19  23    5.02   554.3    3.1      49.173
2014    9       27    19  28    5.02   554.1    3.1      49.149
2014    9       27    19  34    5.02   553.9    3.1      49.124
2014    9       27    19  39    5.01   553.6    3.1      49.098
2014    9       27    19  44    5.01   553.4    3.1      49.072
2014    9       27    19  49    5.01   553.2    3.1      49.045
2014    9       27    19  55    5.01   553.0    3.1      49.017
2014    9       27    20   0    5.01   552.7    3.1      48.988
2014    9       27    20   5    5.01   552.5    3.1      48.959
2014    9       27    20  11    5.01   552.3    3.1      48.929
2014    9       27    20  16    5.00   552.1    3.1      48.899
2014    9       27    20  21    5.00   551.8    3.1      48.867
2014    9       27    20  26    5.00   551.6    3.1      48.836
2014    9       27    20  32    5.00   551.4    3.1      48.804
2014    9       27    20  37    5.00   551.1    3.1      48.771
2014    9       27    20  42    4.99   550.9    3.1      48.738
2014    9       27    20  48    4.99   550.6    3.1      48.705
2014    9       27    20  53    4.99   550.4    3.1      48.671
2014    9       27    20  58    4.99   550.2    3.1      48.637
2014    9       27    21   3    4.99   549.9    3.1      48.602
2014    9       27    21   9    4.99   549.7    3.1      48.568
2014    9       27    21  14    4.98   549.4    3.1      48.533
2014    9       27    21  19    4.98   549.2    3.1      48.498
2014    9       27    21  25    4.98   548.9    3.1      48.462
2014    9       27    21  30    4.98   548.7    3.1      48.427
2014    9       27    21  35    4.98   548.4    3.1      48.392
2014    9       27    21  40    4.97   548.2    3.1      48.357
2014    9       27    21  46    4.97   547.9    3.1      48.322
2014    9       27    21  51    4.97   547.6    3.1      48.287
2014    9       27    21  56    4.97   547.4    3.1      48.253
2014    9       27    22   2    4.97   547.1    3.1      48.219
2014    9       27    22   7    4.97   546.8    3.1      48.185
2014    9       27    22  12    4.96   546.6    3.1      48.152
2014    9       27    22  17    4.96   546.3    3.1      48.120
2014    9       27    22  23    4.96   546.0    3.1      48.089
2014    9       27    22  28    4.96   545.8    3.1      48.059
2014    9       27    22  33    4.96   545.5    3.1      48.030
2014    9       27    22  39    4.96   545.2    3.1      48.002
2014    9       27    22  44    4.95   544.9    3.1      47.976
2014    9       27    22  49    4.95   544.7    3.1      47.951
2014    9       27    22  54    4.95   544.4    3.1      47.928
2014    9       27    23   0    4.95   544.1    3.1      47.907
2014    9       27    23   5    4.95   543.9    3.1      47.887
2014    9       27    23  10    4.95   543.6    3.1      47.870
2014    9       27    23  16    4.95   543.3    3.1      47.854
2014    9       27    23  21    4.94   543.1    3.1      47.840
2014    9       27    23  26    4.94   542.8    3.1      47.829
2014    9       27    23  31    4.94   542.5    3.2      47.820
2014    9       27    23  37    4.94   542.3    3.2      47.813
2014    9       27    23  42    4.94   542.0    3.2      47.809
2014    9       27    23  47    4.94   541.7    3.2      47.807
2014    9       27    23  53    4.94   541.5    3.2      47.807
2014    9       27    23  58    4.94   541.2    3.2      47.810
2014    9       28     0   3    4.93   540.9    3.2      47.814
2014    9       28     0   8    4.93   540.7    3.2      47.821
2014    9       28     0  14    4.93   540.4    3.2      47.829
2014    9       28     0  19    4.93   540.1    3.2      47.839
2014    9       28     0  24    4.93   539.9    3.2      47.850
2014    9       28     0  30    4.93   539.6    3.2      47.863
2014    9       28     0  35    4.93   539.4    3.2      47.876
2014    9       28     0  40    4.93   539.1    3.2      47.891
2014    9       28     0  45    4.93   538.9    3.2      47.907
2014    9       28     0  51    4.93   538.6    3.2      47.924
2014    9       28     0  56    4.92   538.3    3.2      47.941
2014    9       28     1   1    4.92   538.1    3.2      47.959
2014    9       28     1   7    4.92   537.8    3.2      47.978
2014    9       28     1  12    4.92   537.6    3.2      47.998
2014    9       28     1  17    4.92   537.3    3.2      48.019
2014    9       28     1  22    4.92   537.1    3.3      48.040
2014    9       28     1  28    4.92   536.8    3.3      48.061
2014    9       28     1  33    4.92   536.5    3.3      48.083
2014    9       28     1  38    4.92   536.3    3.3      48.105
2014    9       28     1  44    4.92   536.0    3.3      48.127
2014    9       28     1  49    4.92   535.8    3.3      48.150
2014    9       28     1  54    4.91   535.5    3.3      48.172
2014    9       28     1  59    4.91   535.3    3.3      48.194
2014    9       28     2   5    4.91   535.0    3.3      48.217
2014    9       28     2  10    4.91   534.8    3.3      48.239
2014    9       28     2  15    4.91   534.5    3.3      48.261
2014    9       28     2  21    4.91   534.3    3.3      48.282
2014    9       28     2  26    4.91   534.0    3.3      48.304
2014    9       28     2  31    4.91   533.8    3.3      48.325
2014    9       28     2  37    4.91   533.6    3.3      48.346
2014    9       28     2  42    4.91   533.3    3.3      48.367
2014    9       28     2  47    4.91   533.1    3.3      48.387
2014    9       28     2  52    4.91   532.8    3.3      48.406
2014    9       28     2  58    4.91   532.6    3.3      48.425
2014    9       28     3   3    4.90   532.4    3.4      48.442
2014    9       28     3   8    4.90   532.1    3.4      48.459
2014    9       28     3  14    4.90   531.9    3.4      48.475
2014    9       28     3  19    4.90   531.6    3.4      48.489
2014    9       28     3  24    4.90   531.4    3.4      48.503
2014    9       28     3  29    4.90   531.2    3.4      48.517
2014    9       28     3  35    4.90   531.0    3.4      48.529
2014    9       28     3  40    4.90   530.7    3.4      48.540
2014    9       28     3  45    4.90   530.5    3.4      48.551
2014    9       28     3  51    4.90   530.3    3.4      48.561
2014    9       28     3  56    4.90   530.0    3.4      48.570
2014    9       28     4   1    4.89   529.8    3.4      48.579
2014    9       28     4   6    4.89   529.6    3.4      48.587
2014    9       28     4  12    4.89   529.4    3.4      48.594
2014    9       28     4  17    4.89   529.1    3.4      48.601
2014    9       28     4  22    4.89   528.9    3.4      48.607
2014    9       28     4  28    4.89   528.7    3.4      48.613
2014    9       28     4  33    4.89   528.5    3.4      48.619
2014    9       28     4  38    4.89   528.2    3.4      48.624
2014    9       28     4  43    4.89   528.0    3.4      48.629
2014    9       28     4  49    4.89   527.8    3.4      48.633
2014    9       28     4  54    4.89   527.6    3.4      48.638
2014    9       28     4  59    4.88   527.4    3.4      48.643
2014    9       28     5   5    4.88   527.1    3.5      48.647
2014    9       28     5  10    4.88   526.9    3.5      48.652
2014    9       28     5  15    4.88   526.7    3.5      48.657
2014    9       28     5  20    4.88   526.5    3.5      48.662
2014    9       28     5  26    4.88   526.3    3.5      48.667
2014    9       28     5  31    4.88   526.0    3.5      48.673
2014    9       28     5  36    4.88   525.8    3.5      48.679
2014    9       28     5  42    4.88   525.6    3.5      48.685
2014    9       28     5  47    4.87   525.4    3.5      48.692
2014    9       28     5  52    4.87   525.2    3.5      48.699
2014    9       28     5  57    4.87   525.0    3.5      48.707
2014    9       28     6   3    4.87   524.7    3.5      48.716
2014    9       28     6   8    4.87   524.5    3.5      48.725
2014    9       28     6  13    4.87   524.3    3.5      48.735
2014    9       28     6  19    4.87   524.1    3.5      48.746
2014    9       28     6  24    4.87   523.9    3.5      48.757
2014    9       28     6  29    4.86   523.7    3.5      48.770
2014    9       28     6  34    4.86   523.5    3.5      48.782
2014    9       28     6  40    4.86   523.2    3.5      48.796
2014    9       28     6  45    4.86   523.0    3.5      48.811
2014    9       28     6  50    4.86   522.8    3.6      48.826
2014    9       28     6  56    4.86   522.6    3.6      48.843
2014    9       28     7   1    4.85   522.4    3.6      48.860
2014    9       28     7   6    4.85   522.2    3.6      48.878
2014    9       28     7  11    4.85   522.0    3.6      48.898
2014    9       28     7  17    4.85   521.7    3.6      48.918
2014    9       28     7  22    4.85   521.5    3.6      48.939
2014    9       28     7  27    4.85   521.3    3.6      48.961
2014    9       28     7  33    4.84   521.1    3.6      48.984
2014    9       28     7  38    4.84   520.9    3.6      49.008
2014    9       28     7  43    4.84   520.7    3.6      49.034
2014    9       28     7  48    4.84   520.4    3.6      49.060
2014    9       28     7  54    4.84   520.2    3.6      49.088
2014    9       28     7  59    4.83   520.0    3.6      49.117
2014    9       28     8   4    4.83   519.8    3.6      49.147
2014    9       28     8  10    4.83   519.6    3.6      49.178
2014    9       28     8  15    4.83   519.3    3.7      49.210
2014    9       28     8  20    4.83   519.1    3.7      49.243
2014    9       28     8  25    4.82   518.9    3.7      49.278
2014    9       28     8  31    4.82   518.7    3.7      49.314
2014    9       28     8  36    4.82   518.5    3.7      49.351
2014    9       28     8  41    4.82   518.2    3.7      49.389
2014    9       28     8  47    4.82   518.0    3.7      49.428
2014    9       28     8  52    4.81   517.8    3.7      49.468
2014    9       28     8  57    4.81   517.6    3.7      49.510
2014    9       28     9   2    4.81   517.3    3.7      49.552
2014    9       28     9   8    4.81   517.1    3.7      49.596
2014    9       28     9  13    4.81   516.9    3.7      49.640
2014    9       28     9  18    4.80   516.7    3.8      49.685
2014    9       28     9  24    4.80   516.5    3.8      49.731
2014    9       28     9  29    4.80   516.2    3.8      49.778
2014    9       28     9  34    4.80   516.0    3.8      49.826
2014    9       28     9  39    4.80   515.8    3.8      49.874
2014    9       28     9  45    4.79   515.6    3.8      49.922
2014    9       28     9  50    4.79   515.3    3.8      49.971
2014    9       28     9  55    4.79   515.1    3.8      50.021
2014    9       28    10   1    4.79   514.9    3.8      50.070
2014    9       28    10   6    4.78   514.6    3.8      50.120
2014    9       28    10  11    4.78   514.4    3.8      50.170
2014    9       28    10  16    4.78   514.2    3.9      50.221
2014    9       28    10  22    4.78   513.9    3.9      50.271
2014    9       28    10  27    4.78   513.7    3.9      50.322
2014    9       28    10  32    4.77   513.5    3.9      50.372
2014    9       28    10  38    4.77   513.2    3.9      50.423
2014    9       28    10  43    4.77   513.0    3.9      50.473
2014    9       28    10  48    4.77   512.8    3.9      50.524
2014    9       28    10  53    4.76   512.5    3.9      50.574
2014    9       28    10  59    4.76   512.3    3.9      50.624
2014    9       28    11   4    4.76   512.0    3.9      50.675
2014    9       28    11   9    4.76   511.8    3.9      50.725
2014    9       28    11  15    4.76   511.5    4.0      50.775
2014    9       28    11  20    4.75   511.3    4.0      50.825
2014    9       28    11  25    4.75   511.1    4.0      50.875
2014    9       28    11  30    4.75   510.8    4.0      50.925
2014    9       28    11  36    4.75   510.6    4.0      50.974
2014    9       28    11  41    4.75   510.3    4.0      51.024
2014    9       28    11  46    4.74   510.1    4.0      51.073
2014    9       28    11  52    4.74   509.8    4.0      51.122
2014    9       28    11  57    4.74   509.6    4.0      51.171
2014    9       28    12   2    4.74   509.3    4.0      51.219
2014    9       28    12   8    4.74   509.1    4.0      51.267
2014    9       28    12  13    4.73   508.8    4.1      51.315
2014    9       28    12  18    4.73   508.6    4.1      51.362
2014    9       28    12  23    4.73   508.4    4.1      51.409
2014    9       28    12  29    4.73   508.1    4.1      51.455
2014    9       28    12  34    4.73   507.9    4.1      51.500
2014    9       28    12  39    4.73   507.6    4.1      51.544
2014    9       28    12  45    4.72   507.4    4.1      51.587
2014    9       28    12  50    4.72   507.1    4.1      51.630
2014    9       28    12  55    4.72   506.9    4.1      51.671
2014    9       28    13   0    4.72   506.7    4.1      51.711
2014    9       28    13   6    4.72   506.4    4.2      51.750
2014    9       28    13  11    4.72   506.2    4.2      51.788
2014    9       28    13  16    4.72   505.9    4.2      51.825
2014    9       28    13  22    4.71   505.7    4.2      51.861
2014    9       28    13  27    4.71   505.5    4.2      51.895
2014    9       28    13  32    4.71   505.2    4.2      51.929
2014    9       28    13  37    4.71   505.0    4.2      51.962
2014    9       28    13  43    4.71   504.7    4.2      51.993
2014    9       28    13  48    4.71   504.5    4.2      52.023
2014    9       28    13  53    4.71   504.3    4.2      52.053
2014    9       28    13  59    4.71   504.0    4.2      52.081
2014    9       28    14   4    4.70   503.8    4.2      52.108
2014    9       28    14   9    4.70   503.6    4.3      52.133
2014    9       28    14  14    4.70   503.3    4.3      52.158
2014    9       28    14  20    4.70   503.1    4.3      52.182
2014    9       28    14  25    4.70   502.9    4.3      52.204
2014    9       28    14  30    4.70   502.6    4.3      52.226
2014    9       28    14  36    4.70   502.4    4.3      52.246
2014    9       28    14  41    4.70   502.2    4.3      52.265
2014    9       28    14  46    4.70   501.9    4.3      52.283
2014    9       28    14  51    4.70   501.7    4.3      52.300
2014    9       28    14  57    4.69   501.5    4.3      52.316
2014    9       28    15   2    4.69   501.2    4.3      52.331
2014    9       28    15   7    4.69   501.0    4.3      52.344
2014    9       28    15  13    4.69   500.8    4.3      52.357
2014    9       28    15  18    4.69   500.6    4.4      52.368
2014    9       28    15  23    4.69   500.4    4.4      52.379
2014    9       28    15  28    4.69   500.1    4.4      52.388
2014    9       28    15  34    4.69   499.9    4.4      52.395
2014    9       28    15  39    4.69   499.7    4.4      52.402
2014    9       28    15  44    4.69   499.5    4.4      52.407
2014    9       28    15  50    4.69   499.3    4.4      52.411
2014    9       28    15  55    4.69   499.1    4.4      52.414
2014    9       28    16   0    4.68   498.9    4.4      52.416
2014    9       28    16   5    4.68   498.7    4.4      52.417
2014    9       28    16  11    4.68   498.5    4.4      52.416
2014    9       28    16  16    4.68   498.3    4.4      52.414
2014    9       28    16  21    4.68   498.1    4.4      52.411
2014    9       28    16  27    4.68   497.9    4.4      52.407
2014    9       28    16  32    4.68   497.7    4.4      52.402
2014    9       28    16  37    4.68   497.5    4.4      52.395
2014    9       28    16  42    4.68   497.3    4.4      52.388
2014    9       28    16  48    4.68   497.1    4.5      52.379
2014    9       28    16  53    4.68   496.9    4.5      52.369
2014    9       28    16  58    4.68   496.7    4.5      52.358
2014    9       28    17   4    4.68   496.6    4.5      52.346
2014    9       28    17   9    4.67   496.4    4.5      52.333
2014    9       28    17  14    4.67   496.2    4.5      52.319
2014    9       28    17  19    4.67   496.0    4.5      52.304
2014    9       28    17  25    4.67   495.8    4.5      52.287
2014    9       28    17  30    4.67   495.7    4.5      52.270
2014    9       28    17  35    4.67   495.5    4.5      52.252
2014    9       28    17  41    4.67   495.3    4.5      52.233
2014    9       28    17  46    4.67   495.1    4.5      52.213
2014    9       28    17  51    4.67   495.0    4.5      52.192
2014    9       28    17  56    4.67   494.8    4.5      52.170
2014    9       28    18   2    4.66   494.6    4.5      52.147
2014    9       28    18   7    4.66   494.4    4.5      52.123
2014    9       28    18  12    4.66   494.3    4.5      52.098
2014    9       28    18  18    4.66   494.1    4.5      52.072
2014    9       28    18  23    4.66   493.9    4.5      52.046
2014    9       28    18  28    4.66   493.8    4.5      52.018
2014    9       28    18  33    4.66   493.6    4.5      51.990
2014    9       28    18  39    4.66   493.4    4.5      51.960
2014    9       28    18  44    4.66   493.3    4.5      51.930
2014    9       28    18  49    4.66   493.1    4.5      51.899
2014    9       28    18  55    4.66   493.0    4.5      51.868
2014    9       28    19   0    4.65   492.8    4.5      51.835
2014    9       28    19   5    4.65   492.6    4.5      51.802
2014    9       28    19  11    4.65   492.5    4.5      51.768
2014    9       28    19  16    4.65   492.3    4.5      51.733
2014    9       28    19  21    4.65   492.2    4.5      51.698
2014    9       28    19  26    4.65   492.0    4.5      51.662
2014    9       28    19  32    4.65   491.9    4.5      51.625
2014    9       28    19  37    4.65   491.7    4.5      51.588
2014    9       28    19  42    4.65   491.6    4.5      51.550
2014    9       28    19  48    4.65   491.4    4.5      51.511
2014    9       28    19  53    4.64   491.3    4.5      51.472
2014    9       28    19  58    4.64   491.1    4.5      51.432
2014    9       28    20   3    4.64   491.0    4.5      51.391
2014    9       28    20   9    4.64   490.8    4.5      51.350
2014    9       28    20  14    4.64   490.7    4.5      51.308
2014    9       28    20  19    4.64   490.5    4.5      51.266
2014    9       28    20  25    4.64   490.4    4.5      51.223
2014    9       28    20  30    4.64   490.2    4.5      51.180
2014    9       28    20  35    4.64   490.1    4.5      51.136
2014    9       28    20  40    4.63   489.9    4.5      51.091
2014    9       28    20  46    4.63   489.8    4.5      51.047
2014    9       28    20  51    4.63   489.6    4.5      51.001
2014    9       28    20  56    4.63   489.5    4.5      50.955
2014    9       28    21   2    4.63   489.3    4.5      50.909
2014    9       28    21   7    4.63   489.2    4.5      50.862
2014    9       28    21  12    4.63   489.0    4.5      50.815
2014    9       28    21  17    4.63   488.9    4.5      50.768
2014    9       28    21  23    4.63   488.7    4.5      50.720
2014    9       28    21  28    4.63   488.6    4.5      50.672
2014    9       28    21  33    4.63   488.4    4.5      50.624
2014    9       28    21  39    4.62   488.3    4.5      50.576
2014    9       28    21  44    4.62   488.1    4.5      50.527
2014    9       28    21  49    4.62   488.0    4.5      50.479
2014    9       28    21  54    4.62   487.8    4.5      50.431
2014    9       28    22   0    4.62   487.7    4.5      50.382
2014    9       28    22   5    4.62   487.5    4.5      50.333
2014    9       28    22  10    4.62   487.4    4.5      50.284
2014    9       28    22  16    4.62   487.2    4.5      50.236
2014    9       28    22  21    4.62   487.1    4.5      50.188
2014    9       28    22  26    4.62   486.9    4.5      50.140
2014    9       28    22  31    4.62   486.8    4.5      50.091
2014    9       28    22  37    4.62   486.6    4.5      50.043
2014    9       28    22  42    4.62   486.5    4.5      49.995
2014    9       28    22  47    4.62   486.4    4.5      49.947
2014    9       28    22  53    4.61   486.2    4.5      49.898
2014    9       28    22  58    4.61   486.1    4.5      49.849
2014    9       28    23   3    4.61   485.9    4.5      49.799
2014    9       28    23   8    4.61   485.8    4.5      49.749
2014    9       28    23  14    4.61   485.7    4.5      49.698
2014    9       28    23  19    4.61   485.5    4.5      49.647
2014    9       28    23  24    4.61   485.4    4.5      49.595
2014    9       28    23  30    4.61   485.3    4.5      49.543
2014    9       28    23  35    4.61   485.1    4.5      49.491
2014    9       28    23  40    4.61   485.0    4.5      49.438
2014    9       28    23  45    4.61   484.9    4.5      49.385
2014    9       28    23  51    4.61   484.7    4.5      49.331
2014    9       28    23  56    4.61   484.6    4.5      49.278
2014    9       29     0   1    4.61   484.5    4.5      49.224
2014    9       29     0   7    4.61   484.3    4.5      49.169
2014    9       29     0  12    4.61   484.2    4.5      49.114
2014    9       29     0  17    4.61   484.1    4.5      49.059
2014    9       29     0  22    4.61   483.9    4.5      49.004
2014    9       29     0  28    4.61   483.8    4.5      48.949
2014    9       29     0  33    4.61   483.7    4.5      48.893
2014    9       29     0  38    4.61   483.5    4.5      48.837
2014    9       29     0  44    4.61   483.4    4.5      48.782
2014    9       29     0  49    4.61   483.3    4.5      48.725
2014    9       29     0  54    4.61   483.1    4.5      48.669
2014    9       29     1   0    4.61   483.0    4.5      48.613
2014    9       29     1   5    4.61   482.9    4.5      48.556
2014    9       29     1  10    4.60   482.8    4.5      48.499
2014    9       29     1  15    4.60   482.6    4.5      48.442
2014    9       29     1  21    4.60   482.5    4.5      48.385
2014    9       29     1  26    4.60   482.4    4.5      48.328
2014    9       29     1  31    4.60   482.2    4.5      48.271
2014    9       29     1  37    4.60   482.1    4.4      48.214
2014    9       29     1  42    4.60   482.0    4.4      48.156
2014    9       29     1  47    4.60   481.8    4.4      48.099
2014    9       29     1  52    4.60   481.7    4.4      48.041
2014    9       29     1  58    4.60   481.6    4.4      47.983
2014    9       29     2   3    4.60   481.5    4.4      47.925
2014    9       29     2   8    4.60   481.3    4.4      47.867
2014    9       29     2  14    4.60   481.2    4.4      47.809
2014    9       29     2  19    4.60   481.1    4.4      47.751
2014    9       29     2  24    4.60   480.9    4.4      47.692
2014    9       29     2  29    4.60   480.8    4.4      47.634
2014    9       29     2  35    4.60   480.7    4.4      47.575
2014    9       29     2  40    4.60   480.6    4.4      47.516
2014    9       29     2  45    4.60   480.4    4.4      47.458
2014    9       29     2  51    4.60   480.3    4.4      47.398
2014    9       29     2  56    4.60   480.2    4.4      47.339
2014    9       29     3   1    4.60   480.0    4.4      47.280
2014    9       29     3   6    4.60   479.9    4.4      47.221
2014    9       29     3  12    4.60   479.8    4.4      47.161
2014    9       29     3  17    4.60   479.6    4.4      47.102
2014    9       29     3  22    4.60   479.5    4.4      47.042
2014    9       29     3  28    4.60   479.4    4.4      46.982
2014    9       29     3  33    4.60   479.3    4.4      46.923
2014    9       29     3  38    4.60   479.1    4.4      46.863
2014    9       29     3  43    4.60   479.0    4.4      46.803
2014    9       29     3  49    4.60   478.9    4.4      46.743
2014    9       29     3  54    4.60   478.8    4.4      46.683
2014    9       29     3  59    4.60   478.6    4.4      46.623
2014    9       29     4   5    4.60   478.5    4.4      46.563
2014    9       29     4  10    4.60   478.4    4.4      46.503
2014    9       29     4  15    4.60   478.3    4.4      46.443
2014    9       29     4  20    4.60   478.1    4.3      46.383
2014    9       29     4  26    4.60   478.0    4.3      46.323
2014    9       29     4  31    4.60   477.9    4.3      46.264
2014    9       29     4  36    4.60   477.7    4.3      46.204
2014    9       29     4  42    4.59   477.6    4.3      46.144
2014    9       29     4  47    4.59   477.5    4.3      46.085
2014    9       29     4  52    4.59   477.4    4.3      46.026
2014    9       29     4  57    4.59   477.2    4.3      45.966
2014    9       29     5   3    4.59   477.1    4.3      45.907
2014    9       29     5   8    4.59   477.0    4.3      45.848
2014    9       29     5  13    4.59   476.9    4.3      45.789
2014    9       29     5  19    4.59   476.7    4.3      45.730
2014    9       29     5  24    4.59   476.6    4.3      45.672
2014    9       29     5  29    4.59   476.5    4.3      45.613
2014    9       29     5  34    4.59   476.4    4.3      45.555
2014    9       29     5  40    4.59   476.2    4.3      45.496
2014    9       29     5  45    4.59   476.1    4.3      45.438
2014    9       29     5  50    4.59   476.0    4.3      45.380
2014    9       29     5  56    4.59   475.8    4.3      45.322
2014    9       29     6   1    4.59   475.7    4.3      45.264
2014    9       29     6   6    4.59   475.6    4.3      45.206
2014    9       29     6  11    4.59   475.5    4.3      45.148
2014    9       29     6  17    4.59   475.3    4.3      45.090
2014    9       29     6  22    4.59   475.2    4.3      45.033
2014    9       29     6  27    4.59   475.1    4.3      44.975
2014    9       29     6  33    4.59   474.9    4.3      44.918
2014    9       29     6  38    4.59   474.8    4.3      44.861
2014    9       29     6  43    4.59   474.7    4.3      44.805
2014    9       29     6  48    4.59   474.5    4.3      44.748
2014    9       29     6  54    4.59   474.4    4.3      44.692
2014    9       29     6  59    4.59   474.3    4.3      44.636
2014    9       29     7   4    4.59   474.1    4.3      44.581
2014    9       29     7  10    4.59   474.0    4.3      44.526
2014    9       29     7  15    4.59   473.9    4.3      44.471
2014    9       29     7  20    4.59   473.7    4.3      44.417
2014    9       29     7  26    4.59   473.6    4.2      44.363
2014    9       29     7  31    4.59   473.4    4.2      44.309
2014    9       29     7  36    4.58   473.3    4.2      44.256
2014    9       29     7  41    4.58   473.2    4.2      44.203
2014    9       29     7  47    4.58   473.0    4.2      44.151
2014    9       29     7  52    4.58   472.9    4.2      44.099
2014    9       29     7  57    4.58   472.7    4.2      44.048
2014    9       29     8   3    4.58   472.6    4.2      43.997
2014    9       29     8   8    4.58   472.4    4.2      43.946
2014    9       29     8  13    4.58   472.3    4.2      43.896
2014    9       29     8  18    4.58   472.2    4.2      43.847
2014    9       29     8  24    4.58   472.0    4.2      43.798
2014    9       29     8  29    4.58   471.9    4.2      43.749
2014    9       29     8  34    4.58   471.7    4.2      43.700
2014    9       29     8  40    4.58   471.6    4.2      43.652
2014    9       29     8  45    4.58   471.4    4.2      43.605
2014    9       29     8  50    4.58   471.3    4.2      43.557
2014    9       29     8  55    4.58   471.1    4.2      43.510
2014    9       29     9   1    4.58   471.0    4.2      43.463
2014    9       29     9   6    4.58   470.8    4.2      43.417
2014    9       29     9  11    4.58   470.7    4.2      43.370
2014    9       29     9  17    4.58   470.5    4.2      43.324
2014    9       29     9  22    4.58   470.4    4.2      43.278
2014    9       29     9  27    4.58   470.2    4.2      43.232
2014    9       29     9  32    4.58   470.1    4.2      43.186
2014    9       29     9  38    4.58   469.9    4.2      43.141
2014    9       29     9  43    4.58   469.8    4.2      43.095
2014    9       29     9  48    4.58   469.6    4.2      43.049
2014    9       29     9  54    4.58   469.4    4.2      43.003
2014    9       29     9  59    4.58   469.3    4.2      42.958
2014    9       29    10   4    4.58   469.1    4.2      42.911
2014    9       29    10   9    4.58   469.0    4.2      42.865
2014    9       29    10  15    4.58   468.8    4.2      42.819
2014    9       29    10  20    4.58   468.7    4.2      42.773
2014    9       29    10  25    4.58   468.5    4.2      42.727
2014    9       29    10  31    4.57   468.3    4.2      42.681
2014    9       29    10  36    4.57   468.2    4.2      42.635
2014    9       29    10  41    4.57   468.0    4.2      42.588
2014    9       29    10  46    4.57   467.9    4.2      42.542
2014    9       29    10  52    4.57   467.7    4.2      42.496
2014    9       29    10  57    4.57   467.5    4.2      42.450
2014    9       29    11   2    4.57   467.4    4.2      42.403
2014    9       29    11   8    4.57   467.2    4.2      42.357
2014    9       29    11  13    4.57   467.1    4.2      42.310
2014    9       29    11  18    4.57   466.9    4.2      42.264
2014    9       29    11  23    4.57   466.7    4.2      42.218
2014    9       29    11  29    4.57   466.6    4.2      42.172
2014    9       29    11  34    4.57   466.4    4.2      42.126
2014    9       29    11  39    4.57   466.2    4.2      42.080
2014    9       29    11  45    4.57   466.1    4.2      42.034
2014    9       29    11  50    4.57   465.9    4.2      41.988
2014    9       29    11  55    4.57   465.7    4.2      41.942
2014    9       29    12   0    4.57   465.5    4.2      41.897
2014    9       29    12   6    4.57   465.4    4.2      41.851
2014    9       29    12  11    4.57   465.2    4.2      41.806
2014    9       29    12  16    4.57   465.0    4.2      41.761
2014    9       29    12  22    4.57   464.8    4.2      41.716
2014    9       29    12  27    4.57   464.7    4.2      41.672
2014    9       29    12  32    4.57   464.5    4.2      41.628
2014    9       29    12  37    4.57   464.3    4.2      41.584
2014    9       29    12  43    4.57   464.1    4.2      41.540
2014    9       29    12  48    4.57   463.9    4.2      41.497
2014    9       29    12  53    4.57   463.8    4.2      41.454
2014    9       29    12  59    4.57   463.6    4.2      41.412
2014    9       29    13   4    4.56   463.4    4.2      41.370
2014    9       29    13   9    4.56   463.2    4.2      41.328
2014    9       29    13  14    4.56   463.0    4.2      41.286
2014    9       29    13  20    4.56   462.8    4.2      41.245
2014    9       29    13  25    4.56   462.7    4.2      41.205
2014    9       29    13  30    4.56   462.5    4.2      41.164
2014    9       29    13  36    4.56   462.3    4.2      41.124
2014    9       29    13  41    4.56   462.1    4.2      41.085
2014    9       29    13  46    4.56   461.9    4.2      41.046
2014    9       29    13  52    4.56   461.7    4.2      41.008
2014    9       29    13  57    4.56   461.5    4.2      40.969
2014    9       29    14   2    4.56   461.3    4.2      40.932
2014    9       29    14   7    4.56   461.1    4.2      40.894
2014    9       29    14  13    4.56   460.9    4.2      40.857
2014    9       29    14  18    4.56   460.8    4.2      40.821
2014    9       29    14  23    4.56   460.6    4.2      40.785
2014    9       29    14  29    4.56   460.4    4.2      40.749
2014    9       29    14  34    4.56   460.2    4.2      40.713
2014    9       29    14  39    4.56   460.0    4.2      40.678
2014    9       29    14  44    4.56   459.8    4.2      40.643
2014    9       29    14  50    4.56   459.6    4.2      40.609
2014    9       29    14  55    4.56   459.4    4.2      40.575
2014    9       29    15   0    4.56   459.2    4.2      40.541
2014    9       29    15   6    4.56   459.0    4.2      40.508
2014    9       29    15  11    4.56   458.8    4.2      40.474
2014    9       29    15  16    4.56   458.6    4.2      40.441
2014    9       29    15  21    4.57   458.4    4.2      40.409
2014    9       29    15  27    4.57   458.2    4.2      40.376
2014    9       29    15  32    4.57   458.0    4.2      40.344
2014    9       29    15  37    4.57   457.8    4.2      40.312
2014    9       29    15  43    4.57   457.6    4.2      40.280
2014    9       29    15  48    4.57   457.4    4.2      40.248
2014    9       29    15  53    4.57   457.2    4.2      40.217
2014    9       29    15  58    4.57   457.0    4.2      40.185
2014    9       29    16   4    4.57   456.8    4.3      40.154
2014    9       29    16   9    4.57   456.6    4.3      40.123
2014    9       29    16  14    4.57   456.4    4.3      40.093
2014    9       29    16  20    4.57   456.2    4.3      40.062
2014    9       29    16  25    4.57   456.0    4.3      40.032
2014    9       29    16  30    4.57   455.8    4.3      40.001
2014    9       29    16  35    4.57   455.6    4.3      39.971
2014    9       29    16  41    4.57   455.3    4.3      39.941
2014    9       29    16  46    4.57   455.1    4.3      39.912
2014    9       29    16  51    4.57   454.9    4.3      39.882
2014    9       29    16  57    4.57   454.7    4.3      39.853
2014    9       29    17   2    4.57   454.5    4.3      39.824
2014    9       29    17   7    4.57   454.3    4.3      39.795
2014    9       29    17  12    4.57   454.1    4.3      39.766
2014    9       29    17  18    4.57   453.9    4.3      39.737
2014    9       29    17  23    4.57   453.7    4.3      39.709
2014    9       29    17  28    4.58   453.5    4.3      39.680
2014    9       29    17  34    4.58   453.3    4.3      39.652
2014    9       29    17  39    4.58   453.1    4.3      39.624
2014    9       29    17  44    4.58   452.9    4.3      39.596
2014    9       29    17  49    4.58   452.7    4.3      39.568
2014    9       29    17  55    4.58   452.5    4.3      39.539
2014    9       29    18   0    4.58   452.2    4.3      39.511
2014    9       29    18   5    4.58   452.0    4.3      39.483
2014    9       29    18  11    4.58   451.8    4.3      39.455
2014    9       29    18  16    4.58   451.6    4.3      39.427
2014    9       29    18  21    4.58   451.4    4.3      39.398
2014    9       29    18  26    4.58   451.2    4.3      39.370
2014    9       29    18  32    4.58   451.0    4.3      39.341
2014    9       29    18  37    4.58   450.8    4.3      39.312
2014    9       29    18  42    4.58   450.6    4.3      39.283
2014    9       29    18  48    4.58   450.4    4.3      39.254
2014    9       29    18  53    4.59   450.2    4.4      39.225
2014    9       29    18  58    4.59   450.0    4.4      39.196
2014    9       29    19   3    4.59   449.8    4.4      39.166
2014    9       29    19   9    4.59   449.6    4.4      39.137
2014    9       29    19  14    4.59   449.4    4.4      39.108
2014    9       29    19  19    4.59   449.1    4.4      39.078
2014    9       29    19  25    4.59   448.9    4.4      39.049
2014    9       29    19  30    4.59   448.7    4.4      39.020
2014    9       29    19  35    4.59   448.5    4.4      38.990
2014    9       29    19  40    4.59   448.3    4.4      38.961
2014    9       29    19  46    4.59   448.1    4.4      38.932
2014    9       29    19  51    4.59   447.9    4.4      38.902
2014    9       29    19  56    4.59   447.7    4.4      38.873
2014    9       29    20   2    4.59   447.5    4.4      38.843
2014    9       29    20   7    4.59   447.3    4.4      38.814
2014    9       29    20  12    4.60   447.1    4.4      38.784
2014    9       29    20  18    4.60   446.9    4.4      38.755
2014    9       29    20  23    4.60   446.7    4.4      38.725
2014    9       29    20  28    4.60   446.5    4.4      38.695
2014    9       29    20  33    4.60   446.3    4.4      38.666
2014    9       29    20  39    4.60   446.1    4.4      38.636
2014    9       29    20  44    4.60   445.8    4.4      38.606
2014    9       29    20  49    4.60   445.6    4.4      38.577
2014    9       29    20  55    4.60   445.4    4.4      38.547
2014    9       29    21   0    4.60   445.2    4.4      38.517
2014    9       29    21   5    4.60   445.0    4.4      38.487
2014    9       29    21  10    4.60   444.8    4.4      38.457
2014    9       29    21  16    4.60   444.6    4.4      38.427
2014    9       29    21  21    4.61   444.4    4.4      38.398
2014    9       29    21  26    4.61   444.2    4.5      38.368
2014    9       29    21  32    4.61   444.0    4.5      38.338
2014    9       29    21  37    4.61   443.8    4.5      38.308
2014    9       29    21  42    4.61   443.6    4.5      38.278
2014    9       29    21  47    4.61   443.3    4.5      38.249
2014    9       29    21  53    4.61   443.1    4.5      38.219
2014    9       29    21  58    4.61   442.9    4.5      38.189
2014    9       29    22   3    4.61   442.7    4.5      38.160
2014    9       29    22   9    4.61   442.5    4.5      38.130
2014    9       29    22  14    4.61   442.3    4.5      38.101
2014    9       29    22  19    4.61   442.1    4.5      38.071
2014    9       29    22  24    4.62   441.9    4.5      38.042
2014    9       29    22  30    4.62   441.7    4.5      38.013
2014    9       29    22  35    4.62   441.4    4.5      37.984
2014    9       29    22  40    4.62   441.2    4.5      37.955
2014    9       29    22  46    4.62   441.0    4.5      37.926
2014    9       29    22  51    4.62   440.8    4.5      37.897
2014    9       29    22  56    4.62   440.6    4.5      37.868
2014    9       29    23   1    4.62   440.4    4.5      37.839
2014    9       29    23   7    4.62   440.2    4.5      37.811
2014    9       29    23  12    4.63   440.0    4.5      37.782
2014    9       29    23  17    4.63   439.8    4.5      37.754
2014    9       29    23  23    4.63   439.5    4.5      37.726
2014    9       29    23  28    4.63   439.3    4.5      37.698
2014    9       29    23  33    4.63   439.1    4.5      37.670
2014    9       29    23  38    4.63   438.9    4.5      37.642
2014    9       29    23  44    4.63   438.7    4.6      37.614
2014    9       29    23  49    4.63   438.5    4.6      37.586
2014    9       29    23  54    4.63   438.3    4.6      37.559
2014    9       30     0   0    4.64   438.1    4.6      37.531
2014    9       30     0   5    4.64   437.8    4.6      37.504
2014    9       30     0  10    4.64   437.6    4.6      37.476
2014    9       30     0  15    4.64   437.4    4.6      37.449
2014    9       30     0  21    4.64   437.2    4.6      37.422
2014    9       30     0  26    4.64   437.0    4.6      37.395
2014    9       30     0  31    4.64   436.8    4.6      37.367
2014    9       30     0  37    4.65   436.6    4.6      37.341
2014    9       30     0  42    4.65   436.4    4.6      37.314
2014    9       30     0  47    4.65   436.2    4.6      37.287
2014    9       30     0  52    4.65   435.9    4.6      37.260
2014    9       30     0  58    4.65   435.7    4.6      37.233
2014    9       30     1   3    4.65   435.5    4.6      37.207
2014    9       30     1   8    4.65   435.3    4.6      37.180
2014    9       30     1  14    4.66   435.1    4.6      37.154
2014    9       30     1  19    4.66   434.9    4.6      37.127
2014    9       30     1  24    4.66   434.7    4.6      37.101
2014    9       30     1  30    4.66   434.5    4.6      37.075
2014    9       30     1  35    4.66   434.2    4.7      37.048
2014    9       30     1  40    4.66   434.0    4.7      37.022
2014    9       30     1  45    4.66   433.8    4.7      36.996
2014    9       30     1  51    4.67   433.6    4.7      36.970
2014    9       30     1  56    4.67   433.4    4.7      36.944
2014    9       30     2   1    4.67   433.2    4.7      36.918
2014    9       30     2   7    4.67   433.0    4.7      36.892
2014    9       30     2  12    4.67   432.8    4.7      36.867
2014    9       30     2  17    4.67   432.6    4.7      36.841
2014    9       30     2  22    4.68   432.3    4.7      36.815
2014    9       30     2  28    4.68   432.1    4.7      36.790
2014    9       30     2  33    4.68   431.9    4.7      36.764
2014    9       30     2  38    4.68   431.7    4.7      36.739
2014    9       30     2  44    4.68   431.5    4.7      36.714
2014    9       30     2  49    4.68   431.3    4.7      36.689
2014    9       30     2  54    4.69   431.1    4.7      36.664
2014    9       30     2  59    4.69   430.9    4.7      36.639
2014    9       30     3   5    4.69   430.7    4.7      36.614
2014    9       30     3  10    4.69   430.5    4.7      36.589
2014    9       30     3  15    4.69   430.2    4.8      36.564
2014    9       30     3  21    4.70   430.0    4.8      36.540
2014    9       30     3  26    4.70   429.8    4.8      36.516
2014    9       30     3  31    4.70   429.6    4.8      36.491
2014    9       30     3  36    4.70   429.4    4.8      36.467
2014    9       30     3  42    4.70   429.2    4.8      36.443
2014    9       30     3  47    4.71   429.0    4.8      36.419
2014    9       30     3  52    4.71   428.8    4.8      36.395
2014    9       30     3  58    4.71   428.6    4.8      36.371
2014    9       30     4   3    4.71   428.4    4.8      36.347
2014    9       30     4   8    4.71   428.1    4.8      36.324
2014    9       30     4  13    4.72   427.9    4.8      36.301
2014    9       30     4  19    4.72   427.7    4.8      36.277
2014    9       30     4  24    4.72   427.5    4.8      36.254
2014    9       30     4  29    4.72   427.3    4.8      36.231
2014    9       30     4  35    4.72   427.1    4.8      36.208
2014    9       30     4  40    4.73   426.9    4.8      36.185
2014    9       30     4  45    4.73   426.7    4.9      36.162
2014    9       30     4  50    4.73   426.5    4.9      36.139
2014    9       30     4  56    4.73   426.3    4.9      36.117
2014    9       30     5   1    4.73   426.0    4.9      36.094
2014    9       30     5   6    4.74   425.8    4.9      36.072
2014    9       30     5  12    4.74   425.6    4.9      36.050
2014    9       30     5  17    4.74   425.4    4.9      36.028
2014    9       30     5  22    4.74   425.2    4.9      36.006
2014    9       30     5  28    4.74   425.0    4.9      35.984
2014    9       30     5  33    4.75   424.8    4.9      35.962
2014    9       30     5  38    4.75   424.6    4.9      35.940
2014    9       30     5  43    4.75   424.4    4.9      35.919
2014    9       30     5  49    4.75   424.2    4.9      35.898
2014    9       30     5  54    4.76   424.0    4.9      35.876
2014    9       30     5  59    4.76   423.8    4.9      35.855
2014    9       30     6   5    4.76   423.6    5.0      35.834
2014    9       30     6  10    4.76   423.3    5.0      35.813
2014    9       30     6  15    4.76   423.1    5.0      35.792
2014    9       30     6  20    4.77   422.9    5.0      35.771
2014    9       30     6  26    4.77   422.7    5.0      35.751
2014    9       30     6  31    4.77   422.5    5.0      35.730
2014    9       30     6  36    4.77   422.3    5.0      35.710
2014    9       30     6  42    4.78   422.1    5.0      35.690
2014    9       30     6  47    4.78   421.9    5.0      35.670
2014    9       30     6  52    4.78   421.7    5.0      35.650
2014    9       30     6  57    4.78   421.5    5.0      35.630
2014    9       30     7   3    4.79   421.3    5.0      35.610
2014    9       30     7   8    4.79   421.1    5.0      35.590
2014    9       30     7  13    4.79   420.9    5.0      35.571
2014    9       30     7  19    4.79   420.7    5.1      35.552
2014    9       30     7  24    4.80   420.5    5.1      35.532
2014    9       30     7  29    4.80   420.3    5.1      35.513
2014    9       30     7  34    4.80   420.1    5.1      35.494
2014    9       30     7  40    4.80   419.9    5.1      35.475
2014    9       30     7  45    4.81   419.7    5.1      35.457
2014    9       30     7  50    4.81   419.5    5.1      35.438
2014    9       30     7  56    4.81   419.3    5.1      35.420
2014    9       30     8   1    4.81   419.1    5.1      35.401
2014    9       30     8   6    4.82   418.9    5.1      35.383
2014    9       30     8  11    4.82   418.7    5.1      35.365
2014    9       30     8  17    4.82   418.5    5.1      35.347
2014    9       30     8  22    4.83   418.3    5.1      35.329
2014    9       30     8  27    4.83   418.1    5.2      35.312
2014    9       30     8  33    4.83   417.9    5.2      35.294
2014    9       30     8  38    4.83   417.7    5.2      35.276
2014    9       30     8  43    4.84   417.5    5.2      35.259
2014    9       30     8  48    4.84   417.3    5.2      35.242
2014    9       30     8  54    4.84   417.1    5.2      35.225
2014    9       30     8  59    4.85   416.9    5.2      35.208
2014    9       30     9   4    4.85   416.7    5.2      35.191
2014    9       30     9  10    4.85   416.5    5.2      35.174
2014    9       30     9  15    4.85   416.3    5.2      35.158
2014    9       30     9  20    4.86   416.1    5.2      35.142
2014    9       30     9  25    4.86   416.0    5.2      35.125
2014    9       30     9  31    4.86   415.8    5.3      35.109
2014    9       30     9  36    4.87   415.6    5.3      35.093
2014    9       30     9  41    4.87   415.4    5.3      35.077
2014    9       30     9  47    4.87   415.2    5.3      35.062
2014    9       30     9  52    4.88   415.0    5.3      35.046
2014    9       30     9  57    4.88   414.8    5.3      35.031
2014    9       30    10   2    4.88   414.6    5.3      35.016
2014    9       30    10   8    4.89   414.4    5.3      35.001
2014    9       30    10  13    4.89   414.2    5.3      34.986
2014    9       30    10  18    4.89   414.1    5.3      34.972
2014    9       30    10  24    4.90   413.9    5.3      34.958
2014    9       30    10  29    4.90   413.7    5.4      34.943
2014    9       30    10  34    4.90   413.5    5.4      34.930
2014    9       30    10  39    4.91   413.3    5.4      34.916
2014    9       30    10  45    4.91   413.1    5.4      34.903
2014    9       30    10  50    4.91   412.9    5.4      34.889
2014    9       30    10  55    4.92   412.8    5.4      34.877
2014    9       30    11   1    4.92   412.6    5.4      34.864
2014    9       30    11   6    4.93   412.4    5.4      34.852
2014    9       30    11  11    4.93   412.2    5.4      34.840
2014    9       30    11  17    4.93   412.0    5.4      34.828
2014    9       30    11  22    4.94   411.8    5.4      34.816
2014    9       30    11  27    4.94   411.7    5.4      34.805
2014    9       30    11  32    4.94   411.5    5.5      34.794
2014    9       30    11  38    4.95   411.3    5.5      34.783
2014    9       30    11  43    4.95   411.1    5.5      34.772
2014    9       30    11  48    4.96   411.0    5.5      34.762
2014    9       30    11  54    4.96   410.8    5.5      34.752
2014    9       30    11  59    4.96   410.6    5.5      34.742
2014    9       30    12   4    4.97   410.4    5.5      34.733
2014    9       30    12   9    4.97   410.3    5.5      34.724
2014    9       30    12  15    4.98   410.1    5.5      34.715
2014    9       30    12  20    4.98   409.9    5.5      34.706
2014    9       30    12  25    4.98   409.8    5.6      34.698
2014    9       30    12  31    4.99   409.6    5.6      34.690
2014    9       30    12  36    4.99   409.4    5.6      34.682
2014    9       30    12  41    5.00   409.2    5.6      34.674
2014    9       30    12  46    5.00   409.1    5.6      34.667
2014    9       30    12  52    5.01   408.9    5.6      34.660
2014    9       30    12  57    5.01   408.8    5.6      34.653
2014    9       30    13   2    5.01   408.6    5.6      34.646
2014    9       30    13   8    5.02   408.4    5.6      34.639
2014    9       30    13  13    5.02   408.3    5.6      34.633
2014    9       30    13  18    5.03   408.1    5.6      34.626
2014    9       30    13  23    5.03   407.9    5.7      34.620
2014    9       30    13  29    5.03   407.8    5.7      34.613
2014    9       30    13  34    5.04   407.6    5.7      34.607
2014    9       30    13  39    5.04   407.5    5.7      34.601
2014    9       30    13  45    5.05   407.3    5.7      34.594
2014    9       30    13  50    5.05   407.2    5.7      34.589
2014    9       30    13  55    5.06   407.0    5.7      34.583
2014    9       30    14   0    5.06   406.9    5.7      34.577
2014    9       30    14   6    5.06   406.7    5.7      34.571
2014    9       30    14  11    5.07   406.6    5.7      34.565
2014    9       30    14  16    5.07   406.4    5.7      34.559
2014    9       30    14  22    5.08   406.2    5.8      34.554
2014    9       30    14  27    5.08   406.1    5.8      34.548
2014    9       30    14  32    5.09   406.0    5.8      34.543
2014    9       30    14  37    5.09   405.8    5.8      34.538
2014    9       30    14  43    5.10   405.7    5.8      34.533
2014    9       30    14  48    5.10   405.5    5.8      34.528
2014    9       30    14  53    5.10   405.4    5.8      34.523
2014    9       30    14  59    5.11   405.2    5.8      34.518
2014    9       30    15   4    5.11   405.1    5.8      34.513
2014    9       30    15   9    5.12   404.9    5.8      34.509
2014    9       30    15  14    5.12   404.8    5.8      34.505
2014    9       30    15  20    5.13   404.7    5.9      34.501
2014    9       30    15  25    5.13   404.5    5.9      34.496
2014    9       30    15  30    5.14   404.4    5.9      34.493
2014    9       30    15  36    5.14   404.2    5.9      34.489
2014    9       30    15  41    5.15   404.1    5.9      34.486
2014    9       30    15  46    5.15   404.0    5.9      34.483
2014    9       30    15  51    5.15   403.8    5.9      34.480
2014    9       30    15  57    5.16   403.7    5.9      34.477
2014    9       30    16   2    5.16   403.6    5.9      34.474
2014    9       30    16   7    5.17   403.4    5.9      34.472
2014    9       30    16  13    5.17   403.3    6.0      34.470
2014    9       30    16  18    5.18   403.2    6.0      34.468
2014    9       30    16  23    5.18   403.1    6.0      34.466
2014    9       30    16  28    5.19   402.9    6.0      34.465
2014    9       30    16  34    5.19   402.8    6.0      34.464
2014    9       30    16  39    5.20   402.7    6.0      34.463
2014    9       30    16  44    5.20   402.6    6.0      34.462
2014    9       30    16  50    5.21   402.4    6.0      34.461
2014    9       30    16  55    5.21   402.3    6.0      34.461
2014    9       30    17   0    5.22   402.2    6.1      34.461
2014    9       30    17   6    5.22   402.1    6.1      34.461
2014    9       30    17  11    5.23   402.0    6.1      34.461
2014    9       30    17  16    5.23   401.8    6.1      34.462
2014    9       30    17  21    5.24   401.7    6.1      34.462
2014    9       30    17  27    5.24   401.6    6.1      34.463
2014    9       30    17  32    5.25   401.5    6.1      34.464
2014    9       30    17  37    5.25   401.4    6.1      34.465
2014    9       30    17  43    5.26   401.3    6.1      34.467
2014    9       30    17  48    5.26   401.2    6.1      34.469
2014    9       30    17  53    5.27   401.0    6.2      34.471
2014    9       30    17  58    5.27   400.9    6.2      34.473
2014    9       30    18   4    5.28   400.8    6.2      34.476
2014    9       30    18   9    5.28   400.7    6.2      34.478
2014    9       30    18  14    5.29   400.6    6.2      34.481
2014    9       30    18  20    5.29   400.5    6.2      34.484
2014    9       30    18  25    5.30   400.4    6.2      34.487
2014    9       30    18  30    5.30   400.3    6.2      34.491
2014    9       30    18  35    5.31   400.2    6.2      34.495
2014    9       30    18  41    5.31   400.1    6.3      34.499
2014    9       30    18  46    5.32   400.0    6.3      34.503
2014    9       30    18  51    5.32   399.9    6.3      34.508
2014    9       30    18  57    5.33   399.8    6.3      34.513
2014    9       30    19   2    5.33   399.7    6.3      34.518
2014    9       30    19   7    5.34   399.6    6.3      34.524
2014    9       30    19  12    5.35   399.5    6.3      34.530
2014    9       30    19  18    5.35   399.4    6.3      34.536
2014    9       30    19  23    5.36   399.3    6.3      34.543
2014    9       30    19  28    5.36   399.2    6.3      34.550
2014    9       30    19  34    5.37   399.1    6.4      34.557
2014    9       30    19  39    5.37   399.0    6.4      34.565
2014    9       30    19  44    5.38   398.9    6.4      34.572
2014    9       30    19  49    5.38   398.8    6.4      34.580
2014    9       30    19  55    5.39   398.7    6.4      34.588
2014    9       30    20   0    5.39   398.6    6.4      34.596
2014    9       30    20   5    5.40   398.5    6.4      34.605
2014    9       30    20  11    5.40   398.4    6.4      34.613
2014    9       30    20  16    5.41   398.3    6.4      34.622
2014    9       30    20  21    5.42   398.2    6.4      34.631
2014    9       30    20  26    5.42   398.2    6.5      34.640
2014    9       30    20  32    5.43   398.1    6.5      34.649
2014    9       30    20  37    5.43   398.0    6.5      34.659
2014    9       30    20  42    5.44   397.9    6.5      34.668
2014    9       30    20  48    5.44   397.8    6.5      34.678
2014    9       30    20  53    5.45   397.7    6.5      34.687
2014    9       30    20  58    5.45   397.7    6.5      34.697
2014    9       30    21   4    5.46   397.6    6.5      34.706
2014    9       30    21   9    5.47   397.5    6.5      34.716
2014    9       30    21  14    5.47   397.4    6.5      34.726
2014    9       30    21  19    5.48   397.3    6.6      34.736
2014    9       30    21  25    5.48   397.3    6.6      34.746
2014    9       30    21  30    5.49   397.2    6.6      34.756
2014    9       30    21  35    5.49   397.1    6.6      34.766
2014    9       30    21  41    5.50   397.0    6.6      34.776
2014    9       30    21  46    5.51   397.0    6.6      34.787
2014    9       30    21  51    5.51   396.9    6.6      34.797
2014    9       30    21  56    5.52   396.8    6.6      34.807
2014    9       30    22   2    5.52   396.7    6.6      34.817
2014    9       30    22   7    5.53   396.7    6.6      34.828
2014    9       30    22  12    5.53   396.6    6.7      34.838
2014    9       30    22  18    5.54   396.5    6.7      34.849
2014    9       30    22  23    5.54   396.4    6.7      34.859
2014    9       30    22  28    5.55   396.4    6.7      34.870
2014    9       30    22  33    5.56   396.3    6.7      34.881
2014    9       30    22  39    5.56   396.2    6.7      34.891
2014    9       30    22  44    5.57   396.2    6.7      34.902
2014    9       30    22  49    5.57   396.1    6.7      34.913
2014    9       30    22  55    5.58   396.0    6.7      34.924
2014    9       30    23   0    5.58   396.0    6.7      34.935
2014    9       30    23   5    5.59   395.9    6.7      34.946
2014    9       30    23  10    5.60   395.8    6.8      34.957
2014    9       30    23  16    5.60   395.8    6.8      34.969
2014    9       30    23  21    5.61   395.7    6.8      34.980
2014    9       30    23  26    5.61   395.7    6.8      34.992
2014    9       30    23  32    5.62   395.6    6.8      35.004
2014    9       30    23  37    5.62   395.5    6.8      35.016
2014    9       30    23  42    5.63   395.5    6.8      35.028
2014    9       30    23  47    5.64   395.4    6.8      35.040
2014    9       30    23  53    5.64   395.3    6.8      35.052
2014    9       30    23  58    5.65   395.3    6.8      35.065
2014   10        1     0   3    5.65   395.2    6.9      35.078
2014   10        1     0   9    5.66   395.2    6.9      35.091
2014   10        1     0  14    5.67   395.1    6.9      35.104
2014   10        1     0  19    5.67   395.1    6.9      35.118
2014   10        1     0  24    5.68   395.0    6.9      35.132
2014   10        1     0  30    5.68   394.9    6.9      35.145
2014   10        1     0  35    5.69   394.9    6.9      35.160
2014   10        1     0  40    5.69   394.8    6.9      35.174
2014   10        1     0  46    5.70   394.8    6.9      35.189
2014   10        1     0  51    5.71   394.7    6.9      35.204
2014   10        1     0  56    5.71   394.7    6.9      35.219
2014   10        1     1   1    5.72   394.6    7.0      35.235
2014   10        1     1   7    5.72   394.6    7.0      35.251
2014   10        1     1  12    5.73   394.5    7.0      35.267
2014   10        1     1  17    5.74   394.5    7.0      35.283
2014   10        1     1  23    5.74   394.4    7.0      35.300
2014   10        1     1  28    5.75   394.4    7.0      35.316
2014   10        1     1  33    5.75   394.3    7.0      35.333
2014   10        1     1  38    5.76   394.3    7.0      35.350
2014   10        1     1  44    5.76   394.2    7.0      35.368
2014   10        1     1  49    5.77   394.2    7.0      35.385
2014   10        1     1  54    5.78   394.2    7.0      35.403
2014   10        1     2   0    5.78   394.1    7.1      35.421
2014   10        1     2   5    5.79   394.1    7.1      35.440
2014   10        1     2  10    5.79   394.0    7.1      35.458
2014   10        1     2  16    5.80   394.0    7.1      35.477
2014   10        1     2  21    5.81   394.0    7.1      35.496
2014   10        1     2  26    5.81   393.9    7.1      35.515
2014   10        1     2  31    5.82   393.9    7.1      35.535
2014   10        1     2  37    5.82   393.9    7.1      35.554
2014   10        1     2  42    5.83   393.8    7.1      35.574
2014   10        1     2  47    5.84   393.8    7.1      35.594
2014   10        1     2  53    5.84   393.7    7.1      35.614
2014   10        1     2  58    5.85   393.7    7.1      35.634
2014   10        1     3   3    5.85   393.7    7.2      35.654
2014   10        1     3   8    5.86   393.6    7.2      35.674
2014   10        1     3  14    5.87   393.6    7.2      35.694
2014   10        1     3  19    5.87   393.6    7.2      35.714
2014   10        1     3  24    5.88   393.6    7.2      35.734
2014   10        1     3  30    5.88   393.5    7.2      35.754
2014   10        1     3  35    5.89   393.5    7.2      35.774
2014   10        1     3  40    5.90   393.5    7.2      35.794
2014   10        1     3  45    5.90   393.4    7.2      35.814
2014   10        1     3  51    5.91   393.4    7.2      35.834
2014   10        1     3  56    5.91   393.4    7.2      35.853
2014   10        1     4   1    5.92   393.3    7.2      35.873
2014   10        1     4   7    5.93   393.3    7.3      35.893
2014   10        1     4  12    5.93   393.3    7.3      35.913
2014   10        1     4  17    5.94   393.3    7.3      35.933
2014   10        1     4  22    5.94   393.2    7.3      35.953
2014   10        1     4  28    5.95   393.2    7.3      35.973
2014   10        1     4  33    5.95   393.2    7.3      35.993
2014   10        1     4  38    5.96   393.2    7.3      36.013
2014   10        1     4  44    5.97   393.1    7.3      36.034
2014   10        1     4  49    5.97   393.1    7.3      36.055
2014   10        1     4  54    5.98   393.1    7.3      36.075
2014   10        1     4  59    5.98   393.1    7.3      36.097
2014   10        1     5   5    5.99   393.1    7.3      36.118
2014   10        1     5  10    6.00   393.1    7.3      36.140
2014   10        1     5  15    6.00   393.0    7.4      36.162
2014   10        1     5  21    6.01   393.0    7.4      36.185
2014   10        1     5  26    6.01   393.0    7.4      36.208
2014   10        1     5  31    6.02   393.0    7.4      36.230
2014   10        1     5  36    6.02   393.0    7.4      36.254
2014   10        1     5  42    6.03   393.0    7.4      36.277
2014   10        1     5  47    6.04   393.0    7.4      36.300
2014   10        1     5  52    6.04   392.9    7.4      36.324
2014   10        1     5  58    6.05   392.9    7.4      36.348
2014   10        1     6   3    6.05   392.9    7.4      36.372
2014   10        1     6   8    6.06   392.9    7.4      36.395
2014   10        1     6  13    6.06   392.9    7.4      36.419
2014   10        1     6  19    6.07   392.9    7.4      36.443
2014   10        1     6  24    6.07   392.9    7.4      36.467
2014   10        1     6  29    6.08   392.9    7.5      36.490
2014   10        1     6  35    6.09   392.9    7.5      36.514
2014   10        1     6  40    6.09   392.9    7.5      36.537
2014   10        1     6  45    6.10   392.8    7.5      36.560
2014   10        1     6  50    6.10   392.8    7.5      36.583
2014   10        1     6  56    6.11   392.8    7.5      36.606
2014   10        1     7   1    6.11   392.8    7.5      36.629
2014   10        1     7   6    6.12   392.8    7.5      36.652
2014   10        1     7  12    6.12   392.8    7.5      36.675
2014   10        1     7  17    6.13   392.8    7.5      36.698
2014   10        1     7  22    6.13   392.8    7.5      36.721
2014   10        1     7  28    6.14   392.8    7.5      36.744
2014   10        1     7  33    6.15   392.8    7.5      36.767
2014   10        1     7  38    6.15   392.8    7.5      36.790
2014   10        1     7  43    6.16   392.8    7.5      36.813
2014   10        1     7  49    6.16   392.8    7.5      36.836
2014   10        1     7  54    6.17   392.8    7.5      36.858
2014   10        1     7  59    6.17   392.8    7.6      36.881
2014   10        1     8   5    6.18   392.8    7.6      36.904
2014   10        1     8  10    6.18   392.8    7.6      36.927
2014   10        1     8  15    6.19   392.8    7.6      36.950
2014   10        1     8  20    6.20   392.7    7.6      36.973
2014   10        1     8  26    6.20   392.7    7.6      36.996
2014   10        1     8  31    6.21   392.7    7.6      37.019
2014   10        1     8  36    6.21   392.7    7.6      37.043
2014   10        1     8  42    6.22   392.7    7.6      37.066
2014   10        1     8  47    6.22   392.7    7.6      37.090
2014   10        1     8  52    6.23   392.7    7.6      37.114
2014   10        1     8  57    6.23   392.7    7.6      37.138
2014   10        1     9   3    6.24   392.7    7.6      37.162
2014   10        1     9   8    6.25   392.7    7.6      37.187
2014   10        1     9  13    6.25   392.8    7.6      37.212
2014   10        1     9  19    6.26   392.8    7.6      37.238
2014   10        1     9  24    6.26   392.8    7.6      37.264
2014   10        1     9  29    6.27   392.8    7.7      37.290
2014   10        1     9  34    6.27   392.8    7.7      37.318
2014   10        1     9  40    6.28   392.8    7.7      37.346
2014   10        1     9  45    6.28   392.8    7.7      37.374
2014   10        1     9  50    6.29   392.8    7.7      37.404
2014   10        1     9  56    6.30   392.9    7.7      37.434
2014   10        1    10   1    6.30   392.9    7.7      37.464
2014   10        1    10   6    6.31   392.9    7.7      37.495
2014   10        1    10  11    6.31   392.9    7.7      37.526
2014   10        1    10  17    6.32   392.9    7.7      37.558
2014   10        1    10  22    6.32   392.9    7.7      37.589
2014   10        1    10  27    6.33   393.0    7.7      37.620
2014   10        1    10  33    6.33   393.0    7.7      37.650
2014   10        1    10  38    6.34   393.0    7.7      37.681
2014   10        1    10  43    6.34   393.0    7.7      37.711
2014   10        1    10  48    6.35   393.0    7.7      37.741
2014   10        1    10  54    6.35   393.1    7.7      37.771
2014   10        1    10  59    6.36   393.1    7.7      37.801
2014   10        1    11   4    6.36   393.1    7.7      37.831
2014   10        1    11  10    6.37   393.1    7.8      37.861
2014   10        1    11  15    6.37   393.2    7.8      37.890
2014   10        1    11  20    6.38   393.2    7.8      37.919
2014   10        1    11  26    6.38   393.2    7.8      37.949
2014   10        1    11  31    6.39   393.2    7.8      37.978
2014   10        1    11  36    6.39   393.3    7.8      38.007
2014   10        1    11  41    6.40   393.3    7.8      38.036
2014   10        1    11  47    6.40   393.3    7.8      38.066
2014   10        1    11  52    6.41   393.3    7.8      38.095
2014   10        1    11  57    6.41   393.4    7.8      38.124
2014   10        1    12   3    6.41   393.4    7.8      38.154
2014   10        1    12   8    6.42   393.4    7.8      38.184
2014   10        1    12  13    6.42   393.4    7.8      38.213
2014   10        1    12  18    6.43   393.5    7.8      38.243
2014   10        1    12  24    6.43   393.5    7.8      38.274
2014   10        1    12  29    6.44   393.5    7.8      38.305
2014   10        1    12  34    6.44   393.6    7.8      38.336
2014   10        1    12  40    6.45   393.6    7.8      38.367
2014   10        1    12  45    6.45   393.6    7.8      38.398
2014   10        1    12  50    6.46   393.7    7.8      38.429
2014   10        1    12  55    6.46   393.7    7.8      38.461
2014   10        1    13   1    6.47   393.7    7.8      38.493
2014   10        1    13   6    6.47   393.8    7.8      38.524
2014   10        1    13  11    6.47   393.8    7.8      38.556
2014   10        1    13  17    6.48   393.8    7.8      38.588
2014   10        1    13  22    6.48   393.9    7.8      38.619
2014   10        1    13  27    6.49   393.9    7.8      38.651
2014   10        1    13  32    6.49   393.9    7.9      38.681
2014   10        1    13  38    6.50   394.0    7.9      38.712
2014   10        1    13  43    6.50   394.0    7.9      38.743
2014   10        1    13  48    6.50   394.0    7.9      38.773
2014   10        1    13  54    6.51   394.1    7.9      38.803
2014   10        1    13  59    6.51   394.1    7.9      38.833
2014   10        1    14   4    6.52   394.1    7.9      38.863
2014   10        1    14   9    6.52   394.2    7.9      38.893
2014   10        1    14  15    6.53   394.2    7.9      38.922
2014   10        1    14  20    6.53   394.2    7.9      38.952
2014   10        1    14  25    6.53   394.3    7.9      38.981
2014   10        1    14  31    6.54   394.3    7.9      39.010
2014   10        1    14  36    6.54   394.3    7.9      39.039
2014   10        1    14  41    6.55   394.4    7.9      39.068
2014   10        1    14  46    6.55   394.4    7.9      39.097
2014   10        1    14  52    6.56   394.5    7.9      39.126
2014   10        1    14  57    6.56   394.5    7.9      39.155
2014   10        1    15   2    6.56   394.5    7.9      39.184
2014   10        1    15   8    6.57   394.6    7.9      39.213
2014   10        1    15  13    6.57   394.6    7.9      39.242
2014   10        1    15  18    6.58   394.6    7.9      39.271
2014   10        1    15  23    6.58   394.7    7.9      39.300
2014   10        1    15  29    6.59   394.7    7.9      39.329
2014   10        1    15  34    6.59   394.7    7.9      39.358
2014   10        1    15  39    6.59   394.8    7.9      39.388
2014   10        1    15  45    6.60   394.8    7.9      39.417
2014   10        1    15  50    6.60   394.9    7.9      39.447
2014   10        1    15  55    6.61   394.9    7.9      39.477
2014   10        1    16   0    6.61   394.9    7.9      39.507
2014   10        1    16   6    6.62   395.0    7.9      39.538
2014   10        1    16  11    6.62   395.0    7.9      39.569
2014   10        1    16  16    6.62   395.1    7.9      39.601
2014   10        1    16  22    6.63   395.1    7.9      39.633
2014   10        1    16  27    6.63   395.1    7.9      39.665
2014   10        1    16  32    6.64   395.2    7.9      39.698
2014   10        1    16  38    6.64   395.2    7.9      39.732
2014   10        1    16  43    6.65   395.3    7.9      39.767
2014   10        1    16  48    6.65   395.3    8.0      39.803
2014   10        1    16  53    6.65   395.4    8.0      39.839
2014   10        1    16  59    6.66   395.4    8.0      39.877
2014   10        1    17   4    6.66   395.5    8.0      39.915
2014   10        1    17   9    6.67   395.5    8.0      39.954
2014   10        1    17  15    6.67   395.6    8.0      39.994
2014   10        1    17  20    6.67   395.6    8.0      40.035
2014   10        1    17  25    6.68   395.7    8.0      40.077
2014   10        1    17  30    6.68   395.7    8.0      40.120
2014   10        1    17  36    6.69   395.8    8.0      40.163
2014   10        1    17  41    6.69   395.9    8.0      40.206
2014   10        1    17  46    6.69   395.9    8.0      40.250
2014   10        1    17  52    6.70   396.0    8.0      40.293
2014   10        1    17  57    6.70   396.1    8.0      40.337
2014   10        1    18   2    6.70   396.1    8.0      40.380
2014   10        1    18   7    6.71   396.2    8.0      40.422
2014   10        1    18  13    6.71   396.2    8.0      40.464
2014   10        1    18  18    6.71   396.3    8.0      40.505
2014   10        1    18  23    6.72   396.4    8.0      40.545
2014   10        1    18  29    6.72   396.4    8.0      40.585
2014   10        1    18  34    6.72   396.5    8.0      40.625
2014   10        1    18  39    6.73   396.6    8.0      40.664
2014   10        1    18  44    6.73   396.6    8.0      40.702
2014   10        1    18  50    6.73   396.7    8.0      40.740
2014   10        1    18  55    6.73   396.7    8.0      40.778
2014   10        1    19   0    6.74   396.8    8.0      40.815
2014   10        1    19   6    6.74   396.9    8.0      40.851
2014   10        1    19  11    6.74   396.9    8.0      40.887
2014   10        1    19  16    6.75   397.0    8.0      40.922
2014   10        1    19  21    6.75   397.1    8.0      40.958
2014   10        1    19  27    6.75   397.1    8.0      40.992
2014   10        1    19  32    6.76   397.2    8.0      41.026
2014   10        1    19  37    6.76   397.3    8.0      41.060
2014   10        1    19  43    6.76   397.3    8.0      41.094
2014   10        1    19  48    6.76   397.4    8.0      41.127
2014   10        1    19  53    6.77   397.5    8.0      41.160
2014   10        1    19  58    6.77   397.5    8.0      41.193
2014   10        1    20   4    6.77   397.6    8.0      41.225
2014   10        1    20   9    6.77   397.7    8.0      41.257
2014   10        1    20  14    6.78   397.8    8.0      41.288
2014   10        1    20  20    6.78   397.8    8.0      41.320
2014   10        1    20  25    6.78   397.9    8.0      41.351
2014   10        1    20  30    6.79   398.0    8.0      41.382
2014   10        1    20  35    6.79   398.0    8.0      41.413
2014   10        1    20  41    6.79   398.1    8.0      41.443
2014   10        1    20  46    6.79   398.2    8.0      41.474
2014   10        1    20  51    6.80   398.2    8.0      41.504
2014   10        1    20  57    6.80   398.3    8.0      41.534
2014   10        1    21   2    6.80   398.4    8.0      41.564
2014   10        1    21   7    6.80   398.4    8.0      41.594
2014   10        1    21  13    6.81   398.5    8.0      41.624
2014   10        1    21  18    6.81   398.6    8.0      41.653
2014   10        1    21  23    6.81   398.7    8.0      41.683
2014   10        1    21  28    6.81   398.7    8.0      41.713
2014   10        1    21  34    6.82   398.8    8.0      41.743
2014   10        1    21  39    6.82   398.9    8.0      41.773
2014   10        1    21  44    6.82   398.9    8.0      41.803
2014   10        1    21  50    6.82   399.0    8.0      41.833
2014   10        1    21  55    6.83   399.1    8.0      41.863
2014   10        1    22   0    6.83   399.2    8.0      41.893
2014   10        1    22   5    6.83   399.2    8.0      41.923
2014   10        1    22  11    6.83   399.3    8.0      41.953
2014   10        1    22  16    6.84   399.4    8.0      41.983
2014   10        1    22  21    6.84   399.5    8.0      42.013
2014   10        1    22  27    6.84   399.5    8.0      42.044
2014   10        1    22  32    6.84   399.6    8.0      42.074
2014   10        1    22  37    6.85   399.7    8.0      42.105
2014   10        1    22  42    6.85   399.8    8.0      42.135
2014   10        1    22  48    6.85   399.8    8.0      42.166
2014   10        1    22  53    6.85   399.9    8.0      42.198
2014   10        1    22  58    6.86   400.0    8.0      42.230
2014   10        1    23   4    6.86   400.1    8.0      42.262
2014   10        1    23   9    6.86   400.1    8.0      42.295
2014   10        1    23  14    6.86   400.2    8.0      42.329
2014   10        1    23  19    6.87   400.3    8.0      42.363
2014   10        1    23  25    6.87   400.4    8.0      42.397
2014   10        1    23  30    6.87   400.5    8.0      42.432
2014   10        1    23  35    6.87   400.5    8.0      42.468
2014   10        1    23  41    6.87   400.6    8.0      42.504
2014   10        1    23  46    6.88   400.7    8.0      42.542
2014   10        1    23  51    6.88   400.8    8.0      42.580
2014   10        1    23  56    6.88   400.9    8.0      42.620
2014   10        2     0   2    6.88   401.0    8.0      42.660
2014   10        2     0   7    6.89   401.0    8.0      42.702
2014   10        2     0  12    6.89   401.1    8.0      42.743
2014   10        2     0  18    6.89   401.2    8.0      42.786
2014   10        2     0  23    6.89   401.3    8.0      42.828
2014   10        2     0  28    6.89   401.4    8.0      42.872
2014   10        2     0  33    6.90   401.5    8.0      42.916
2014   10        2     0  39    6.90   401.6    8.0      42.959
2014   10        2     0  44    6.90   401.7    8.0      43.003
2014   10        2     0  49    6.90   401.8    8.0      43.047
2014   10        2     0  55    6.90   401.8    8.0      43.090
2014   10        2     1   0    6.90   401.9    8.0      43.134
2014   10        2     1   5    6.91   402.0    8.0      43.178
2014   10        2     1  11    6.91   402.1    8.0      43.221
2014   10        2     1  16    6.91   402.2    8.0      43.264
2014   10        2     1  21    6.91   402.3    8.0      43.306
2014   10        2     1  26    6.91   402.4    8.0      43.347
2014   10        2     1  32    6.91   402.5    8.0      43.387
2014   10        2     1  37    6.92   402.6    8.0      43.427
2014   10        2     1  42    6.92   402.7    8.0      43.467
2014   10        2     1  48    6.92   402.8    8.0      43.505
2014   10        2     1  53    6.92   402.9    8.0      43.543
2014   10        2     1  58    6.92   403.0    8.0      43.581
2014   10        2     2   3    6.92   403.1    8.0      43.617
2014   10        2     2   9    6.92   403.2    8.0      43.654
2014   10        2     2  14    6.92   403.3    8.0      43.690
2014   10        2     2  19    6.93   403.4    8.0      43.725
2014   10        2     2  25    6.93   403.5    8.0      43.759
2014   10        2     2  30    6.93   403.6    8.0      43.794
2014   10        2     2  35    6.93   403.7    8.0      43.827
2014   10        2     2  40    6.93   403.8    8.0      43.861
2014   10        2     2  46    6.93   403.9    8.0      43.893
2014   10        2     2  51    6.93   404.0    8.0      43.926
2014   10        2     2  56    6.93   404.1    7.9      43.958
2014   10        2     3   2    6.93   404.2    7.9      43.989
2014   10        2     3   7    6.93   404.3    7.9      44.020
2014   10        2     3  12    6.94   404.4    7.9      44.051
2014   10        2     3  17    6.94   404.6    7.9      44.082
2014   10        2     3  23    6.94   404.7    7.9      44.112
2014   10        2     3  28    6.94   404.8    7.9      44.142
2014   10        2     3  33    6.94   404.9    7.9      44.172
2014   10        2     3  39    6.94   405.0    7.9      44.201
2014   10        2     3  44    6.94   405.1    7.9      44.230
2014   10        2     3  49    6.94   405.2    7.9      44.259
2014   10        2     3  54    6.94   405.3    7.9      44.288
2014   10        2     4   0    6.94   405.4    7.9      44.316
2014   10        2     4   5    6.94   405.5    7.9      44.345
2014   10        2     4  10    6.94   405.7    7.9      44.373
2014   10        2     4  16    6.94   405.8    7.9      44.401
2014   10        2     4  21    6.94   405.9    7.9      44.429
2014   10        2     4  26    6.94   406.0    7.9      44.458
2014   10        2     4  31    6.94   406.1    7.9      44.485
2014   10        2     4  37    6.95   406.2    7.9      44.513
2014   10        2     4  42    6.95   406.4    7.9      44.540
2014   10        2     4  47    6.95   406.5    7.9      44.568
2014   10        2     4  53    6.95   406.6    7.9      44.595
2014   10        2     4  58    6.95   406.7    7.9      44.622
2014   10        2     5   3    6.95   406.8    7.9      44.648
2014   10        2     5   8    6.95   406.9    7.9      44.675
2014   10        2     5  14    6.95   407.1    7.9      44.701
2014   10        2     5  19    6.95   407.2    7.9      44.727
2014   10        2     5  24    6.95   407.3    7.9      44.753
2014   10        2     5  30    6.95   407.4    7.9      44.779
2014   10        2     5  35    6.95   407.5    7.8      44.804
2014   10        2     5  40    6.95   407.7    7.8      44.830
2014   10        2     5  45    6.95   407.8    7.8      44.855
2014   10        2     5  51    6.95   407.9    7.8      44.881
2014   10        2     5  56    6.95   408.0    7.8      44.906
2014   10        2     6   1    6.95   408.1    7.8      44.932
2014   10        2     6   7    6.95   408.3    7.8      44.958
2014   10        2     6  12    6.94   408.4    7.8      44.984
2014   10        2     6  17    6.94   408.5    7.8      45.010
2014   10        2     6  22    6.94   408.6    7.8      45.037
2014   10        2     6  28    6.94   408.7    7.8      45.064
2014   10        2     6  33    6.94   408.9    7.8      45.091
2014   10        2     6  38    6.94   409.0    7.8      45.118
2014   10        2     6  44    6.94   409.1    7.8      45.146
2014   10        2     6  49    6.94   409.2    7.8      45.174
2014   10        2     6  54    6.94   409.4    7.8      45.203
2014   10        2     7   0    6.94   409.5    7.8      45.232
2014   10        2     7   5    6.94   409.6    7.8      45.262
2014   10        2     7  10    6.94   409.8    7.8      45.292
2014   10        2     7  15    6.94   409.9    7.8      45.323
2014   10        2     7  21    6.94   410.0    7.8      45.354
2014   10        2     7  26    6.94   410.1    7.8      45.385
2014   10        2     7  31    6.94   410.3    7.7      45.416
2014   10        2     7  37    6.93   410.4    7.7      45.447
2014   10        2     7  42    6.93   410.5    7.7      45.477
2014   10        2     7  47    6.93   410.7    7.7      45.507
2014   10        2     7  52    6.93   410.8    7.7      45.536
2014   10        2     7  58    6.93   410.9    7.7      45.565
2014   10        2     8   3    6.93   411.0    7.7      45.594
2014   10        2     8   8    6.93   411.2    7.7      45.622
2014   10        2     8  14    6.93   411.3    7.7      45.650
2014   10        2     8  19    6.92   411.4    7.7      45.677
2014   10        2     8  24    6.92   411.5    7.7      45.704
2014   10        2     8  29    6.92   411.7    7.7      45.730
2014   10        2     8  35    6.92   411.8    7.7      45.756
2014   10        2     8  40    6.92   411.9    7.7      45.782
2014   10        2     8  45    6.92   412.0    7.7      45.807
2014   10        2     8  51    6.92   412.2    7.7      45.831
2014   10        2     8  56    6.91   412.3    7.7      45.855
2014   10        2     9   1    6.91   412.4    7.6      45.879
2014   10        2     9   6    6.91   412.5    7.6      45.902
2014   10        2     9  12    6.91   412.6    7.6      45.925
2014   10        2     9  17    6.91   412.8    7.6      45.948
2014   10        2     9  22    6.91   412.9    7.6      45.970
2014   10        2     9  28    6.90   413.0    7.6      45.991
2014   10        2     9  33    6.90   413.1    7.6      46.013
2014   10        2     9  38    6.90   413.3    7.6      46.033
2014   10        2     9  43    6.90   413.4    7.6      46.054
2014   10        2     9  49    6.90   413.5    7.6      46.074
2014   10        2     9  54    6.89   413.6    7.6      46.093
2014   10        2     9  59    6.89   413.7    7.6      46.112
2014   10        2    10   5    6.89   413.9    7.6      46.131
2014   10        2    10  10    6.89   414.0    7.6      46.150
2014   10        2    10  15    6.88   414.1    7.5      46.168
2014   10        2    10  20    6.88   414.2    7.5      46.186
2014   10        2    10  26    6.88   414.3    7.5      46.203
2014   10        2    10  31    6.88   414.5    7.5      46.221
2014   10        2    10  36    6.87   414.6    7.5      46.237
2014   10        2    10  42    6.87   414.7    7.5      46.254
2014   10        2    10  47    6.87   414.8    7.5      46.270
2014   10        2    10  52    6.87   414.9    7.5      46.286
2014   10        2    10  58    6.86   415.1    7.5      46.302
2014   10        2    11   3    6.86   415.2    7.5      46.317
2014   10        2    11   8    6.86   415.3    7.5      46.332
2014   10        2    11  13    6.86   415.4    7.5      46.347
2014   10        2    11  19    6.85   415.5    7.5      46.362
2014   10        2    11  24    6.85   415.7    7.5      46.376
2014   10        2    11  29    6.85   415.8    7.5      46.390
2014   10        2    11  35    6.84   415.9    7.4      46.404
2014   10        2    11  40    6.84   416.0    7.4      46.417
2014   10        2    11  45    6.84   416.1    7.4      46.429
2014   10        2    11  50    6.84   416.3    7.4      46.442
2014   10        2    11  56    6.83   416.4    7.4      46.454
2014   10        2    12   1    6.83   416.5    7.4      46.466
2014   10        2    12   6    6.83   416.6    7.4      46.477
2014   10        2    12  12    6.82   416.7    7.4      46.488
2014   10        2    12  17    6.82   416.9    7.4      46.499
2014   10        2    12  22    6.82   417.0    7.4      46.510
2014   10        2    12  27    6.81   417.1    7.4      46.520
2014   10        2    12  33    6.81   417.2    7.4      46.530
2014   10        2    12  38    6.80   417.3    7.3      46.539
2014   10        2    12  43    6.80   417.4    7.3      46.549
2014   10        2    12  49    6.80   417.6    7.3      46.558
2014   10        2    12  54    6.79   417.7    7.3      46.567
2014   10        2    12  59    6.79   417.8    7.3      46.575
2014   10        2    13   4    6.79   417.9    7.3      46.584
2014   10        2    13  10    6.78   418.0    7.3      46.592
2014   10        2    13  15    6.78   418.1    7.3      46.600
2014   10        2    13  20    6.77   418.2    7.3      46.608
2014   10        2    13  26    6.77   418.3    7.3      46.615
2014   10        2    13  31    6.77   418.5    7.3      46.622
2014   10        2    13  36    6.76   418.6    7.3      46.629
2014   10        2    13  41    6.76   418.7    7.2      46.636
2014   10        2    13  47    6.75   418.8    7.2      46.642
2014   10        2    13  52    6.75   418.9    7.2      46.648
2014   10        2    13  57    6.75   419.0    7.2      46.654
2014   10        2    14   3    6.74   419.1    7.2      46.660
2014   10        2    14   8    6.74   419.2    7.2      46.665
2014   10        2    14  13    6.73   419.3    7.2      46.670
2014   10        2    14  18    6.73   419.4    7.2      46.675
2014   10        2    14  24    6.72   419.5    7.2      46.679
2014   10        2    14  29    6.72   419.6    7.2      46.683
2014   10        2    14  34    6.72   419.7    7.2      46.686
2014   10        2    14  40    6.71   419.8    7.1      46.689
2014   10        2    14  45    6.71   419.9    7.1      46.692
2014   10        2    14  50    6.70   420.1    7.1      46.694
2014   10        2    14  55    6.70   420.1    7.1      46.697
2014   10        2    15   1    6.69   420.2    7.1      46.698
2014   10        2    15   6    6.69   420.3    7.1      46.699
2014   10        2    15  11    6.68   420.4    7.1      46.700
2014   10        2    15  17    6.68   420.5    7.1      46.700
2014   10        2    15  22    6.67   420.6    7.1      46.700
2014   10        2    15  27    6.67   420.7    7.1      46.699
2014   10        2    15  33    6.66   420.8    7.1      46.698
2014   10        2    15  38    6.66   420.9    7.0      46.697
2014   10        2    15  43    6.65   421.0    7.0      46.695
2014   10        2    15  48    6.65   421.1    7.0      46.692
2014   10        2    15  54    6.64   421.2    7.0      46.689
2014   10        2    15  59    6.64   421.2    7.0      46.686
2014   10        2    16   4    6.63   421.3    7.0      46.682
2014   10        2    16  10    6.63   421.4    7.0      46.678
2014   10        2    16  15    6.62   421.5    7.0      46.673
2014   10        2    16  20    6.62   421.6    7.0      46.668
2014   10        2    16  25    6.61   421.6    7.0      46.662
2014   10        2    16  31    6.61   421.7    7.0      46.656
2014   10        2    16  36    6.60   421.8    6.9      46.650
2014   10        2    16  41    6.60   421.9    6.9      46.642
2014   10        2    16  47    6.59   422.0    6.9      46.635
2014   10        2    16  52    6.59   422.0    6.9      46.627
2014   10        2    16  57    6.58   422.1    6.9      46.619
2014   10        2    17   2    6.58   422.2    6.9      46.610
2014   10        2    17   8    6.57   422.2    6.9      46.601
2014   10        2    17  13    6.57   422.3    6.9      46.591
2014   10        2    17  18    6.56   422.4    6.9      46.581
2014   10        2    17  24    6.55   422.4    6.9      46.571
2014   10        2    17  29    6.55   422.5    6.9      46.560
2014   10        2    17  34    6.54   422.6    6.8      46.548
2014   10        2    17  39    6.54   422.6    6.8      46.536
2014   10        2    17  45    6.53   422.7    6.8      46.524
2014   10        2    17  50    6.53   422.7    6.8      46.512
2014   10        2    17  55    6.52   422.8    6.8      46.499
2014   10        2    18   1    6.52   422.8    6.8      46.485
2014   10        2    18   6    6.51   422.9    6.8      46.471
2014   10        2    18  11    6.50   422.9    6.8      46.457
2014   10        2    18  16    6.50   423.0    6.8      46.443
2014   10        2    18  22    6.49   423.0    6.8      46.428
2014   10        2    18  27    6.49   423.1    6.8      46.413
2014   10        2    18  32    6.48   423.1    6.7      46.398
2014   10        2    18  38    6.48   423.2    6.7      46.383
2014   10        2    18  43    6.47   423.2    6.7      46.367
2014   10        2    18  48    6.47   423.3    6.7      46.350
2014   10        2    18  53    6.46   423.3    6.7      46.334
2014   10        2    18  59    6.45   423.3    6.7      46.318
2014   10        2    19   4    6.45   423.4    6.7      46.301
2014   10        2    19   9    6.44   423.4    6.7      46.283
2014   10        2    19  15    6.44   423.5    6.7      46.266
2014   10        2    19  20    6.43   423.5    6.7      46.249
2014   10        2    19  25    6.43   423.5    6.7      46.231
2014   10        2    19  30    6.42   423.6    6.7      46.213
2014   10        2    19  36    6.41   423.6    6.6      46.195
2014   10        2    19  41    6.41   423.6    6.6      46.177
2014   10        2    19  46    6.40   423.7    6.6      46.158
2014   10        2    19  52    6.40   423.7    6.6      46.140
2014   10        2    19  57    6.39   423.7    6.6      46.121
2014   10        2    20   2    6.39   423.7    6.6      46.102
2014   10        2    20   7    6.38   423.8    6.6      46.083
2014   10        2    20  13    6.37   423.8    6.6      46.064
2014   10        2    20  18    6.37   423.8    6.6      46.045
2014   10        2    20  23    6.36   423.8    6.6      46.026
2014   10        2    20  29    6.36   423.8    6.6      46.006
2014   10        2    20  34    6.35   423.9    6.6      45.986
2014   10        2    20  39    6.35   423.9    6.6      45.967
2014   10        2    20  45    6.34   423.9    6.5      45.947
2014   10        2    20  50    6.33   423.9    6.5      45.928
2014   10        2    20  55    6.33   423.9    6.5      45.908
2014   10        2    21   0    6.32   423.9    6.5      45.888
2014   10        2    21   6    6.32   424.0    6.5      45.868
2014   10        2    21  11    6.31   424.0    6.5      45.848
2014   10        2    21  16    6.30   424.0    6.5      45.828
2014   10        2    21  22    6.30   424.0    6.5      45.808
2014   10        2    21  27    6.29   424.0    6.5      45.787
2014   10        2    21  32    6.29   424.0    6.5      45.767
2014   10        2    21  37    6.28   424.0    6.5      45.747
2014   10        2    21  43    6.28   424.0    6.5      45.726
2014   10        2    21  48    6.27   424.0    6.5      45.705
2014   10        2    21  53    6.26   424.1    6.5      45.684
2014   10        2    21  59    6.26   424.1    6.5      45.663
2014   10        2    22   4    6.25   424.1    6.4      45.642
2014   10        2    22   9    6.25   424.1    6.4      45.621
2014   10        2    22  14    6.24   424.1    6.4      45.599
2014   10        2    22  20    6.24   424.1    6.4      45.578
2014   10        2    22  25    6.23   424.1    6.4      45.556
2014   10        2    22  30    6.22   424.1    6.4      45.534
2014   10        2    22  36    6.22   424.1    6.4      45.511
2014   10        2    22  41    6.21   424.1    6.4      45.489
2014   10        2    22  46    6.21   424.1    6.4      45.466
2014   10        2    22  51    6.20   424.1    6.4      45.443
2014   10        2    22  57    6.19   424.1    6.4      45.419
2014   10        2    23   2    6.19   424.1    6.4      45.395
2014   10        2    23   7    6.18   424.1    6.4      45.371
2014   10        2    23  13    6.18   424.1    6.4      45.346
2014   10        2    23  18    6.17   424.1    6.4      45.322
2014   10        2    23  23    6.17   424.0    6.4      45.296
2014   10        2    23  28    6.16   424.0    6.3      45.271
2014   10        2    23  34    6.15   424.0    6.3      45.245
2014   10        2    23  39    6.15   424.0    6.3      45.219
2014   10        2    23  44    6.14   424.0    6.3      45.193
2014   10        2    23  50    6.14   424.0    6.3      45.166
2014   10        2    23  55    6.13   424.0    6.3      45.139
2014   10        3     0   0    6.12   424.0    6.3      45.111
