year    month   day   hour  minute  B_enl V_enl   n_enl       T_enl
[year] [month] [day] [hour][minute] [nT]  [km/s]  [cm-3]      [kK]
2014    9       10     0   1    8.00   408.7    9.6      46.113
2014    9       10     0   6    8.00   408.8    9.6      46.119
2014    9       10     0  11    8.00   408.9    9.6      46.125
2014    9       10     0  16    8.00   409.0    9.6      46.130
2014    9       10     0  20    8.00   409.1    9.6      46.135
2014    9       10     0  25    8.01   409.2    9.6      46.140
2014    9       10     0  30    8.01   409.3    9.6      46.145
2014    9       10     0  35    8.01   409.4    9.6      46.149
2014    9       10     0  39    8.01   409.5    9.6      46.154
2014    9       10     0  44    8.01   409.6    9.6      46.158
2014    9       10     0  49    8.01   409.7    9.6      46.163
2014    9       10     0  54    8.02   409.8    9.6      46.167
2014    9       10     0  58    8.02   409.9    9.6      46.172
2014    9       10     1   3    8.02   410.1    9.6      46.177
2014    9       10     1   8    8.02   410.2    9.6      46.182
2014    9       10     1  13    8.02   410.3    9.6      46.187
2014    9       10     1  17    8.03   410.4    9.6      46.192
2014    9       10     1  22    8.03   410.5    9.6      46.198
2014    9       10     1  27    8.03   410.6    9.5      46.203
2014    9       10     1  32    8.03   410.7    9.5      46.209
2014    9       10     1  36    8.03   410.8    9.5      46.215
2014    9       10     1  41    8.03   410.9    9.5      46.222
2014    9       10     1  46    8.04   411.0    9.5      46.228
2014    9       10     1  51    8.04   411.1    9.5      46.235
2014    9       10     1  55    8.04   411.3    9.5      46.242
2014    9       10     2   0    8.04   411.4    9.5      46.250
2014    9       10     2   5    8.04   411.5    9.5      46.257
2014    9       10     2  10    8.05   411.6    9.5      46.265
2014    9       10     2  14    8.05   411.7    9.5      46.273
2014    9       10     2  19    8.05   411.8    9.5      46.281
2014    9       10     2  24    8.05   411.9    9.5      46.290
2014    9       10     2  29    8.05   412.0    9.5      46.298
2014    9       10     2  33    8.06   412.2    9.5      46.307
2014    9       10     2  38    8.06   412.3    9.5      46.317
2014    9       10     2  43    8.06   412.4    9.5      46.326
2014    9       10     2  48    8.06   412.5    9.5      46.336
2014    9       10     2  52    8.06   412.6    9.5      46.346
2014    9       10     2  57    8.06   412.7    9.5      46.357
2014    9       10     3   2    8.07   412.8    9.5      46.368
2014    9       10     3   7    8.07   412.9    9.5      46.380
2014    9       10     3  11    8.07   413.1    9.5      46.393
2014    9       10     3  16    8.07   413.2    9.5      46.406
2014    9       10     3  21    8.08   413.3    9.5      46.419
2014    9       10     3  26    8.08   413.4    9.5      46.434
2014    9       10     3  30    8.08   413.5    9.5      46.450
2014    9       10     3  35    8.08   413.6    9.5      46.467
2014    9       10     3  40    8.08   413.7    9.5      46.485
2014    9       10     3  45    8.09   413.8    9.5      46.505
2014    9       10     3  49    8.09   414.0    9.5      46.525
2014    9       10     3  54    8.09   414.1    9.5      46.546
2014    9       10     3  59    8.10   414.2    9.5      46.569
2014    9       10     4   4    8.10   414.3    9.5      46.595
2014    9       10     4   8    8.10   414.4    9.5      46.624
2014    9       10     4  13    8.10   414.5    9.6      46.656
2014    9       10     4  18    8.11   414.7    9.6      46.691
2014    9       10     4  23    8.11   414.8    9.6      46.728
2014    9       10     4  27    8.11   414.9    9.6      46.769
2014    9       10     4  32    8.12   415.0    9.6      46.814
2014    9       10     4  37    8.12   415.2    9.6      46.861
2014    9       10     4  42    8.13   415.3    9.6      46.910
2014    9       10     4  46    8.13   415.4    9.6      46.959
2014    9       10     4  51    8.13   415.6    9.6      47.011
2014    9       10     4  56    8.14   415.7    9.6      47.067
2014    9       10     5   1    8.14   415.9    9.7      47.127
2014    9       10     5   5    8.14   416.0    9.7      47.188
2014    9       10     5  10    8.15   416.2    9.7      47.252
2014    9       10     5  15    8.15   416.4    9.7      47.319
2014    9       10     5  19    8.15   416.5    9.7      47.387
2014    9       10     5  24    8.16   416.7    9.7      47.457
2014    9       10     5  29    8.16   416.9    9.7      47.528
2014    9       10     5  34    8.16   417.1    9.7      47.598
2014    9       10     5  38    8.16   417.3    9.7      47.666
2014    9       10     5  43    8.17   417.5    9.8      47.732
2014    9       10     5  48    8.17   417.7    9.8      47.796
2014    9       10     5  53    8.17   417.8    9.8      47.857
2014    9       10     5  57    8.17   418.0    9.8      47.916
2014    9       10     6   2    8.17   418.2    9.8      47.972
2014    9       10     6   7    8.18   418.4    9.8      48.026
2014    9       10     6  12    8.18   418.6    9.8      48.078
2014    9       10     6  16    8.18   418.8    9.8      48.128
2014    9       10     6  21    8.18   419.0    9.8      48.174
2014    9       10     6  26    8.18   419.2    9.8      48.217
2014    9       10     6  31    8.18   419.3    9.8      48.258
2014    9       10     6  35    8.18   419.5    9.8      48.296
2014    9       10     6  40    8.18   419.7    9.8      48.332
2014    9       10     6  45    8.18   419.9    9.8      48.365
2014    9       10     6  50    8.18   420.1    9.8      48.396
2014    9       10     6  54    8.18   420.3    9.8      48.424
2014    9       10     6  59    8.18   420.5    9.8      48.450
2014    9       10     7   4    8.18   420.6    9.8      48.474
2014    9       10     7   9    8.18   420.8    9.8      48.495
2014    9       10     7  13    8.18   421.0    9.7      48.515
2014    9       10     7  18    8.18   421.2    9.7      48.532
2014    9       10     7  23    8.18   421.4    9.7      48.548
2014    9       10     7  28    8.18   421.6    9.7      48.561
2014    9       10     7  32    8.18   421.7    9.7      48.573
2014    9       10     7  37    8.18   421.9    9.7      48.583
2014    9       10     7  42    8.18   422.1    9.7      48.592
2014    9       10     7  47    8.18   422.3    9.7      48.599
2014    9       10     7  51    8.18   422.4    9.7      48.604
2014    9       10     7  56    8.18   422.6    9.7      48.608
2014    9       10     8   1    8.18   422.8    9.7      48.611
2014    9       10     8   6    8.18   423.0    9.7      48.613
2014    9       10     8  10    8.18   423.1    9.6      48.613
2014    9       10     8  15    8.18   423.3    9.6      48.613
2014    9       10     8  20    8.18   423.5    9.6      48.611
2014    9       10     8  25    8.18   423.6    9.6      48.609
2014    9       10     8  29    8.18   423.8    9.6      48.606
2014    9       10     8  34    8.18   424.0    9.6      48.602
2014    9       10     8  39    8.17   424.1    9.6      48.597
2014    9       10     8  44    8.17   424.3    9.6      48.593
2014    9       10     8  48    8.17   424.4    9.6      48.587
2014    9       10     8  53    8.17   424.6    9.5      48.582
2014    9       10     8  58    8.17   424.8    9.5      48.576
2014    9       10     9   3    8.17   424.9    9.5      48.570
2014    9       10     9   7    8.17   425.1    9.5      48.564
2014    9       10     9  12    8.17   425.2    9.5      48.558
2014    9       10     9  17    8.17   425.4    9.5      48.552
2014    9       10     9  22    8.17   425.6    9.5      48.546
2014    9       10     9  26    8.17   425.7    9.5      48.539
2014    9       10     9  31    8.17   425.9    9.5      48.533
2014    9       10     9  36    8.17   426.0    9.4      48.526
2014    9       10     9  41    8.17   426.2    9.4      48.520
2014    9       10     9  45    8.17   426.4    9.4      48.513
2014    9       10     9  50    8.17   426.5    9.4      48.507
2014    9       10     9  55    8.17   426.7    9.4      48.501
2014    9       10    10   0    8.16   426.8    9.4      48.496
2014    9       10    10   4    8.16   427.0    9.4      48.491
2014    9       10    10   9    8.16   427.2    9.4      48.487
2014    9       10    10  14    8.16   427.3    9.4      48.483
2014    9       10    10  19    8.16   427.5    9.4      48.480
2014    9       10    10  23    8.16   427.7    9.3      48.478
2014    9       10    10  28    8.16   427.8    9.3      48.477
2014    9       10    10  33    8.16   428.0    9.3      48.478
2014    9       10    10  38    8.16   428.2    9.3      48.479
2014    9       10    10  42    8.16   428.4    9.3      48.481
2014    9       10    10  47    8.16   428.5    9.3      48.483
2014    9       10    10  52    8.16   428.7    9.3      48.487
2014    9       10    10  57    8.16   428.9    9.3      48.490
2014    9       10    11   1    8.16   429.1    9.3      48.494
2014    9       10    11   6    8.16   429.3    9.3      48.498
2014    9       10    11  11    8.16   429.4    9.3      48.503
2014    9       10    11  15    8.16   429.6    9.3      48.508
2014    9       10    11  20    8.16   429.8    9.3      48.514
2014    9       10    11  25    8.16   430.0    9.2      48.521
2014    9       10    11  30    8.16   430.1    9.2      48.528
2014    9       10    11  34    8.16   430.3    9.2      48.535
2014    9       10    11  39    8.16   430.5    9.2      48.544
2014    9       10    11  44    8.16   430.6    9.2      48.553
2014    9       10    11  49    8.16   430.8    9.2      48.563
2014    9       10    11  53    8.16   431.0    9.2      48.575
2014    9       10    11  58    8.16   431.1    9.2      48.588
2014    9       10    12   3    8.17   431.3    9.2      48.601
2014    9       10    12   8    8.17   431.4    9.2      48.614
2014    9       10    12  12    8.17   431.6    9.2      48.629
2014    9       10    12  17    8.17   431.8    9.2      48.649
2014    9       10    12  22    8.17   431.9    9.2      48.672
2014    9       10    12  27    8.17   432.1    9.2      48.699
2014    9       10    12  31    8.17   432.3    9.2      48.728
2014    9       10    12  36    8.17   432.5    9.2      48.760
2014    9       10    12  41    8.16   432.6    9.2      48.795
2014    9       10    12  46    8.16   432.8    9.2      48.833
2014    9       10    12  50    8.16   433.0    9.2      48.873
2014    9       10    12  55    8.16   433.2    9.2      48.915
2014    9       10    13   0    8.16   433.4    9.2      48.955
2014    9       10    13   5    8.16   433.6    9.2      48.994
2014    9       10    13   9    8.16   433.8    9.2      49.032
2014    9       10    13  14    8.16   434.0    9.2      49.068
2014    9       10    13  19    8.15   434.2    9.2      49.103
2014    9       10    13  24    8.15   434.4    9.2      49.137
2014    9       10    13  28    8.15   434.6    9.2      49.169
2014    9       10    13  33    8.15   434.8    9.2      49.200
2014    9       10    13  38    8.15   435.0    9.2      49.229
2014    9       10    13  43    8.14   435.2    9.2      49.255
2014    9       10    13  47    8.14   435.4    9.2      49.280
2014    9       10    13  52    8.14   435.6    9.2      49.303
2014    9       10    13  57    8.13   435.8    9.2      49.323
2014    9       10    14   2    8.13   436.0    9.2      49.341
2014    9       10    14   6    8.13   436.2    9.2      49.358
2014    9       10    14  11    8.13   436.4    9.2      49.373
2014    9       10    14  16    8.12   436.6    9.1      49.385
2014    9       10    14  21    8.12   436.8    9.1      49.396
2014    9       10    14  25    8.12   437.0    9.1      49.405
2014    9       10    14  30    8.11   437.2    9.1      49.413
2014    9       10    14  35    8.11   437.4    9.1      49.418
2014    9       10    14  40    8.11   437.6    9.1      49.422
2014    9       10    14  44    8.10   437.8    9.1      49.424
2014    9       10    14  49    8.10   438.0    9.1      49.425
2014    9       10    14  54    8.10   438.1    9.1      49.424
2014    9       10    14  59    8.09   438.3    9.0      49.422
2014    9       10    15   3    8.09   438.5    9.0      49.419
2014    9       10    15   8    8.09   438.7    9.0      49.414
2014    9       10    15  13    8.08   438.9    9.0      49.408
2014    9       10    15  18    8.08   439.1    9.0      49.400
2014    9       10    15  22    8.08   439.3    9.0      49.392
2014    9       10    15  27    8.07   439.5    9.0      49.383
2014    9       10    15  32    8.07   439.6    9.0      49.372
2014    9       10    15  37    8.06   439.8    8.9      49.361
2014    9       10    15  41    8.06   440.0    8.9      49.349
2014    9       10    15  46    8.06   440.2    8.9      49.336
2014    9       10    15  51    8.05   440.3    8.9      49.323
2014    9       10    15  55    8.05   440.5    8.9      49.309
2014    9       10    16   0    8.05   440.7    8.9      49.294
2014    9       10    16   5    8.04   440.9    8.9      49.279
2014    9       10    16  10    8.04   441.0    8.8      49.264
2014    9       10    16  14    8.04   441.2    8.8      49.248
2014    9       10    16  19    8.03   441.4    8.8      49.233
2014    9       10    16  24    8.03   441.6    8.8      49.217
2014    9       10    16  29    8.02   441.7    8.8      49.201
2014    9       10    16  33    8.02   441.9    8.8      49.185
2014    9       10    16  38    8.02   442.1    8.8      49.169
2014    9       10    16  43    8.01   442.3    8.7      49.152
2014    9       10    16  48    8.01   442.4    8.7      49.136
2014    9       10    16  52    8.01   442.6    8.7      49.119
2014    9       10    16  57    8.00   442.8    8.7      49.102
2014    9       10    17   2    8.00   443.0    8.7      49.085
2014    9       10    17   7    8.00   443.1    8.7      49.068
2014    9       10    17  11    7.99   443.3    8.7      49.051
2014    9       10    17  16    7.99   443.5    8.6      49.034
2014    9       10    17  21    7.99   443.7    8.6      49.017
2014    9       10    17  26    7.98   443.8    8.6      49.001
2014    9       10    17  30    7.98   444.0    8.6      48.985
2014    9       10    17  35    7.97   444.2    8.6      48.969
2014    9       10    17  40    7.97   444.4    8.6      48.953
2014    9       10    17  45    7.97   444.6    8.6      48.938
2014    9       10    17  49    7.96   444.8    8.5      48.924
2014    9       10    17  54    7.96   445.0    8.5      48.909
2014    9       10    17  59    7.96   445.2    8.5      48.895
2014    9       10    18   4    7.95   445.4    8.5      48.881
2014    9       10    18   8    7.95   445.6    8.5      48.865
2014    9       10    18  13    7.94   445.9    8.5      48.849
2014    9       10    18  18    7.94   446.1    8.5      48.830
2014    9       10    18  23    7.93   446.3    8.4      48.809
2014    9       10    18  27    7.93   446.5    8.4      48.785
2014    9       10    18  32    7.92   446.7    8.4      48.760
2014    9       10    18  37    7.92   446.9    8.4      48.734
2014    9       10    18  42    7.91   447.1    8.4      48.704
2014    9       10    18  46    7.91   447.3    8.4      48.671
2014    9       10    18  51    7.90   447.5    8.3      48.635
2014    9       10    18  56    7.90   447.6    8.3      48.597
2014    9       10    19   1    7.89   447.8    8.3      48.556
2014    9       10    19   5    7.89   448.0    8.3      48.513
2014    9       10    19  10    7.88   448.2    8.3      48.468
2014    9       10    19  15    7.87   448.3    8.2      48.421
2014    9       10    19  20    7.87   448.5    8.2      48.372
2014    9       10    19  24    7.86   448.6    8.2      48.322
2014    9       10    19  29    7.85   448.8    8.2      48.272
2014    9       10    19  34    7.85   448.9    8.2      48.221
2014    9       10    19  39    7.84   449.1    8.2      48.170
2014    9       10    19  43    7.83   449.2    8.1      48.120
2014    9       10    19  48    7.83   449.4    8.1      48.069
2014    9       10    19  53    7.82   449.5    8.1      48.019
2014    9       10    19  58    7.81   449.6    8.1      47.968
2014    9       10    20   2    7.81   449.8    8.1      47.917
2014    9       10    20   7    7.80   449.9    8.1      47.867
2014    9       10    20  12    7.79   450.0    8.0      47.817
2014    9       10    20  17    7.79   450.2    8.0      47.767
2014    9       10    20  21    7.78   450.3    8.0      47.719
2014    9       10    20  26    7.77   450.4    8.0      47.672
2014    9       10    20  30    7.77   450.5    8.0      47.627
2014    9       10    20  35    7.76   450.6    8.0      47.583
2014    9       10    20  39    7.75   450.8    8.0      47.540
2014    9       10    20  43    7.75   450.9    7.9      47.499
2014    9       10    20  48    7.74   451.0    7.9      47.458
2014    9       10    20  52    7.74   451.1    7.9      47.417
2014    9       10    20  56    7.73   451.2    7.9      47.377
2014    9       10    21   0    7.72   451.3    7.9      47.337
2014    9       10    21   5    7.72   451.4    7.9      47.297
2014    9       10    21   9    7.71   451.5    7.9      47.258
2014    9       10    21  13    7.71   451.6    7.8      47.220
2014    9       10    21  17    7.70   451.7    7.8      47.182
2014    9       10    21  21    7.69   451.8    7.8      47.144
2014    9       10    21  25    7.69   451.8    7.8      47.107
2014    9       10    21  29    7.68   451.9    7.8      47.070
2014    9       10    21  33    7.68   452.0    7.8      47.034
2014    9       10    21  37    7.67   452.1    7.8      46.998
2014    9       10    21  42    7.67   452.2    7.8      46.961
2014    9       10    21  46    7.66   452.3    7.7      46.926
2014    9       10    21  50    7.65   452.4    7.7      46.890
2014    9       10    21  54    7.65   452.4    7.7      46.855
2014    9       10    21  58    7.64   452.5    7.7      46.819
2014    9       10    22   2    7.64   452.6    7.7      46.784
2014    9       10    22   6    7.63   452.7    7.7      46.749
2014    9       10    22  10    7.63   452.8    7.7      46.714
2014    9       10    22  14    7.62   452.8    7.7      46.680
2014    9       10    22  18    7.61   452.9    7.7      46.645
2014    9       10    22  22    7.61   453.0    7.6      46.611
2014    9       10    22  26    7.60   453.1    7.6      46.578
2014    9       10    22  30    7.60   453.1    7.6      46.544
2014    9       10    22  34    7.59   453.2    7.6      46.511
2014    9       10    22  38    7.59   453.3    7.6      46.478
2014    9       10    22  42    7.58   453.4    7.6      46.445
2014    9       10    22  46    7.57   453.4    7.6      46.412
2014    9       10    22  51    7.57   453.5    7.6      46.380
2014    9       10    22  55    7.56   453.6    7.6      46.348
2014    9       10    22  59    7.56   453.6    7.5      46.316
2014    9       10    23   3    7.55   453.7    7.5      46.284
2014    9       10    23   7    7.55   453.8    7.5      46.252
2014    9       10    23  11    7.54   453.8    7.5      46.221
2014    9       10    23  15    7.54   453.9    7.5      46.190
2014    9       10    23  19    7.53   454.0    7.5      46.158
2014    9       10    23  23    7.53   454.0    7.5      46.127
2014    9       10    23  27    7.52   454.1    7.5      46.097
2014    9       10    23  31    7.51   454.2    7.5      46.066
2014    9       10    23  35    7.51   454.2    7.4      46.035
2014    9       10    23  39    7.50   454.3    7.4      46.005
2014    9       10    23  43    7.50   454.4    7.4      45.974
2014    9       10    23  47    7.49   454.4    7.4      45.944
2014    9       10    23  52    7.49   454.5    7.4      45.914
2014    9       10    23  56    7.48   454.6    7.4      45.883
2014    9       11     0   0    7.48   454.6    7.4      45.853
2014    9       11     0   4    7.47   454.7    7.4      45.823
2014    9       11     0   8    7.47   454.8    7.4      45.793
2014    9       11     0  12    7.46   454.8    7.3      45.762
2014    9       11     0  16    7.45   454.9    7.3      45.732
2014    9       11     0  20    7.45   455.0    7.3      45.701
2014    9       11     0  24    7.44   455.0    7.3      45.670
2014    9       11     0  28    7.44   455.1    7.3      45.639
2014    9       11     0  32    7.43   455.2    7.3      45.607
2014    9       11     0  36    7.43   455.2    7.3      45.575
2014    9       11     0  41    7.42   455.3    7.3      45.543
2014    9       11     0  45    7.42   455.4    7.3      45.510
2014    9       11     0  49    7.41   455.5    7.3      45.476
2014    9       11     0  53    7.40   455.5    7.2      45.442
2014    9       11     0  57    7.40   455.6    7.2      45.407
2014    9       11     1   1    7.39   455.7    7.2      45.371
2014    9       11     1   5    7.39   455.7    7.2      45.334
2014    9       11     1   9    7.38   455.8    7.2      45.296
2014    9       11     1  14    7.38   455.9    7.2      45.258
2014    9       11     1  18    7.37   455.9    7.2      45.219
2014    9       11     1  22    7.36   456.0    7.2      45.178
2014    9       11     1  26    7.36   456.1    7.2      45.136
2014    9       11     1  30    7.35   456.1    7.1      45.092
2014    9       11     1  34    7.35   456.2    7.1      45.047
2014    9       11     1  39    7.34   456.2    7.1      45.000
2014    9       11     1  43    7.33   456.3    7.1      44.952
2014    9       11     1  47    7.33   456.4    7.1      44.902
2014    9       11     1  51    7.32   456.4    7.1      44.852
2014    9       11     1  55    7.31   456.5    7.1      44.799
2014    9       11     1  59    7.31   456.5    7.1      44.743
2014    9       11     2   4    7.30   456.6    7.1      44.684
2014    9       11     2   8    7.29   456.6    7.0      44.624
2014    9       11     2  12    7.29   456.6    7.0      44.560
2014    9       11     2  17    7.28   456.7    7.0      44.494
2014    9       11     2  21    7.27   456.7    7.0      44.427
2014    9       11     2  25    7.26   456.7    7.0      44.359
2014    9       11     2  30    7.26   456.7    7.0      44.289
2014    9       11     2  34    7.25   456.7    7.0      44.218
2014    9       11     2  38    7.24   456.8    7.0      44.146
2014    9       11     2  43    7.24   456.8    6.9      44.075
2014    9       11     2  47    7.23   456.8    6.9      44.005
2014    9       11     2  51    7.22   456.8    6.9      43.935
2014    9       11     2  56    7.22   456.8    6.9      43.866
2014    9       11     3   0    7.21   456.8    6.9      43.797
2014    9       11     3   4    7.20   456.8    6.9      43.728
2014    9       11     3   9    7.20   456.8    6.9      43.661
2014    9       11     3  13    7.19   456.8    6.9      43.596
2014    9       11     3  18    7.18   456.8    6.9      43.531
2014    9       11     3  22    7.18   456.8    6.9      43.468
2014    9       11     3  26    7.17   456.8    6.8      43.406
2014    9       11     3  31    7.16   456.8    6.8      43.346
2014    9       11     3  35    7.16   456.8    6.8      43.287
2014    9       11     3  40    7.15   456.8    6.8      43.229
2014    9       11     3  44    7.15   456.8    6.8      43.173
2014    9       11     3  48    7.14   456.8    6.8      43.118
2014    9       11     3  53    7.13   456.8    6.8      43.063
2014    9       11     3  57    7.13   456.8    6.8      43.009
2014    9       11     4   2    7.12   456.8    6.8      42.954
2014    9       11     4   6    7.12   456.8    6.8      42.900
2014    9       11     4  10    7.11   456.8    6.8      42.846
2014    9       11     4  15    7.10   456.8    6.8      42.791
2014    9       11     4  19    7.10   456.8    6.7      42.737
2014    9       11     4  24    7.09   456.8    6.7      42.683
2014    9       11     4  28    7.08   456.8    6.7      42.630
2014    9       11     4  33    7.08   456.8    6.7      42.576
2014    9       11     4  37    7.07   456.8    6.7      42.523
2014    9       11     4  42    7.07   456.8    6.7      42.470
2014    9       11     4  46    7.06   456.7    6.7      42.417
2014    9       11     4  51    7.05   456.7    6.7      42.364
2014    9       11     4  55    7.05   456.7    6.7      42.311
2014    9       11     5   0    7.04   456.7    6.7      42.258
2014    9       11     5   4    7.04   456.7    6.7      42.205
2014    9       11     5   9    7.03   456.7    6.7      42.153
2014    9       11     5  13    7.02   456.7    6.7      42.100
2014    9       11     5  18    7.02   456.6    6.6      42.048
2014    9       11     5  22    7.01   456.6    6.6      41.996
2014    9       11     5  27    7.01   456.6    6.6      41.944
2014    9       11     5  31    7.00   456.6    6.6      41.892
2014    9       11     5  36    6.99   456.5    6.6      41.841
2014    9       11     5  41    6.99   456.5    6.6      41.790
2014    9       11     5  45    6.98   456.5    6.6      41.739
2014    9       11     5  50    6.97   456.5    6.6      41.689
2014    9       11     5  54    6.97   456.4    6.6      41.639
2014    9       11     5  59    6.96   456.4    6.6      41.589
2014    9       11     6   3    6.96   456.4    6.6      41.539
2014    9       11     6   8    6.95   456.3    6.6      41.489
2014    9       11     6  13    6.94   456.3    6.5      41.440
2014    9       11     6  17    6.94   456.3    6.5      41.391
2014    9       11     6  22    6.93   456.3    6.5      41.342
2014    9       11     6  26    6.93   456.2    6.5      41.294
2014    9       11     6  31    6.92   456.2    6.5      41.245
2014    9       11     6  36    6.91   456.2    6.5      41.197
2014    9       11     6  40    6.91   456.1    6.5      41.149
2014    9       11     6  45    6.90   456.1    6.5      41.101
2014    9       11     6  50    6.90   456.0    6.5      41.053
2014    9       11     6  54    6.89   456.0    6.5      41.005
2014    9       11     6  59    6.88   456.0    6.5      40.958
2014    9       11     7   4    6.88   455.9    6.5      40.910
2014    9       11     7   9    6.87   455.9    6.5      40.863
2014    9       11     7  13    6.87   455.9    6.5      40.815
2014    9       11     7  18    6.86   455.8    6.4      40.768
2014    9       11     7  23    6.85   455.8    6.4      40.720
2014    9       11     7  28    6.85   455.7    6.4      40.673
2014    9       11     7  32    6.84   455.7    6.4      40.626
2014    9       11     7  37    6.84   455.6    6.4      40.578
2014    9       11     7  42    6.83   455.6    6.4      40.531
2014    9       11     7  47    6.82   455.6    6.4      40.484
2014    9       11     7  51    6.82   455.5    6.4      40.437
2014    9       11     7  56    6.81   455.5    6.4      40.389
2014    9       11     8   1    6.81   455.4    6.4      40.342
2014    9       11     8   6    6.80   455.4    6.4      40.294
2014    9       11     8  10    6.79   455.3    6.4      40.247
2014    9       11     8  15    6.79   455.2    6.4      40.199
2014    9       11     8  20    6.78   455.2    6.4      40.151
2014    9       11     8  25    6.78   455.1    6.3      40.102
2014    9       11     8  29    6.77   455.1    6.3      40.054
2014    9       11     8  34    6.77   455.0    6.3      40.006
2014    9       11     8  39    6.76   455.0    6.3      39.958
2014    9       11     8  43    6.75   454.9    6.3      39.910
2014    9       11     8  48    6.75   454.8    6.3      39.862
2014    9       11     8  53    6.74   454.8    6.3      39.814
2014    9       11     8  58    6.74   454.7    6.3      39.766
2014    9       11     9   2    6.73   454.6    6.3      39.718
2014    9       11     9   7    6.73   454.6    6.3      39.670
2014    9       11     9  12    6.72   454.5    6.3      39.623
2014    9       11     9  17    6.71   454.4    6.3      39.575
2014    9       11     9  21    6.71   454.3    6.3      39.527
2014    9       11     9  26    6.70   454.3    6.3      39.479
2014    9       11     9  31    6.70   454.2    6.3      39.432
2014    9       11     9  36    6.69   454.1    6.3      39.384
2014    9       11     9  40    6.69   454.0    6.3      39.337
2014    9       11     9  45    6.68   453.9    6.3      39.290
2014    9       11     9  50    6.68   453.9    6.3      39.243
2014    9       11     9  55    6.67   453.8    6.3      39.197
2014    9       11     9  59    6.67   453.7    6.3      39.151
2014    9       11    10   4    6.66   453.6    6.2      39.106
2014    9       11    10   9    6.66   453.5    6.2      39.060
2014    9       11    10  14    6.65   453.4    6.2      39.015
2014    9       11    10  18    6.65   453.4    6.2      38.970
2014    9       11    10  23    6.64   453.3    6.2      38.926
2014    9       11    10  28    6.64   453.2    6.2      38.883
2014    9       11    10  33    6.63   453.1    6.2      38.842
2014    9       11    10  37    6.63   453.1    6.2      38.803
2014    9       11    10  42    6.63   453.0    6.2      38.765
2014    9       11    10  47    6.62   452.9    6.2      38.727
2014    9       11    10  52    6.62   452.8    6.2      38.692
2014    9       11    10  56    6.61   452.8    6.2      38.657
2014    9       11    11   1    6.61   452.7    6.2      38.623
2014    9       11    11   6    6.60   452.6    6.2      38.591
2014    9       11    11  11    6.60   452.6    6.2      38.558
2014    9       11    11  15    6.60   452.5    6.2      38.526
2014    9       11    11  20    6.59   452.4    6.2      38.493
2014    9       11    11  25    6.59   452.4    6.2      38.460
2014    9       11    11  30    6.58   452.3    6.2      38.426
2014    9       11    11  34    6.58   452.2    6.2      38.393
2014    9       11    11  39    6.57   452.1    6.2      38.359
2014    9       11    11  44    6.57   452.1    6.2      38.326
2014    9       11    11  49    6.56   452.0    6.2      38.293
2014    9       11    11  53    6.56   451.9    6.2      38.260
2014    9       11    11  58    6.56   451.8    6.2      38.226
2014    9       11    12   3    6.55   451.8    6.2      38.193
2014    9       11    12   8    6.55   451.7    6.2      38.160
2014    9       11    12  12    6.54   451.6    6.2      38.126
2014    9       11    12  17    6.54   451.5    6.2      38.093
2014    9       11    12  22    6.53   451.5    6.2      38.060
2014    9       11    12  27    6.53   451.4    6.2      38.027
2014    9       11    12  31    6.53   451.3    6.2      37.994
2014    9       11    12  36    6.52   451.2    6.2      37.961
2014    9       11    12  41    6.52   451.2    6.2      37.929
2014    9       11    12  46    6.51   451.1    6.2      37.897
2014    9       11    12  50    6.51   451.0    6.2      37.865
2014    9       11    12  55    6.51   450.9    6.2      37.834
2014    9       11    13   0    6.50   450.8    6.2      37.803
2014    9       11    13   5    6.50   450.8    6.2      37.771
2014    9       11    13   9    6.49   450.7    6.2      37.741
2014    9       11    13  14    6.49   450.6    6.2      37.712
2014    9       11    13  19    6.49   450.5    6.2      37.683
2014    9       11    13  24    6.48   450.4    6.2      37.654
2014    9       11    13  28    6.48   450.4    6.2      37.626
2014    9       11    13  33    6.47   450.3    6.2      37.598
2014    9       11    13  38    6.47   450.2    6.2      37.571
2014    9       11    13  43    6.47   450.1    6.2      37.544
2014    9       11    13  47    6.46   450.1    6.2      37.517
2014    9       11    13  52    6.46   450.0    6.2      37.490
2014    9       11    13  57    6.45   449.9    6.2      37.463
2014    9       11    14   2    6.45   449.8    6.2      37.436
2014    9       11    14   6    6.45   449.8    6.2      37.408
2014    9       11    14  11    6.44   449.7    6.2      37.380
2014    9       11    14  16    6.44   449.6    6.2      37.352
2014    9       11    14  21    6.44   449.5    6.1      37.323
2014    9       11    14  25    6.43   449.5    6.1      37.294
2014    9       11    14  30    6.43   449.4    6.1      37.265
2014    9       11    14  35    6.42   449.3    6.1      37.236
2014    9       11    14  40    6.42   449.2    6.1      37.206
2014    9       11    14  44    6.42   449.2    6.1      37.176
2014    9       11    14  49    6.41   449.1    6.1      37.146
2014    9       11    14  54    6.41   449.0    6.1      37.115
2014    9       11    14  59    6.40   448.9    6.1      37.085
2014    9       11    15   3    6.40   448.8    6.1      37.054
2014    9       11    15   8    6.40   448.8    6.1      37.022
2014    9       11    15  13    6.39   448.7    6.1      36.991
2014    9       11    15  17    6.39   448.6    6.1      36.959
2014    9       11    15  22    6.38   448.5    6.1      36.927
2014    9       11    15  27    6.38   448.4    6.1      36.895
2014    9       11    15  32    6.38   448.4    6.1      36.862
2014    9       11    15  36    6.37   448.3    6.1      36.830
2014    9       11    15  41    6.37   448.2    6.1      36.797
2014    9       11    15  46    6.36   448.1    6.1      36.764
2014    9       11    15  51    6.36   448.0    6.1      36.731
2014    9       11    15  55    6.36   448.0    6.1      36.698
2014    9       11    16   0    6.35   447.9    6.1      36.665
2014    9       11    16   5    6.35   447.8    6.1      36.632
2014    9       11    16  10    6.35   447.7    6.1      36.599
2014    9       11    16  14    6.34   447.6    6.1      36.565
2014    9       11    16  19    6.34   447.5    6.1      36.532
2014    9       11    16  24    6.33   447.4    6.1      36.498
2014    9       11    16  29    6.33   447.4    6.1      36.465
2014    9       11    16  33    6.33   447.3    6.1      36.431
2014    9       11    16  38    6.32   447.2    6.1      36.397
2014    9       11    16  43    6.32   447.1    6.1      36.363
2014    9       11    16  48    6.32   447.0    6.1      36.330
2014    9       11    16  52    6.31   446.9    6.1      36.296
2014    9       11    16  57    6.31   446.8    6.1      36.262
2014    9       11    17   2    6.31   446.7    6.0      36.228
2014    9       11    17   7    6.30   446.6    6.0      36.194
2014    9       11    17  11    6.30   446.6    6.0      36.160
2014    9       11    17  16    6.30   446.5    6.0      36.126
2014    9       11    17  21    6.29   446.4    6.0      36.092
2014    9       11    17  26    6.29   446.3    6.0      36.058
2014    9       11    17  30    6.29   446.2    6.0      36.024
2014    9       11    17  35    6.28   446.1    6.0      35.990
2014    9       11    17  40    6.28   446.0    6.0      35.956
2014    9       11    17  45    6.28   445.9    6.0      35.922
2014    9       11    17  49    6.27   445.8    6.0      35.889
2014    9       11    17  54    6.27   445.7    6.0      35.855
2014    9       11    17  59    6.27   445.6    6.0      35.821
2014    9       11    18   4    6.26   445.5    6.0      35.787
2014    9       11    18   8    6.26   445.4    6.0      35.754
2014    9       11    18  13    6.26   445.3    6.0      35.720
2014    9       11    18  18    6.25   445.2    6.0      35.686
2014    9       11    18  23    6.25   445.1    6.0      35.653
2014    9       11    18  27    6.25   445.0    6.0      35.620
2014    9       11    18  32    6.25   444.9    6.0      35.586
2014    9       11    18  37    6.24   444.8    6.0      35.553
2014    9       11    18  42    6.24   444.7    6.0      35.520
2014    9       11    18  46    6.24   444.6    6.0      35.487
2014    9       11    18  51    6.23   444.5    6.0      35.454
2014    9       11    18  56    6.23   444.4    6.0      35.422
2014    9       11    19   1    6.23   444.3    6.0      35.389
2014    9       11    19   5    6.23   444.2    6.0      35.357
2014    9       11    19  10    6.22   444.1    6.0      35.325
2014    9       11    19  15    6.22   444.0    6.0      35.293
2014    9       11    19  20    6.22   443.9    6.0      35.261
2014    9       11    19  24    6.21   443.8    6.0      35.230
2014    9       11    19  29    6.21   443.7    6.0      35.199
2014    9       11    19  34    6.21   443.6    6.0      35.168
2014    9       11    19  39    6.21   443.5    6.0      35.137
2014    9       11    19  43    6.20   443.4    6.0      35.107
2014    9       11    19  48    6.20   443.3    6.0      35.078
2014    9       11    19  53    6.20   443.2    6.0      35.048
2014    9       11    19  58    6.19   443.1    6.0      35.019
2014    9       11    20   2    6.19   443.0    5.9      34.991
2014    9       11    20   7    6.19   442.9    5.9      34.962
2014    9       11    20  12    6.19   442.8    5.9      34.935
2014    9       11    20  17    6.18   442.7    5.9      34.908
2014    9       11    20  21    6.18   442.5    5.9      34.882
2014    9       11    20  26    6.18   442.4    5.9      34.856
2014    9       11    20  31    6.18   442.3    5.9      34.831
2014    9       11    20  35    6.18   442.2    5.9      34.806
2014    9       11    20  40    6.17   442.1    5.9      34.782
2014    9       11    20  45    6.17   442.0    5.9      34.759
2014    9       11    20  50    6.17   441.9    5.9      34.737
2014    9       11    20  54    6.17   441.8    5.9      34.716
2014    9       11    20  59    6.16   441.7    5.9      34.695
2014    9       11    21   4    6.16   441.6    5.9      34.675
2014    9       11    21   9    6.16   441.5    5.9      34.655
2014    9       11    21  13    6.16   441.4    5.9      34.636
2014    9       11    21  18    6.16   441.3    5.9      34.618
2014    9       11    21  23    6.15   441.2    5.9      34.599
2014    9       11    21  28    6.15   441.1    5.9      34.580
2014    9       11    21  32    6.15   441.0    5.9      34.561
2014    9       11    21  37    6.15   440.9    6.0      34.542
2014    9       11    21  42    6.14   440.8    6.0      34.523
2014    9       11    21  47    6.14   440.7    6.0      34.504
2014    9       11    21  51    6.14   440.6    6.0      34.484
2014    9       11    21  56    6.14   440.5    6.0      34.465
2014    9       11    22   1    6.14   440.5    6.0      34.445
2014    9       11    22   6    6.13   440.4    6.0      34.425
2014    9       11    22  10    6.13   440.3    6.0      34.405
2014    9       11    22  15    6.13   440.2    6.0      34.385
2014    9       11    22  20    6.13   440.1    6.0      34.364
2014    9       11    22  25    6.12   440.0    6.0      34.343
2014    9       11    22  29    6.12   439.9    6.0      34.322
2014    9       11    22  34    6.12   439.8    6.0      34.301
2014    9       11    22  39    6.12   439.7    6.0      34.280
2014    9       11    22  44    6.12   439.6    6.0      34.258
2014    9       11    22  48    6.11   439.5    6.0      34.237
2014    9       11    22  53    6.11   439.4    6.0      34.215
2014    9       11    22  58    6.11   439.3    5.9      34.193
2014    9       11    23   3    6.11   439.2    5.9      34.171
2014    9       11    23   7    6.10   439.1    5.9      34.149
2014    9       11    23  12    6.10   438.9    5.9      34.127
2014    9       11    23  17    6.10   438.8    5.9      34.105
2014    9       11    23  22    6.10   438.7    5.9      34.082
2014    9       11    23  26    6.10   438.6    5.9      34.060
2014    9       11    23  31    6.09   438.5    5.9      34.038
2014    9       11    23  36    6.09   438.4    5.9      34.015
2014    9       11    23  41    6.09   438.3    5.9      33.993
2014    9       11    23  45    6.09   438.2    5.9      33.971
2014    9       11    23  50    6.09   438.1    5.9      33.949
2014    9       11    23  55    6.08   438.0    5.9      33.928
2014    9       12     0   0    6.08   437.9    5.9      33.906
2014    9       12     0   4    6.08   437.8    5.9      33.885
2014    9       12     0   9    6.08   437.7    5.9      33.864
2014    9       12     0  14    6.08   437.5    5.9      33.844
2014    9       12     0  19    6.07   437.4    5.9      33.824
2014    9       12     0  23    6.07   437.3    5.9      33.803
2014    9       12     0  28    6.07   437.2    5.9      33.784
2014    9       12     0  33    6.07   437.1    5.9      33.764
2014    9       12     0  38    6.07   437.0    5.9      33.745
2014    9       12     0  42    6.06   436.9    5.9      33.726
2014    9       12     0  47    6.06   436.8    5.9      33.707
2014    9       12     0  52    6.06   436.7    5.9      33.688
2014    9       12     0  57    6.06   436.5    5.9      33.670
2014    9       12     1   1    6.06   436.4    6.0      33.652
2014    9       12     1   6    6.06   436.3    6.0      33.634
2014    9       12     1  11    6.05   436.2    6.0      33.616
2014    9       12     1  16    6.05   436.1    6.0      33.598
2014    9       12     1  20    6.05   436.0    6.0      33.581
2014    9       12     1  25    6.05   435.9    6.0      33.565
2014    9       12     1  30    6.05   435.8    6.0      33.550
2014    9       12     1  34    6.05   435.7    6.0      33.535
2014    9       12     1  39    6.05   435.5    6.0      33.520
2014    9       12     1  44    6.04   435.4    6.0      33.506
2014    9       12     1  49    6.04   435.3    6.0      33.492
2014    9       12     1  53    6.04   435.2    6.0      33.479
2014    9       12     1  58    6.04   435.1    6.0      33.466
2014    9       12     2   3    6.04   435.0    6.0      33.453
2014    9       12     2   8    6.04   434.9    6.0      33.440
2014    9       12     2  12    6.04   434.8    6.0      33.426
2014    9       12     2  17    6.03   434.7    6.0      33.412
2014    9       12     2  22    6.03   434.6    6.0      33.397
2014    9       12     2  27    6.03   434.5    6.0      33.382
2014    9       12     2  31    6.03   434.4    6.0      33.367
2014    9       12     2  36    6.03   434.3    6.0      33.352
2014    9       12     2  41    6.03   434.2    6.0      33.336
2014    9       12     2  46    6.03   434.0    6.0      33.320
2014    9       12     2  50    6.02   433.9    6.0      33.304
2014    9       12     2  55    6.02   433.8    6.0      33.287
2014    9       12     3   0    6.02   433.7    6.0      33.270
2014    9       12     3   5    6.02   433.6    6.0      33.252
2014    9       12     3   9    6.02   433.5    6.0      33.234
2014    9       12     3  14    6.02   433.4    6.0      33.216
2014    9       12     3  19    6.01   433.3    5.9      33.198
2014    9       12     3  24    6.01   433.2    5.9      33.179
2014    9       12     3  28    6.01   433.1    5.9      33.160
2014    9       12     3  33    6.01   433.0    5.9      33.141
2014    9       12     3  38    6.01   432.8    5.9      33.122
2014    9       12     3  43    6.01   432.7    5.9      33.102
2014    9       12     3  47    6.01   432.6    5.9      33.082
2014    9       12     3  52    6.00   432.5    5.9      33.063
2014    9       12     3  57    6.00   432.4    5.9      33.043
2014    9       12     4   2    6.00   432.3    5.9      33.023
2014    9       12     4   6    6.00   432.2    5.9      33.003
2014    9       12     4  11    6.00   432.1    5.9      32.983
2014    9       12     4  16    6.00   431.9    5.9      32.962
2014    9       12     4  21    6.00   431.8    5.9      32.942
2014    9       12     4  25    5.99   431.7    5.9      32.922
2014    9       12     4  30    5.99   431.6    5.9      32.901
2014    9       12     4  35    5.99   431.5    5.9      32.881
2014    9       12     4  40    5.99   431.4    5.9      32.861
2014    9       12     4  44    5.99   431.3    5.9      32.841
2014    9       12     4  49    5.99   431.2    5.9      32.820
2014    9       12     4  54    5.99   431.1    5.9      32.800
2014    9       12     4  59    5.99   430.9    5.9      32.780
2014    9       12     5   3    5.99   430.8    5.9      32.760
2014    9       12     5   8    5.98   430.7    5.9      32.739
2014    9       12     5  13    5.98   430.6    5.9      32.719
2014    9       12     5  17    5.98   430.5    5.9      32.699
2014    9       12     5  22    5.98   430.4    5.9      32.679
2014    9       12     5  27    5.98   430.3    5.9      32.658
2014    9       12     5  32    5.98   430.2    5.9      32.638
2014    9       12     5  36    5.98   430.1    5.9      32.618
2014    9       12     5  41    5.98   429.9    5.9      32.598
2014    9       12     5  46    5.97   429.8    5.9      32.577
2014    9       12     5  51    5.97   429.7    5.9      32.557
2014    9       12     5  55    5.97   429.6    5.9      32.537
2014    9       12     6   0    5.97   429.5    5.9      32.517
2014    9       12     6   5    5.97   429.4    5.9      32.496
2014    9       12     6  10    5.97   429.3    5.9      32.476
2014    9       12     6  14    5.97   429.2    5.9      32.456
2014    9       12     6  19    5.97   429.0    5.9      32.436
2014    9       12     6  24    5.97   428.9    5.9      32.415
2014    9       12     6  29    5.97   428.8    5.9      32.395
2014    9       12     6  33    5.96   428.7    5.9      32.375
2014    9       12     6  38    5.96   428.6    5.9      32.355
2014    9       12     6  43    5.96   428.5    5.9      32.335
2014    9       12     6  48    5.96   428.4    5.9      32.315
2014    9       12     6  52    5.96   428.2    5.9      32.295
2014    9       12     6  57    5.96   428.1    5.9      32.275
2014    9       12     7   2    5.96   428.0    5.9      32.255
2014    9       12     7   7    5.96   427.9    5.9      32.236
2014    9       12     7  11    5.96   427.8    5.9      32.217
2014    9       12     7  16    5.96   427.7    5.9      32.197
2014    9       12     7  21    5.96   427.5    5.9      32.179
2014    9       12     7  26    5.95   427.4    5.9      32.160
2014    9       12     7  30    5.95   427.3    5.9      32.142
2014    9       12     7  35    5.95   427.2    5.9      32.125
2014    9       12     7  40    5.95   427.1    5.9      32.107
2014    9       12     7  45    5.95   427.0    5.9      32.090
2014    9       12     7  49    5.95   426.8    5.9      32.074
2014    9       12     7  54    5.95   426.7    5.9      32.058
2014    9       12     7  59    5.95   426.6    5.9      32.042
2014    9       12     8   4    5.95   426.5    5.9      32.026
2014    9       12     8   8    5.95   426.4    5.9      32.011
2014    9       12     8  13    5.95   426.2    5.9      31.996
2014    9       12     8  18    5.95   426.1    5.9      31.982
2014    9       12     8  23    5.95   426.0    5.9      31.968
2014    9       12     8  27    5.95   425.9    5.9      31.955
2014    9       12     8  32    5.95   425.8    5.9      31.941
2014    9       12     8  37    5.94   425.7    5.9      31.929
2014    9       12     8  42    5.94   425.5    5.9      31.916
2014    9       12     8  46    5.94   425.4    5.9      31.904
2014    9       12     8  51    5.94   425.3    5.9      31.893
2014    9       12     8  56    5.94   425.2    5.9      31.884
2014    9       12     9   1    5.94   425.1    6.0      31.875
2014    9       12     9   5    5.94   425.0    6.0      31.866
2014    9       12     9  10    5.94   424.9    6.0      31.859
2014    9       12     9  15    5.94   424.8    6.0      31.852
2014    9       12     9  20    5.94   424.6    6.0      31.845
2014    9       12     9  24    5.94   424.5    6.0      31.839
2014    9       12     9  29    5.94   424.4    6.0      31.834
2014    9       12     9  34    5.94   424.3    6.0      31.828
2014    9       12     9  38    5.94   424.2    6.0      31.822
2014    9       12     9  43    5.94   424.1    6.0      31.816
2014    9       12     9  48    5.94   424.0    6.0      31.809
2014    9       12     9  53    5.94   423.9    6.0      31.803
2014    9       12     9  57    5.94   423.8    6.0      31.796
2014    9       12    10   2    5.94   423.7    6.0      31.789
2014    9       12    10   7    5.94   423.6    6.0      31.782
2014    9       12    10  12    5.94   423.5    6.0      31.775
2014    9       12    10  16    5.94   423.4    6.0      31.769
2014    9       12    10  21    5.94   423.3    6.0      31.764
2014    9       12    10  26    5.93   423.2    6.0      31.759
2014    9       12    10  31    5.93   423.0    6.0      31.756
2014    9       12    10  35    5.93   422.9    6.0      31.755
2014    9       12    10  40    5.93   422.8    6.0      31.757
2014    9       12    10  45    5.93   422.7    6.0      31.765
2014    9       12    10  50    5.93   422.6    6.0      31.781
2014    9       12    10  54    5.93   422.6    6.0      31.812
2014    9       12    10  59    5.93   422.5    6.0      31.866
2014    9       12    11   4    5.94   422.4    6.0      31.960
2014    9       12    11   9    5.94   422.4    6.0      32.117
2014    9       12    11  13    5.94   422.4    6.0      32.377
2014    9       12    11  18    5.94   422.4    6.0      32.805
2014    9       12    11  23    5.95   422.6    6.1      33.504
2014    9       12    11  28    5.96   422.9    6.1      34.639
2014    9       12    11  32    5.97   423.5    6.1      36.474
2014    9       12    11  37    5.99   424.4    6.1      39.410
2014    9       12    11  42    6.02   425.9    6.2      44.056
2014    9       12    11  47    6.06   428.2    6.3      51.311
2014    9       12    11  51    6.11   431.6    6.4      62.421
2014    9       12    11  56    6.19   436.7    6.6      78.944
2014    9       12    12   1    6.29   443.8    6.8     102.854
2014    9       12    12   6    6.43   453.4    7.1     136.205
2014    9       12    12  10    6.62   466.0    7.5     180.504
2014    9       12    12  15    6.90   481.5    8.1     236.194
2014    9       12    12  20    7.26   499.6    8.8     304.756
2014    9       12    12  25    7.73   520.4    9.7     381.973
2014    9       12    12  29    8.34   541.8   10.8     465.592
2014    9       12    12  34    9.07   564.4   12.0     549.853
2014    9       12    12  39    9.90   586.1   13.5     629.284
2014    9       12    12  43   10.81   606.7   15.1     700.028
2014    9       12    12  48   11.77   625.3   16.7     761.061
2014    9       12    12  53   12.76   641.5   18.4     810.560
2014    9       12    12  58   13.77   655.4   20.1     852.359
2014    9       12    13   2   14.76   667.9   21.8     886.927
2014    9       12    13   7   15.70   678.7   23.4     914.443
2014    9       12    13  12   16.58   688.0   25.0     935.773
2014    9       12    13  17   17.36   696.3   26.4     951.598
2014    9       12    13  21   18.04   703.1   27.6     961.883
2014    9       12    13  26   18.63   708.7   28.7     967.662
2014    9       12    13  31   19.13   713.1   29.7     970.006
2014    9       12    13  36   19.56   716.7   30.5     969.707
2014    9       12    13  40   19.90   719.6   31.2     967.465
2014    9       12    13  45   20.17   721.9   31.7     963.644
2014    9       12    13  50   20.39   723.6   32.2     958.696
2014    9       12    13  55   20.55   724.8   32.6     953.108
2014    9       12    13  59   20.68   725.7   32.8     947.305
2014    9       12    14   4   20.76   726.3   33.0     941.414
2014    9       12    14   9   20.82   726.6   33.2     935.510
2014    9       12    14  14   20.85   726.7   33.3     929.758
2014    9       12    14  18   20.86   726.7   33.3     924.091
2014    9       12    14  23   20.86   726.6   33.3     918.392
2014    9       12    14  28   20.83   726.3   33.3     912.654
2014    9       12    14  33   20.79   726.0   33.2     906.849
2014    9       12    14  37   20.74   725.6   33.1     900.767
2014    9       12    14  42   20.68   725.1   33.0     894.302
2014    9       12    14  47   20.60   724.4   32.9     887.427
2014    9       12    14  52   20.51   723.7   32.7     879.989
2014    9       12    14  56   20.40   722.8   32.5     871.830
2014    9       12    15   1   20.28   721.8   32.3     863.002
2014    9       12    15   6   20.15   720.6   32.1     853.545
2014    9       12    15  11   20.00   719.3   31.9     843.347
2014    9       12    15  15   19.85   717.8   31.6     832.536
2014    9       12    15  20   19.68   716.3   31.4     821.232
2014    9       12    15  25   19.51   714.7   31.1     809.563
2014    9       12    15  30   19.34   713.1   30.9     797.640
2014    9       12    15  34   19.16   711.4   30.6     785.476
2014    9       12    15  39   18.98   709.7   30.4     773.211
2014    9       12    15  44   18.80   708.1   30.1     760.946
2014    9       12    15  49   18.63   706.4   29.9     748.658
2014    9       12    15  53   18.45   704.8   29.7     736.504
2014    9       12    15  58   18.29   703.2   29.5     724.603
2014    9       12    16   3   18.12   701.8   29.2     712.960
2014    9       12    16   8   17.96   700.3   29.1     701.555
2014    9       12    16  12   17.80   698.9   28.9     690.379
2014    9       12    16  17   17.64   697.5   28.7     679.430
2014    9       12    16  22   17.49   696.2   28.5     668.738
2014    9       12    16  27   17.34   695.0   28.3     658.273
2014    9       12    16  31   17.19   693.7   28.2     648.044
2014    9       12    16  36   17.04   692.5   28.0     638.024
2014    9       12    16  41   16.89   691.3   27.8     628.224
2014    9       12    16  45   16.75   690.1   27.7     618.620
2014    9       12    16  50   16.60   689.0   27.5     609.221
2014    9       12    16  55   16.46   687.8   27.4     600.008
2014    9       12    17   0   16.31   686.7   27.2     590.989
2014    9       12    17   4   16.17   685.6   27.1     582.144
2014    9       12    17   9   16.03   684.5   26.9     573.483
2014    9       12    17  14   15.89   683.4   26.8     564.987
2014    9       12    17  19   15.75   682.4   26.6     556.665
2014    9       12    17  23   15.61   681.3   26.5     548.497
2014    9       12    17  28   15.46   680.2   26.3     540.491
2014    9       12    17  33   15.32   679.2   26.2     532.630
2014    9       12    17  38   15.18   678.2   26.0     524.921
2014    9       12    17  42   15.04   677.2   25.9     517.345
2014    9       12    17  47   14.90   676.1   25.7     509.911
2014    9       12    17  52   14.76   675.1   25.6     502.598
2014    9       12    17  57   14.62   674.2   25.5     495.415
2014    9       12    18   1   14.48   673.2   25.3     488.344
2014    9       12    18   6   14.34   672.2   25.2     481.392
2014    9       12    18  11   14.20   671.2   25.1     474.543
2014    9       12    18  16   14.05   670.3   24.9     467.804
2014    9       12    18  20   13.91   669.3   24.8     461.159
2014    9       12    18  25   13.77   668.4   24.6     454.617
2014    9       12    18  30   13.63   667.5   24.5     448.163
2014    9       12    18  35   13.48   666.6   24.4     441.805
2014    9       12    18  39   13.34   665.6   24.2     435.529
2014    9       12    18  44   13.19   664.7   24.1     429.346
2014    9       12    18  49   13.05   663.8   24.0     423.242
2014    9       12    18  54   12.90   662.9   23.8     417.227
2014    9       12    18  58   12.76   662.1   23.7     411.289
2014    9       12    19   3   12.61   661.2   23.6     405.438
2014    9       12    19   8   12.46   660.3   23.4     399.664
2014    9       12    19  13   12.32   659.4   23.3     393.977
2014    9       12    19  17   12.17   658.6   23.1     388.368
2014    9       12    19  22   12.02   657.7   23.0     382.846
2014    9       12    19  27   11.87   656.9   22.9     377.404
2014    9       12    19  32   11.72   656.0   22.7     372.051
2014    9       12    19  36   11.57   655.2   22.6     366.779
2014    9       12    19  41   11.42   654.3   22.4     361.599
2014    9       12    19  46   11.27   653.5   22.3     356.503
2014    9       12    19  50   11.12   652.7   22.1     351.501
2014    9       12    19  55   10.97   651.9   21.9     346.585
2014    9       12    20   0   10.82   651.1   21.8     341.765
2014    9       12    20   5   10.67   650.2   21.6     337.034
2014    9       12    20   9   10.51   649.4   21.4     332.402
2014    9       12    20  14   10.36   648.6   21.3     327.861
2014    9       12    20  19   10.20   647.8   21.1     323.421
2014    9       12    20  24   10.04   647.0   20.9     319.073
2014    9       12    20  28    9.89   646.2   20.7     314.828
2014    9       12    20  33    9.73   645.4   20.5     310.677
2014    9       12    20  38    9.57   644.6   20.4     306.629
2014    9       12    20  43    9.40   643.8   20.2     302.678
2014    9       12    20  47    9.24   643.1   20.0     298.830
2014    9       12    20  52    9.08   642.3   19.8     295.080
2014    9       12    20  57    8.92   641.5   19.6     291.434
2014    9       12    21   2    8.75   640.7   19.3     287.887
2014    9       12    21   6    8.59   639.9   19.1     284.444
2014    9       12    21  11    8.43   639.2   18.9     281.102
2014    9       12    21  16    8.27   638.4   18.7     277.866
2014    9       12    21  21    8.11   637.7   18.5     274.732
2014    9       12    21  25    7.95   636.9   18.2     271.706
2014    9       12    21  30    7.79   636.1   18.0     268.784
2014    9       12    21  35    7.64   635.4   17.8     265.972
2014    9       12    21  40    7.49   634.7   17.5     263.267
2014    9       12    21  44    7.35   633.9   17.3     260.674
2014    9       12    21  49    7.21   633.2   17.0     258.192
2014    9       12    21  54    7.08   632.4   16.8     255.827
2014    9       12    21  59    6.95   631.7   16.5     253.576
2014    9       12    22   3    6.82   630.9   16.3     251.445
2014    9       12    22   8    6.70   630.2   16.0     249.431
2014    9       12    22  13    6.59   629.4   15.7     247.542
2014    9       12    22  18    6.48   628.7   15.5     245.776
2014    9       12    22  22    6.37   627.9   15.2     244.136
2014    9       12    22  27    6.27   627.2   14.9     242.618
2014    9       12    22  32    6.17   626.4   14.6     241.218
2014    9       12    22  37    6.08   625.6   14.3     239.939
2014    9       12    22  41    5.99   624.9   14.0     238.773
2014    9       12    22  46    5.90   624.1   13.8     237.704
2014    9       12    22  51    5.82   623.4   13.5     236.724
2014    9       12    22  56    5.75   622.6   13.2     235.817
2014    9       12    23   0    5.68   621.9   12.9     234.993
2014    9       12    23   5    5.61   621.2   12.6     234.235
2014    9       12    23  10    5.54   620.5   12.3     233.528
2014    9       12    23  15    5.48   619.8   12.0     232.864
2014    9       12    23  19    5.43   619.1   11.8     232.237
2014    9       12    23  24    5.37   618.3   11.5     231.640
2014    9       12    23  29    5.32   617.7   11.2     231.060
2014    9       12    23  33    5.27   617.0   11.0     230.486
2014    9       12    23  38    5.23   616.3   10.7     229.917
2014    9       12    23  43    5.19   615.6   10.4     229.352
2014    9       12    23  48    5.15   614.8   10.2     228.793
2014    9       12    23  52    5.11   614.1    9.9     228.239
2014    9       12    23  57    5.08   613.4    9.7     227.690
2014    9       13     0   2    5.04   612.6    9.5     227.143
2014    9       13     0   7    5.01   611.9    9.2     226.599
2014    9       13     0  11    4.98   611.1    9.0     226.059
2014    9       13     0  16    4.96   610.4    8.8     225.526
2014    9       13     0  21    4.93   609.6    8.6     224.999
2014    9       13     0  26    4.91   608.8    8.4     224.481
2014    9       13     0  30    4.89   608.1    8.2     223.971
2014    9       13     0  35    4.87   607.3    8.0     223.472
2014    9       13     0  40    4.85   606.5    7.8     222.984
2014    9       13     0  45    4.83   605.7    7.6     222.508
2014    9       13     0  49    4.81   604.9    7.4     222.044
2014    9       13     0  54    4.80   604.1    7.2     221.593
2014    9       13     0  59    4.78   603.2    7.1     221.157
2014    9       13     1   4    4.77   602.4    6.9     220.735
2014    9       13     1   8    4.76   601.6    6.7     220.328
2014    9       13     1  13    4.74   600.7    6.6     219.937
2014    9       13     1  18    4.73   599.9    6.4     219.562
2014    9       13     1  23    4.72   599.0    6.3     219.203
2014    9       13     1  27    4.71   598.2    6.1     218.861
2014    9       13     1  32    4.70   597.3    6.0     218.536
2014    9       13     1  37    4.70   596.4    5.8     218.229
2014    9       13     1  42    4.69   595.5    5.7     217.939
2014    9       13     1  46    4.68   594.7    5.6     217.667
2014    9       13     1  51    4.67   593.8    5.4     217.413
2014    9       13     1  56    4.67   592.9    5.3     217.178
2014    9       13     2   1    4.66   592.0    5.2     216.961
2014    9       13     2   5    4.66   591.1    5.1     216.762
2014    9       13     2  10    4.65   590.2    4.9     216.582
2014    9       13     2  15    4.65   589.3    4.8     216.420
2014    9       13     2  19    4.64   588.4    4.7     216.277
2014    9       13     2  24    4.64   587.4    4.6     216.153
2014    9       13     2  29    4.64   586.5    4.5     216.048
2014    9       13     2  34    4.63   585.6    4.4     215.960
2014    9       13     2  38    4.63   584.7    4.3     215.892
2014    9       13     2  43    4.63   583.7    4.2     215.842
2014    9       13     2  48    4.63   582.8    4.1     215.811
2014    9       13     2  53    4.62   581.9    4.0     215.798
2014    9       13     2  57    4.62   580.9    4.0     215.803
2014    9       13     3   2    4.62   580.0    3.9     215.827
2014    9       13     3   7    4.62   579.0    3.8     215.868
2014    9       13     3  12    4.62   578.1    3.7     215.927
2014    9       13     3  16    4.62   577.1    3.6     216.003
2014    9       13     3  21    4.62   576.2    3.5     216.097
2014    9       13     3  26    4.62   575.3    3.5     216.207
2014    9       13     3  31    4.62   574.3    3.4     216.335
2014    9       13     3  35    4.62   573.4    3.3     216.479
2014    9       13     3  40    4.62   572.5    3.2     216.640
2014    9       13     3  45    4.62   571.5    3.2     216.816
2014    9       13     3  50    4.62   570.6    3.1     217.008
2014    9       13     3  54    4.62   569.7    3.0     217.215
2014    9       13     3  59    4.62   568.8    3.0     217.437
2014    9       13     4   4    4.62   567.8    2.9     217.674
2014    9       13     4   9    4.62   566.9    2.9     217.926
2014    9       13     4  13    4.62   566.0    2.8     218.191
2014    9       13     4  18    4.63   565.2    2.7     218.471
2014    9       13     4  23    4.63   564.3    2.7     218.766
2014    9       13     4  28    4.63   563.4    2.6     219.076
2014    9       13     4  32    4.63   562.6    2.6     219.400
2014    9       13     4  37    4.63   561.7    2.5     219.738
2014    9       13     4  42    4.63   560.9    2.4     220.091
2014    9       13     4  47    4.64   560.0    2.4     220.459
2014    9       13     4  51    4.64   559.2    2.3     220.843
2014    9       13     4  56    4.64   558.4    2.3     221.243
2014    9       13     5   1    4.64   557.7    2.2     221.659
2014    9       13     5   6    4.64   556.9    2.2     222.094
2014    9       13     5  10    4.65   556.2    2.1     222.545
2014    9       13     5  15    4.65   555.4    2.1     223.013
2014    9       13     5  20    4.65   554.7    2.0     223.496
2014    9       13     5  25    4.66   554.0    2.0     223.993
2014    9       13     5  29    4.66   553.4    1.9     224.502
2014    9       13     5  34    4.66   552.7    1.9     225.022
2014    9       13     5  39    4.67   552.1    1.8     225.547
2014    9       13     5  44    4.67   551.5    1.8     226.075
2014    9       13     5  48    4.67   550.9    1.8     226.600
2014    9       13     5  53    4.68   550.4    1.7     227.118
2014    9       13     5  58    4.68   549.8    1.7     227.619
2014    9       13     6   2    4.69   549.3    1.6     228.096
2014    9       13     6   7    4.69   548.9    1.6     228.536
2014    9       13     6  12    4.70   548.4    1.5     228.931
2014    9       13     6  17    4.70   548.0    1.5     229.256
2014    9       13     6  21    4.71   547.7    1.5     229.492
2014    9       13     6  26    4.71   547.3    1.4     229.632
2014    9       13     6  31    4.72   547.1    1.4     229.666
2014    9       13     6  36    4.72   546.8    1.3     229.578
2014    9       13     6  40    4.73   546.6    1.3     229.332
2014    9       13     6  45    4.74   546.4    1.3     228.929
2014    9       13     6  50    4.74   546.3    1.2     228.346
2014    9       13     6  55    4.75   546.2    1.2     227.598
2014    9       13     6  59    4.75   546.2    1.1     226.682
2014    9       13     7   4    4.76   546.2    1.1     225.595
2014    9       13     7   9    4.77   546.3    1.1     224.331
2014    9       13     7  14    4.77   546.4    1.0     222.907
2014    9       13     7  18    4.78   546.6    1.0     221.332
2014    9       13     7  23    4.79   546.8    1.0     219.579
2014    9       13     7  28    4.79   547.1    1.0     217.635
2014    9       13     7  33    4.80   547.5    1.0     215.512
2014    9       13     7  37    4.80   547.9    1.0     213.207
2014    9       13     7  42    4.81   548.4    1.0     210.728
2014    9       13     7  47    4.82   548.9    1.0     208.074
2014    9       13     7  52    4.82   549.5    1.0     205.262
2014    9       13     7  56    4.83   550.1    1.0     202.293
2014    9       13     8   1    4.83   550.9    1.0     199.205
2014    9       13     8   6    4.84   551.6    1.0     196.015
2014    9       13     8  11    4.84   552.5    1.0     192.723
2014    9       13     8  15    4.85   553.4    1.0     189.321
2014    9       13     8  20    4.85   554.3    1.0     185.811
2014    9       13     8  25    4.86   555.3    1.0     182.188
2014    9       13     8  30    4.86   556.4    1.0     178.461
2014    9       13     8  34    4.87   557.5    1.0     174.624
2014    9       13     8  39    4.87   558.6    1.0     170.702
2014    9       13     8  44    4.88   559.8    1.0     166.697
2014    9       13     8  48    4.88   561.1    1.0     162.616
2014    9       13     8  53    4.88   562.4    1.0     158.456
2014    9       13     8  58    4.89   563.7    1.0     154.226
2014    9       13     9   3    4.89   565.1    1.0     149.924
2014    9       13     9   7    4.89   566.5    1.0     145.564
2014    9       13     9  12    4.89   567.9    1.0     141.142
2014    9       13     9  17    4.90   569.4    1.0     136.676
2014    9       13     9  22    4.90   570.9    1.0     132.166
2014    9       13     9  26    4.90   572.4    1.0     127.627
2014    9       13     9  31    4.90   573.9    1.0     123.061
2014    9       13     9  36    4.91   575.4    1.0     118.486
2014    9       13     9  41    4.91   577.0    1.0     113.903
2014    9       13     9  45    4.91   578.5    1.0     109.331
2014    9       13     9  50    4.91   580.0    1.0     104.772
2014    9       13     9  55    4.91   581.5    1.0     100.246
2014    9       13    10   0    4.91   583.0    1.0      95.754
2014    9       13    10   4    4.91   584.5    1.0      91.318
2014    9       13    10   9    4.92   585.9    1.0      86.939
2014    9       13    10  14    4.92   587.3    1.0      82.635
2014    9       13    10  19    4.92   588.7    1.0      78.410
2014    9       13    10  23    4.92   590.0    1.0      74.282
2014    9       13    10  28    4.92   591.3    1.0      70.252
2014    9       13    10  33    4.92   592.5    1.0      66.337
2014    9       13    10  38    4.92   593.6    1.0      62.538
2014    9       13    10  42    4.92   594.7    1.0      58.869
2014    9       13    10  47    4.92   595.8    1.0      55.329
2014    9       13    10  52    4.92   596.7    1.0      51.929
2014    9       13    10  57    4.92   597.6    1.0      48.669
2014    9       13    11   1    4.92   598.4    1.0      45.557
2014    9       13    11   6    4.92   599.1    1.0      42.588
2014    9       13    11  11    4.92   599.8    1.0      39.770
2014    9       13    11  16    4.92   600.4    1.0      37.098
2014    9       13    11  20    4.92   600.9    1.0      34.574
2014    9       13    11  25    4.92   601.3    1.0      32.194
2014    9       13    11  30    4.92   601.7    1.0      29.957
2014    9       13    11  35    4.93   602.0    1.0      27.859
2014    9       13    11  39    4.93   602.2    1.0      25.896
2014    9       13    11  44    4.93   602.4    1.0      24.064
2014    9       13    11  49    4.93   602.5    1.0      22.357
2014    9       13    11  53    4.93   602.5    1.0      20.770
2014    9       13    11  58    4.93   602.5    1.0      19.298
2014    9       13    12   3    4.93   602.4    1.0      17.934
2014    9       13    12   8    4.93   602.3    1.0      16.674
2014    9       13    12  12    4.93   602.1    1.0      15.511
2014    9       13    12  17    4.93   601.9    1.0      14.439
2014    9       13    12  22    4.93   601.7    1.0      13.453
2014    9       13    12  27    4.93   601.4    1.0      12.547
2014    9       13    12  31    4.93   601.0    1.0      11.715
2014    9       13    12  36    4.93   600.7    1.0      10.953
2014    9       13    12  41    4.93   600.3    1.0      10.255
2014    9       13    12  46    4.93   599.9    1.0       9.617
2014    9       13    12  50    4.93   599.4    1.0       9.034
2014    9       13    12  55    4.93   599.0    1.0       8.502
2014    9       13    13   0    4.93   598.5    1.0       8.016
2014    9       13    13   5    4.93   598.0    1.0       7.573
2014    9       13    13   9    4.93   597.5    1.0       7.170
2014    9       13    13  14    4.94   596.9    1.0       6.802
2014    9       13    13  19    4.94   596.4    1.0       6.468
2014    9       13    13  24    4.94   595.8    1.0       6.165
2014    9       13    13  28    4.94   595.3    1.0       5.889
2014    9       13    13  33    4.94   594.7    1.0       5.638
2014    9       13    13  38    4.94   594.2    1.0       5.411
2014    9       13    13  43    4.94   593.6    1.0       5.205
2014    9       13    13  47    4.94   593.1    1.0       5.018
2014    9       13    13  52    4.94   592.5    1.0       4.848
2014    9       13    13  57    4.94   592.0    1.0       4.695
2014    9       13    14   2    4.94   591.5    1.0       4.556
2014    9       13    14   6    4.94   591.0    1.0       4.430
2014    9       13    14  11    4.94   590.4    1.0       4.316
2014    9       13    14  16    4.95   589.9    1.0       4.213
2014    9       13    14  21    4.95   589.4    1.0       4.119
2014    9       13    14  25    4.95   588.9    1.0       4.035
2014    9       13    14  30    4.95   588.3    1.0       3.959
2014    9       13    14  35    4.95   587.8    1.0       3.890
2014    9       13    14  40    4.95   587.3    1.0       3.828
2014    9       13    14  44    4.95   586.8    1.0       3.772
2014    9       13    14  49    4.95   586.3    1.0       3.721
2014    9       13    14  54    4.95   585.8    1.0       3.676
2014    9       13    14  59    4.95   585.3    1.0       3.634
2014    9       13    15   3    4.95   584.8    1.0       3.597
2014    9       13    15   8    4.95   584.3    1.0       3.563
2014    9       13    15  13    4.96   583.7    1.0       3.533
2014    9       13    15  17    4.96   583.2    1.0       3.505
2014    9       13    15  22    4.96   582.6    1.0       3.481
2014    9       13    15  27    4.96   582.0    1.0       3.458
2014    9       13    15  32    4.96   581.4    1.0       3.437
2014    9       13    15  36    4.96   580.8    1.0       3.419
2014    9       13    15  41    4.96   580.1    1.0       3.402
2014    9       13    15  46    4.96   579.5    1.0       3.387
2014    9       13    15  51    4.96   578.8    1.0       3.373
2014    9       13    15  55    4.96   578.1    1.0       3.361
2014    9       13    16   0    4.96   577.3    1.0       3.351
2014    9       13    16   5    4.96   576.6    1.0       3.342
2014    9       13    16  10    4.97   575.8    1.0       3.334
2014    9       13    16  14    4.97   575.0    1.0       3.327
2014    9       13    16  19    4.97   574.1    1.0       3.322
2014    9       13    16  24    4.97   573.3    1.0       3.318
2014    9       13    16  29    4.97   572.4    1.0       3.315
2014    9       13    16  33    4.97   571.5    1.0       3.313
2014    9       13    16  38    4.97   570.6    1.0       3.312
2014    9       13    16  43    4.97   569.8    1.0       3.312
2014    9       13    16  48    4.97   568.8    1.0       3.314
2014    9       13    16  52    4.97   567.9    1.0       3.317
2014    9       13    16  57    4.98   567.0    1.0       3.321
2014    9       13    17   2    4.98   566.1    1.0       3.327
2014    9       13    17   7    4.98   565.2    1.0       3.335
2014    9       13    17  11    4.98   564.3    1.0       3.344
2014    9       13    17  16    4.98   563.4    1.0       3.354
2014    9       13    17  21    4.98   562.5    1.0       3.365
2014    9       13    17  26    4.98   561.6    1.0       3.379
2014    9       13    17  30    4.98   560.7    1.0       3.393
2014    9       13    17  35    4.99   559.9    1.0       3.409
2014    9       13    17  40    4.99   559.0    1.0       3.426
2014    9       13    17  45    4.99   558.2    1.0       3.444
2014    9       13    17  49    4.99   557.4    1.0       3.464
2014    9       13    17  54    4.99   556.6    1.0       3.484
2014    9       13    17  59    4.99   555.8    1.0       3.506
2014    9       13    18   3    4.99   555.0    1.0       3.528
2014    9       13    18   8    4.99   554.3    1.0       3.551
2014    9       13    18  13    5.00   553.5    1.0       3.575
2014    9       13    18  18    5.00   552.8    1.0       3.600
2014    9       13    18  22    5.00   552.1    1.0       3.625
2014    9       13    18  27    5.00   551.4    1.0       3.651
2014    9       13    18  32    5.00   550.7    1.0       3.677
2014    9       13    18  37    5.00   550.1    1.0       3.703
2014    9       13    18  41    5.00   549.4    1.0       3.730
2014    9       13    18  46    5.00   548.8    1.0       3.757
2014    9       13    18  51    5.01   548.1    1.0       3.784
2014    9       13    18  56    5.01   547.5    1.0       3.811
2014    9       13    19   0    5.01   546.9    1.0       3.838
2014    9       13    19   5    5.01   546.3    1.0       3.866
2014    9       13    19  10    5.01   545.7    1.0       3.893
2014    9       13    19  15    5.01   545.1    1.0       3.920
2014    9       13    19  19    5.01   544.5    1.0       3.947
2014    9       13    19  24    5.02   543.8    1.0       3.974
2014    9       13    19  29    5.02   543.2    1.0       4.001
2014    9       13    19  34    5.02   542.6    1.0       4.028
2014    9       13    19  38    5.02   542.0    1.0       4.055
2014    9       13    19  43    5.02   541.4    1.0       4.081
2014    9       13    19  48    5.02   540.8    1.0       4.108
2014    9       13    19  53    5.02   540.2    1.0       4.134
2014    9       13    19  57    5.02   539.6    1.0       4.160
2014    9       13    20   2    5.03   539.1    1.0       4.186
2014    9       13    20   7    5.03   538.5    1.0       4.211
2014    9       13    20  12    5.03   537.9    1.0       4.237
2014    9       13    20  16    5.03   537.3    1.0       4.262
2014    9       13    20  21    5.03   536.7    1.0       4.287
2014    9       13    20  26    5.03   536.1    1.0       4.312
2014    9       13    20  31    5.03   535.6    1.0       4.337
2014    9       13    20  35    5.03   535.0    1.0       4.361
2014    9       13    20  40    5.04   534.4    1.0       4.386
2014    9       13    20  45    5.04   533.8    1.0       4.410
2014    9       13    20  50    5.04   533.2    1.0       4.434
2014    9       13    20  54    5.04   532.6    1.0       4.458
2014    9       13    20  59    5.04   532.1    1.0       4.482
2014    9       13    21   4    5.04   531.5    1.0       4.506
2014    9       13    21   9    5.04   530.9    1.0       4.529
2014    9       13    21  13    5.04   530.3    1.0       4.553
2014    9       13    21  18    5.05   529.8    1.0       4.577
2014    9       13    21  23    5.05   529.2    1.0       4.600
2014    9       13    21  27    5.05   528.7    1.0       4.624
2014    9       13    21  32    5.05   528.1    1.0       4.647
2014    9       13    21  37    5.05   527.6    1.0       4.671
2014    9       13    21  42    5.05   527.0    1.0       4.695
2014    9       13    21  46    5.05   526.5    1.0       4.718
2014    9       13    21  51    5.05   526.0    1.0       4.742
2014    9       13    21  56    5.05   525.4    1.0       4.766
2014    9       13    22   1    5.06   524.9    1.0       4.789
2014    9       13    22   5    5.06   524.4    1.0       4.813
2014    9       13    22  10    5.06   523.9    1.0       4.837
2014    9       13    22  15    5.06   523.4    1.0       4.861
2014    9       13    22  20    5.06   522.9    1.0       4.885
2014    9       13    22  24    5.06   522.4    1.0       4.909
2014    9       13    22  29    5.06   521.9    1.0       4.933
2014    9       13    22  34    5.06   521.4    1.0       4.957
2014    9       13    22  39    5.07   520.9    1.0       4.982
2014    9       13    22  43    5.07   520.4    1.0       5.006
2014    9       13    22  48    5.07   519.9    1.0       5.031
2014    9       13    22  53    5.07   519.4    1.0       5.056
2014    9       13    22  58    5.07   518.9    1.0       5.080
2014    9       13    23   2    5.07   518.4    1.0       5.106
2014    9       13    23   7    5.07   517.9    1.0       5.131
2014    9       13    23  12    5.07   517.4    1.0       5.156
2014    9       13    23  17    5.08   517.0    1.0       5.182
2014    9       13    23  21    5.08   516.5    1.0       5.207
2014    9       13    23  26    5.08   516.0    1.0       5.233
2014    9       13    23  31    5.08   515.5    1.0       5.260
2014    9       13    23  36    5.08   515.0    1.0       5.286
2014    9       13    23  40    5.08   514.6    1.0       5.312
2014    9       13    23  45    5.08   514.1    1.0       5.339
2014    9       13    23  50    5.08   513.6    1.0       5.366
2014    9       13    23  55    5.09   513.2    1.0       5.393
2014    9       13    23  59    5.09   512.7    1.0       5.421
2014    9       14     0   4    5.09   512.2    1.0       5.448
2014    9       14     0   9    5.09   511.8    1.0       5.476
2014    9       14     0  13    5.09   511.3    1.0       5.504
2014    9       14     0  18    5.09   510.8    1.0       5.533
2014    9       14     0  23    5.09   510.4    1.0       5.561
2014    9       14     0  28    5.09   509.9    1.0       5.590
2014    9       14     0  32    5.09   509.4    1.0       5.620
2014    9       14     0  37    5.10   509.0    1.0       5.649
2014    9       14     0  42    5.10   508.5    1.0       5.679
2014    9       14     0  47    5.10   508.1    1.0       5.709
2014    9       14     0  51    5.10   507.6    1.0       5.739
2014    9       14     0  56    5.10   507.1    1.0       5.770
2014    9       14     1   1    5.10   506.7    1.0       5.801
2014    9       14     1   6    5.10   506.2    1.0       5.832
2014    9       14     1  10    5.10   505.8    1.0       5.864
2014    9       14     1  15    5.11   505.3    1.0       5.895
2014    9       14     1  20    5.11   504.8    1.0       5.928
2014    9       14     1  25    5.11   504.4    1.0       5.960
2014    9       14     1  29    5.11   503.9    1.0       5.993
2014    9       14     1  34    5.11   503.4    1.0       6.026
2014    9       14     1  39    5.11   503.0    1.0       6.060
2014    9       14     1  44    5.11   502.5    1.0       6.094
2014    9       14     1  48    5.11   502.1    1.0       6.128
2014    9       14     1  53    5.11   501.6    1.0       6.163
2014    9       14     1  58    5.12   501.1    1.0       6.198
2014    9       14     2   3    5.12   500.7    1.0       6.233
2014    9       14     2   7    5.12   500.2    1.0       6.269
2014    9       14     2  12    5.12   499.8    1.0       6.305
2014    9       14     2  17    5.12   499.3    1.0       6.341
2014    9       14     2  22    5.12   498.8    1.0       6.378
2014    9       14     2  26    5.12   498.4    1.0       6.416
2014    9       14     2  31    5.12   497.9    1.0       6.453
2014    9       14     2  36    5.12   497.5    1.0       6.492
2014    9       14     2  41    5.13   497.0    1.0       6.530
2014    9       14     2  45    5.13   496.6    1.0       6.569
2014    9       14     2  50    5.13   496.1    1.0       6.609
2014    9       14     2  55    5.13   495.7    1.0       6.648
2014    9       14     3   0    5.13   495.2    1.0       6.689
2014    9       14     3   4    5.13   494.8    1.0       6.729
2014    9       14     3   9    5.13   494.3    1.0       6.771
2014    9       14     3  14    5.13   493.9    1.0       6.812
2014    9       14     3  18    5.13   493.4    1.0       6.854
2014    9       14     3  23    5.14   493.0    1.0       6.896
2014    9       14     3  28    5.14   492.6    1.0       6.939
2014    9       14     3  33    5.14   492.1    1.0       6.983
2014    9       14     3  37    5.14   491.7    1.0       7.026
2014    9       14     3  42    5.14   491.2    1.0       7.070
2014    9       14     3  47    5.14   490.8    1.0       7.115
2014    9       14     3  52    5.14   490.4    1.0       7.160
2014    9       14     3  56    5.14   490.0    1.0       7.205
2014    9       14     4   1    5.14   489.5    1.0       7.251
2014    9       14     4   6    5.15   489.1    1.0       7.298
2014    9       14     4  11    5.15   488.7    1.0       7.344
2014    9       14     4  15    5.15   488.3    1.0       7.391
2014    9       14     4  20    5.15   487.9    1.0       7.439
2014    9       14     4  25    5.15   487.4    1.0       7.487
2014    9       14     4  30    5.15   487.0    1.0       7.535
2014    9       14     4  34    5.15   486.6    1.0       7.584
2014    9       14     4  39    5.15   486.2    1.0       7.633
2014    9       14     4  44    5.15   485.8    1.0       7.683
2014    9       14     4  49    5.16   485.4    1.0       7.733
2014    9       14     4  53    5.16   485.0    1.0       7.783
2014    9       14     4  58    5.16   484.6    1.0       7.834
2014    9       14     5   3    5.16   484.2    1.0       7.885
2014    9       14     5   8    5.16   483.8    1.0       7.937
2014    9       14     5  12    5.16   483.4    1.0       7.989
2014    9       14     5  17    5.16   483.0    1.0       8.041
2014    9       14     5  22    5.16   482.6    1.0       8.094
2014    9       14     5  27    5.16   482.3    1.0       8.147
2014    9       14     5  31    5.16   481.9    1.0       8.200
2014    9       14     5  36    5.17   481.5    1.0       8.254
2014    9       14     5  41    5.17   481.1    1.0       8.308
2014    9       14     5  46    5.17   480.8    1.0       8.362
2014    9       14     5  50    5.17   480.4    1.0       8.417
2014    9       14     5  55    5.17   480.0    1.0       8.472
2014    9       14     6   0    5.17   479.6    1.0       8.527
2014    9       14     6   5    5.17   479.3    1.0       8.583
2014    9       14     6   9    5.17   478.9    1.0       8.639
2014    9       14     6  14    5.17   478.5    1.0       8.696
2014    9       14     6  19    5.17   478.2    1.0       8.752
2014    9       14     6  23    5.18   477.8    1.0       8.809
2014    9       14     6  28    5.18   477.5    1.0       8.866
2014    9       14     6  33    5.18   477.1    1.0       8.924
2014    9       14     6  38    5.18   476.8    1.0       8.982
2014    9       14     6  42    5.18   476.4    1.0       9.040
2014    9       14     6  47    5.18   476.1    1.0       9.098
2014    9       14     6  52    5.18   475.7    1.0       9.157
2014    9       14     6  57    5.18   475.4    1.0       9.216
2014    9       14     7   1    5.18   475.1    1.0       9.275
2014    9       14     7   6    5.18   474.7    1.0       9.334
2014    9       14     7  11    5.19   474.4    1.0       9.394
2014    9       14     7  16    5.19   474.1    1.0       9.453
2014    9       14     7  20    5.19   473.7    1.0       9.513
2014    9       14     7  25    5.19   473.4    1.0       9.573
2014    9       14     7  30    5.19   473.1    1.0       9.634
2014    9       14     7  35    5.19   472.8    1.0       9.694
2014    9       14     7  39    5.19   472.4    1.0       9.755
2014    9       14     7  44    5.19   472.1    1.0       9.816
2014    9       14     7  49    5.19   471.8    1.0       9.876
2014    9       14     7  54    5.19   471.5    1.0       9.938
2014    9       14     7  58    5.20   471.2    1.0       9.999
2014    9       14     8   3    5.20   470.9    1.0      10.060
2014    9       14     8   8    5.20   470.6    1.0      10.122
2014    9       14     8  13    5.20   470.3    1.0      10.183
2014    9       14     8  17    5.20   470.0    1.0      10.245
2014    9       14     8  22    5.20   469.7    1.0      10.307
2014    9       14     8  27    5.20   469.4    1.0      10.369
2014    9       14     8  32    5.20   469.1    1.0      10.431
2014    9       14     8  36    5.20   468.8    1.0      10.493
2014    9       14     8  41    5.20   468.5    1.0      10.555
2014    9       14     8  46    5.20   468.2    1.0      10.617
2014    9       14     8  51    5.20   467.9    1.0      10.679
2014    9       14     8  55    5.21   467.6    1.0      10.741
2014    9       14     9   0    5.21   467.3    1.0      10.803
2014    9       14     9   5    5.21   467.0    1.0      10.866
2014    9       14     9   9    5.21   466.7    1.0      10.928
2014    9       14     9  14    5.21   466.5    1.0      10.991
2014    9       14     9  19    5.21   466.2    1.0      11.053
2014    9       14     9  24    5.21   465.9    1.0      11.115
2014    9       14     9  28    5.21   465.6    1.0      11.178
2014    9       14     9  33    5.21   465.3    1.0      11.240
2014    9       14     9  38    5.21   465.1    1.0      11.302
2014    9       14     9  43    5.21   464.8    1.0      11.365
2014    9       14     9  47    5.21   464.5    1.0      11.427
2014    9       14     9  52    5.22   464.3    1.0      11.489
2014    9       14     9  57    5.22   464.0    1.0      11.552
2014    9       14    10   2    5.22   463.7    1.0      11.614
2014    9       14    10   6    5.22   463.4    1.0      11.676
2014    9       14    10  11    5.22   463.2    1.0      11.738
2014    9       14    10  16    5.22   462.9    1.0      11.800
2014    9       14    10  21    5.22   462.7    1.0      11.862
2014    9       14    10  25    5.22   462.4    1.0      11.924
2014    9       14    10  30    5.22   462.1    1.0      11.986
2014    9       14    10  35    5.22   461.9    1.0      12.048
2014    9       14    10  40    5.22   461.6    1.0      12.110
2014    9       14    10  44    5.22   461.4    1.0      12.172
2014    9       14    10  49    5.22   461.1    1.0      12.233
2014    9       14    10  54    5.22   460.8    1.0      12.295
2014    9       14    10  59    5.23   460.6    1.0      12.357
2014    9       14    11   3    5.23   460.3    1.0      12.418
2014    9       14    11   8    5.23   460.1    1.0      12.480
2014    9       14    11  13    5.23   459.8    1.0      12.541
2014    9       14    11  18    5.23   459.6    1.0      12.602
2014    9       14    11  22    5.23   459.3    1.0      12.663
2014    9       14    11  27    5.23   459.1    1.0      12.725
2014    9       14    11  32    5.23   458.8    1.0      12.786
2014    9       14    11  37    5.23   458.6    1.0      12.847
2014    9       14    11  41    5.23   458.4    1.0      12.907
2014    9       14    11  46    5.23   458.1    1.0      12.968
2014    9       14    11  51    5.23   457.9    1.0      13.029
2014    9       14    11  56    5.23   457.6    1.0      13.089
2014    9       14    12   0    5.23   457.4    1.0      13.150
2014    9       14    12   5    5.23   457.1    1.0      13.210
2014    9       14    12  10    5.23   456.9    1.0      13.270
2014    9       14    12  14    5.23   456.7    1.0      13.330
2014    9       14    12  19    5.24   456.4    1.0      13.390
2014    9       14    12  24    5.24   456.2    1.0      13.450
2014    9       14    12  29    5.24   455.9    1.0      13.510
2014    9       14    12  33    5.24   455.7    1.0      13.570
2014    9       14    12  38    5.24   455.5    1.0      13.630
2014    9       14    12  43    5.24   455.2    1.0      13.689
2014    9       14    12  48    5.24   455.0    1.0      13.748
2014    9       14    12  52    5.24   454.8    1.0      13.808
2014    9       14    12  57    5.24   454.5    1.0      13.867
2014    9       14    13   2    5.24   454.3    1.0      13.926
2014    9       14    13   7    5.24   454.1    1.0      13.985
2014    9       14    13  11    5.24   453.8    1.0      14.043
2014    9       14    13  16    5.24   453.6    1.0      14.102
2014    9       14    13  21    5.24   453.4    1.0      14.160
2014    9       14    13  26    5.24   453.2    1.0      14.219
2014    9       14    13  30    5.24   452.9    1.0      14.277
2014    9       14    13  35    5.24   452.7    1.0      14.335
2014    9       14    13  40    5.24   452.5    1.0      14.393
2014    9       14    13  45    5.24   452.2    1.0      14.450
2014    9       14    13  49    5.24   452.0    1.0      14.508
2014    9       14    13  54    5.24   451.8    1.0      14.565
2014    9       14    13  59    5.24   451.6    1.0      14.623
2014    9       14    14   4    5.24   451.3    1.0      14.680
2014    9       14    14   8    5.25   451.1    1.0      14.737
2014    9       14    14  13    5.25   450.9    1.0      14.793
2014    9       14    14  18    5.25   450.7    1.0      14.850
2014    9       14    14  23    5.25   450.4    1.0      14.907
2014    9       14    14  27    5.25   450.2    1.0      14.963
2014    9       14    14  32    5.25   450.0    1.0      15.019
2014    9       14    14  37    5.25   449.8    1.0      15.075
2014    9       14    14  42    5.25   449.5    1.0      15.131
2014    9       14    14  46    5.25   449.3    1.0      15.186
2014    9       14    14  51    5.25   449.1    1.0      15.242
2014    9       14    14  56    5.25   448.9    1.1      15.297
2014    9       14    15   0    5.25   448.7    1.1      15.352
2014    9       14    15   5    5.25   448.4    1.1      15.407
2014    9       14    15  10    5.25   448.2    1.1      15.461
2014    9       14    15  15    5.25   448.0    1.1      15.516
2014    9       14    15  19    5.25   447.8    1.1      15.570
2014    9       14    15  24    5.25   447.6    1.1      15.624
2014    9       14    15  29    5.25   447.3    1.1      15.678
2014    9       14    15  34    5.25   447.1    1.1      15.732
2014    9       14    15  38    5.25   446.9    1.2      15.785
2014    9       14    15  43    5.25   446.7    1.2      15.838
2014    9       14    15  48    5.25   446.5    1.2      15.891
2014    9       14    15  53    5.25   446.3    1.2      15.944
2014    9       14    15  57    5.25   446.0    1.2      15.997
2014    9       14    16   2    5.25   445.8    1.2      16.049
2014    9       14    16   7    5.25   445.6    1.2      16.102
2014    9       14    16  12    5.25   445.4    1.2      16.154
2014    9       14    16  16    5.25   445.2    1.3      16.206
2014    9       14    16  21    5.25   445.0    1.3      16.258
2014    9       14    16  26    5.25   444.7    1.3      16.309
2014    9       14    16  31    5.25   444.5    1.3      16.361
2014    9       14    16  35    5.25   444.3    1.3      16.412
2014    9       14    16  40    5.25   444.1    1.3      16.463
2014    9       14    16  45    5.25   443.9    1.3      16.514
2014    9       14    16  50    5.25   443.7    1.3      16.565
2014    9       14    16  54    5.25   443.4    1.4      16.615
2014    9       14    16  59    5.25   443.2    1.4      16.666
2014    9       14    17   4    5.25   443.0    1.4      16.716
2014    9       14    17   9    5.25   442.8    1.4      16.766
2014    9       14    17  13    5.25   442.6    1.4      16.816
2014    9       14    17  18    5.25   442.4    1.4      16.866
2014    9       14    17  23    5.26   442.2    1.4      16.916
2014    9       14    17  28    5.26   441.9    1.5      16.965
2014    9       14    17  32    5.26   441.7    1.5      17.014
2014    9       14    17  37    5.26   441.5    1.5      17.064
2014    9       14    17  42    5.26   441.3    1.5      17.113
2014    9       14    17  47    5.26   441.1    1.5      17.162
2014    9       14    17  51    5.26   440.9    1.5      17.210
2014    9       14    17  56    5.26   440.7    1.5      17.259
2014    9       14    18   1    5.26   440.4    1.6      17.308
2014    9       14    18   5    5.26   440.2    1.6      17.356
2014    9       14    18  10    5.26   440.0    1.6      17.405
2014    9       14    18  15    5.26   439.8    1.6      17.453
2014    9       14    18  20    5.26   439.6    1.6      17.501
2014    9       14    18  24    5.26   439.4    1.6      17.549
2014    9       14    18  29    5.26   439.2    1.6      17.598
2014    9       14    18  34    5.26   439.0    1.7      17.646
2014    9       14    18  39    5.26   438.7    1.7      17.694
2014    9       14    18  43    5.26   438.5    1.7      17.741
2014    9       14    18  48    5.26   438.3    1.7      17.789
2014    9       14    18  53    5.26   438.1    1.7      17.837
2014    9       14    18  58    5.26   437.9    1.7      17.885
2014    9       14    19   2    5.26   437.7    1.7      17.932
2014    9       14    19   7    5.26   437.5    1.8      17.980
2014    9       14    19  12    5.26   437.3    1.8      18.028
2014    9       14    19  17    5.26   437.0    1.8      18.075
2014    9       14    19  21    5.26   436.8    1.8      18.123
2014    9       14    19  26    5.26   436.6    1.8      18.171
2014    9       14    19  31    5.26   436.4    1.8      18.218
2014    9       14    19  36    5.26   436.2    1.9      18.266
2014    9       14    19  40    5.26   436.0    1.9      18.314
2014    9       14    19  45    5.26   435.8    1.9      18.362
2014    9       14    19  50    5.26   435.6    1.9      18.410
2014    9       14    19  55    5.26   435.4    1.9      18.457
2014    9       14    19  59    5.26   435.2    1.9      18.505
2014    9       14    20   4    5.26   434.9    2.0      18.553
2014    9       14    20   9    5.26   434.7    2.0      18.602
2014    9       14    20  14    5.26   434.5    2.0      18.650
2014    9       14    20  18    5.26   434.3    2.0      18.698
2014    9       14    20  23    5.26   434.1    2.0      18.747
2014    9       14    20  28    5.26   433.9    2.0      18.795
2014    9       14    20  33    5.26   433.7    2.0      18.844
2014    9       14    20  37    5.26   433.5    2.1      18.892
2014    9       14    20  42    5.26   433.3    2.1      18.941
2014    9       14    20  47    5.26   433.1    2.1      18.990
2014    9       14    20  52    5.26   432.9    2.1      19.040
2014    9       14    20  56    5.26   432.7    2.1      19.089
2014    9       14    21   1    5.26   432.4    2.1      19.139
2014    9       14    21   6    5.27   432.2    2.2      19.188
2014    9       14    21  10    5.27   432.0    2.2      19.238
2014    9       14    21  15    5.27   431.8    2.2      19.288
2014    9       14    21  20    5.27   431.6    2.2      19.338
2014    9       14    21  25    5.27   431.4    2.2      19.389
2014    9       14    21  29    5.27   431.2    2.3      19.440
2014    9       14    21  34    5.27   431.0    2.3      19.491
2014    9       14    21  39    5.27   430.8    2.3      19.542
2014    9       14    21  44    5.27   430.6    2.3      19.593
2014    9       14    21  48    5.27   430.4    2.3      19.645
2014    9       14    21  53    5.27   430.2    2.3      19.697
2014    9       14    21  58    5.27   430.0    2.4      19.749
2014    9       14    22   3    5.27   429.8    2.4      19.802
2014    9       14    22   7    5.27   429.6    2.4      19.855
2014    9       14    22  12    5.27   429.4    2.4      19.908
2014    9       14    22  17    5.27   429.2    2.4      19.961
2014    9       14    22  22    5.27   429.0    2.4      20.015
2014    9       14    22  26    5.27   428.8    2.5      20.069
2014    9       14    22  31    5.27   428.6    2.5      20.123
2014    9       14    22  36    5.27   428.4    2.5      20.177
2014    9       14    22  41    5.27   428.2    2.5      20.233
2014    9       14    22  45    5.27   428.0    2.5      20.288
2014    9       14    22  50    5.27   427.8    2.6      20.343
2014    9       14    22  55    5.28   427.6    2.6      20.399
2014    9       14    23   0    5.28   427.4    2.6      20.456
2014    9       14    23   4    5.28   427.2    2.6      20.512
2014    9       14    23   9    5.28   427.0    2.6      20.569
2014    9       14    23  14    5.28   426.8    2.7      20.627
2014    9       14    23  19    5.28   426.6    2.7      20.685
2014    9       14    23  23    5.28   426.4    2.7      20.743
2014    9       14    23  28    5.28   426.2    2.7      20.801
2014    9       14    23  33    5.28   426.0    2.7      20.860
2014    9       14    23  37    5.28   425.8    2.7      20.920
2014    9       14    23  42    5.28   425.6    2.8      20.980
2014    9       14    23  47    5.28   425.4    2.8      21.040
2014    9       14    23  52    5.28   425.3    2.8      21.100
2014    9       14    23  56    5.28   425.1    2.8      21.161
2014    9       15     0   1    5.28   424.9    2.8      21.223
2014    9       15     0   6    5.28   424.7    2.9      21.285
2014    9       15     0  11    5.29   424.5    2.9      21.347
2014    9       15     0  15    5.29   424.3    2.9      21.409
2014    9       15     0  20    5.29   424.1    2.9      21.473
2014    9       15     0  25    5.29   423.9    2.9      21.536
2014    9       15     0  30    5.29   423.7    3.0      21.600
2014    9       15     0  34    5.29   423.6    3.0      21.664
2014    9       15     0  39    5.29   423.4    3.0      21.729
2014    9       15     0  44    5.29   423.2    3.0      21.794
2014    9       15     0  49    5.29   423.0    3.0      21.860
2014    9       15     0  53    5.29   422.8    3.1      21.926
2014    9       15     0  58    5.29   422.6    3.1      21.993
2014    9       15     1   3    5.29   422.5    3.1      22.060
2014    9       15     1   8    5.30   422.3    3.1      22.128
2014    9       15     1  12    5.30   422.1    3.2      22.195
2014    9       15     1  17    5.30   421.9    3.2      22.264
2014    9       15     1  22    5.30   421.7    3.2      22.333
2014    9       15     1  27    5.30   421.6    3.2      22.402
2014    9       15     1  31    5.30   421.4    3.2      22.472
2014    9       15     1  36    5.30   421.2    3.3      22.542
2014    9       15     1  41    5.30   421.0    3.3      22.613
2014    9       15     1  46    5.30   420.9    3.3      22.684
2014    9       15     1  50    5.30   420.7    3.3      22.756
2014    9       15     1  55    5.30   420.5    3.3      22.828
2014    9       15     2   0    5.31   420.3    3.4      22.900
2014    9       15     2   5    5.31   420.2    3.4      22.973
2014    9       15     2   9    5.31   420.0    3.4      23.046
2014    9       15     2  14    5.31   419.8    3.4      23.120
2014    9       15     2  19    5.31   419.6    3.5      23.195
2014    9       15     2  24    5.31   419.5    3.5      23.269
2014    9       15     2  28    5.31   419.3    3.5      23.345
2014    9       15     2  33    5.31   419.1    3.5      23.420
2014    9       15     2  38    5.31   419.0    3.5      23.496
2014    9       15     2  43    5.31   418.8    3.6      23.573
2014    9       15     2  47    5.32   418.6    3.6      23.650
2014    9       15     2  52    5.32   418.5    3.6      23.727
2014    9       15     2  57    5.32   418.3    3.6      23.805
2014    9       15     3   1    5.32   418.1    3.7      23.883
2014    9       15     3   6    5.32   418.0    3.7      23.962
2014    9       15     3  11    5.32   417.8    3.7      24.041
2014    9       15     3  16    5.32   417.6    3.7      24.120
2014    9       15     3  20    5.32   417.5    3.8      24.200
2014    9       15     3  25    5.33   417.3    3.8      24.281
2014    9       15     3  30    5.33   417.1    3.8      24.362
2014    9       15     3  35    5.33   417.0    3.8      24.443
2014    9       15     3  39    5.33   416.8    3.9      24.524
2014    9       15     3  44    5.33   416.6    3.9      24.606
2014    9       15     3  49    5.33   416.5    3.9      24.689
2014    9       15     3  54    5.33   416.3    3.9      24.771
2014    9       15     3  58    5.33   416.2    3.9      24.855
2014    9       15     4   3    5.34   416.0    4.0      24.938
2014    9       15     4   8    5.34   415.9    4.0      25.022
2014    9       15     4  13    5.34   415.7    4.0      25.106
2014    9       15     4  17    5.34   415.5    4.0      25.191
2014    9       15     4  22    5.34   415.4    4.1      25.276
2014    9       15     4  27    5.34   415.2    4.1      25.361
2014    9       15     4  32    5.34   415.1    4.1      25.447
2014    9       15     4  36    5.34   414.9    4.1      25.533
2014    9       15     4  41    5.35   414.8    4.2      25.620
2014    9       15     4  46    5.35   414.6    4.2      25.706
2014    9       15     4  51    5.35   414.4    4.2      25.793
2014    9       15     4  55    5.35   414.3    4.2      25.881
2014    9       15     5   0    5.35   414.1    4.3      25.968
2014    9       15     5   5    5.35   414.0    4.3      26.056
2014    9       15     5  10    5.35   413.8    4.3      26.145
2014    9       15     5  14    5.36   413.7    4.3      26.233
2014    9       15     5  19    5.36   413.5    4.4      26.322
2014    9       15     5  24    5.36   413.4    4.4      26.411
2014    9       15     5  29    5.36   413.2    4.4      26.501
2014    9       15     5  33    5.36   413.1    4.4      26.591
2014    9       15     5  38    5.36   412.9    4.5      26.681
2014    9       15     5  43    5.37   412.8    4.5      26.771
2014    9       15     5  47    5.37   412.6    4.5      26.862
2014    9       15     5  52    5.37   412.5    4.5      26.953
2014    9       15     5  57    5.37   412.3    4.6      27.044
2014    9       15     6   2    5.37   412.2    4.6      27.135
2014    9       15     6   6    5.37   412.0    4.6      27.227
2014    9       15     6  11    5.38   411.9    4.6      27.318
2014    9       15     6  16    5.38   411.7    4.7      27.411
2014    9       15     6  21    5.38   411.6    4.7      27.503
2014    9       15     6  25    5.38   411.4    4.7      27.596
2014    9       15     6  30    5.38   411.3    4.7      27.688
2014    9       15     6  35    5.38   411.1    4.8      27.781
2014    9       15     6  40    5.39   411.0    4.8      27.875
2014    9       15     6  44    5.39   410.9    4.8      27.968
2014    9       15     6  49    5.39   410.7    4.8      28.062
2014    9       15     6  54    5.39   410.6    4.9      28.156
2014    9       15     6  59    5.39   410.4    4.9      28.250
2014    9       15     7   3    5.40   410.3    4.9      28.344
2014    9       15     7   8    5.40   410.1    4.9      28.439
2014    9       15     7  13    5.40   410.0    5.0      28.533
2014    9       15     7  18    5.40   409.9    5.0      28.628
2014    9       15     7  22    5.40   409.7    5.0      28.723
2014    9       15     7  27    5.40   409.6    5.0      28.819
2014    9       15     7  32    5.41   409.4    5.1      28.914
2014    9       15     7  37    5.41   409.3    5.1      29.009
2014    9       15     7  41    5.41   409.1    5.1      29.105
2014    9       15     7  46    5.41   409.0    5.1      29.201
2014    9       15     7  51    5.41   408.9    5.2      29.297
2014    9       15     7  56    5.42   408.7    5.2      29.393
2014    9       15     8   0    5.42   408.6    5.2      29.490
2014    9       15     8   5    5.42   408.4    5.2      29.586
2014    9       15     8  10    5.42   408.3    5.3      29.683
2014    9       15     8  15    5.42   408.2    5.3      29.779
2014    9       15     8  19    5.43   408.0    5.3      29.876
2014    9       15     8  24    5.43   407.9    5.3      29.973
2014    9       15     8  29    5.43   407.7    5.4      30.070
2014    9       15     8  34    5.43   407.6    5.4      30.168
2014    9       15     8  38    5.44   407.5    5.4      30.265
2014    9       15     8  43    5.44   407.3    5.4      30.363
2014    9       15     8  48    5.44   407.2    5.5      30.460
2014    9       15     8  52    5.44   407.1    5.5      30.558
2014    9       15     8  57    5.44   406.9    5.5      30.656
2014    9       15     9   2    5.45   406.8    5.5      30.754
2014    9       15     9   7    5.45   406.6    5.6      30.852
2014    9       15     9  11    5.45   406.5    5.6      30.950
2014    9       15     9  16    5.45   406.4    5.6      31.048
2014    9       15     9  21    5.46   406.2    5.6      31.147
2014    9       15     9  26    5.46   406.1    5.7      31.245
2014    9       15     9  30    5.46   406.0    5.7      31.344
2014    9       15     9  35    5.46   405.8    5.7      31.443
2014    9       15     9  40    5.47   405.7    5.7      31.542
2014    9       15     9  45    5.47   405.6    5.7      31.641
2014    9       15     9  49    5.47   405.4    5.8      31.740
2014    9       15     9  54    5.47   405.3    5.8      31.839
2014    9       15     9  59    5.47   405.2    5.8      31.939
2014    9       15    10   4    5.48   405.0    5.8      32.038
2014    9       15    10   8    5.48   404.9    5.9      32.138
2014    9       15    10  13    5.48   404.8    5.9      32.237
2014    9       15    10  18    5.48   404.6    5.9      32.337
2014    9       15    10  23    5.49   404.5    5.9      32.437
2014    9       15    10  27    5.49   404.4    6.0      32.537
2014    9       15    10  32    5.49   404.2    6.0      32.637
2014    9       15    10  37    5.50   404.1    6.0      32.738
2014    9       15    10  42    5.50   404.0    6.0      32.838
2014    9       15    10  46    5.50   403.9    6.1      32.938
2014    9       15    10  51    5.50   403.7    6.1      33.039
2014    9       15    10  56    5.51   403.6    6.1      33.140
2014    9       15    11   1    5.51   403.5    6.1      33.240
2014    9       15    11   5    5.51   403.3    6.2      33.341
2014    9       15    11  10    5.51   403.2    6.2      33.442
2014    9       15    11  15    5.52   403.1    6.2      33.543
2014    9       15    11  20    5.52   402.9    6.2      33.645
2014    9       15    11  24    5.52   402.8    6.3      33.746
2014    9       15    11  29    5.52   402.7    6.3      33.847
2014    9       15    11  34    5.53   402.6    6.3      33.948
2014    9       15    11  38    5.53   402.4    6.3      34.050
2014    9       15    11  43    5.53   402.3    6.4      34.151
2014    9       15    11  48    5.54   402.2    6.4      34.253
2014    9       15    11  53    5.54   402.1    6.4      34.355
2014    9       15    11  57    5.54   401.9    6.4      34.456
2014    9       15    12   2    5.54   401.8    6.5      34.558
2014    9       15    12   7    5.55   401.7    6.5      34.660
2014    9       15    12  12    5.55   401.6    6.5      34.762
2014    9       15    12  16    5.55   401.4    6.5      34.864
2014    9       15    12  21    5.55   401.3    6.6      34.965
2014    9       15    12  26    5.56   401.2    6.6      35.067
2014    9       15    12  31    5.56   401.1    6.6      35.169
2014    9       15    12  35    5.56   400.9    6.6      35.271
2014    9       15    12  40    5.57   400.8    6.7      35.373
2014    9       15    12  45    5.57   400.7    6.7      35.475
2014    9       15    12  50    5.57   400.6    6.7      35.577
2014    9       15    12  54    5.57   400.5    6.7      35.679
2014    9       15    12  59    5.58   400.3    6.8      35.781
2014    9       15    13   4    5.58   400.2    6.8      35.883
2014    9       15    13   9    5.58   400.1    6.8      35.985
2014    9       15    13  13    5.59   400.0    6.8      36.087
2014    9       15    13  18    5.59   399.9    6.9      36.189
2014    9       15    13  23    5.59   399.7    6.9      36.291
2014    9       15    13  28    5.60   399.6    6.9      36.392
2014    9       15    13  32    5.60   399.5    6.9      36.494
2014    9       15    13  37    5.60   399.4    7.0      36.596
2014    9       15    13  42    5.60   399.3    7.0      36.697
2014    9       15    13  47    5.61   399.1    7.0      36.799
2014    9       15    13  51    5.61   399.0    7.0      36.900
2014    9       15    13  56    5.61   398.9    7.1      37.001
2014    9       15    14   1    5.62   398.8    7.1      37.103
2014    9       15    14   6    5.62   398.7    7.1      37.204
2014    9       15    14  10    5.62   398.6    7.1      37.305
2014    9       15    14  15    5.63   398.4    7.2      37.406
2014    9       15    14  20    5.63   398.3    7.2      37.507
2014    9       15    14  24    5.63   398.2    7.2      37.607
2014    9       15    14  29    5.63   398.1    7.3      37.708
2014    9       15    14  34    5.64   398.0    7.3      37.808
2014    9       15    14  39    5.64   397.9    7.3      37.908
2014    9       15    14  43    5.64   397.7    7.3      38.008
2014    9       15    14  48    5.65   397.6    7.4      38.109
2014    9       15    14  53    5.65   397.5    7.4      38.209
2014    9       15    14  58    5.65   397.4    7.4      38.309
2014    9       15    15   2    5.66   397.3    7.4      38.409
2014    9       15    15   7    5.66   397.2    7.5      38.509
2014    9       15    15  12    5.66   397.0    7.5      38.609
2014    9       15    15  17    5.67   396.9    7.5      38.709
2014    9       15    15  21    5.67   396.8    7.5      38.808
2014    9       15    15  26    5.67   396.7    7.6      38.908
2014    9       15    15  31    5.68   396.6    7.6      39.007
2014    9       15    15  36    5.68   396.5    7.6      39.105
2014    9       15    15  40    5.68   396.4    7.7      39.203
2014    9       15    15  45    5.69   396.2    7.7      39.301
2014    9       15    15  50    5.69   396.1    7.7      39.399
2014    9       15    15  55    5.69   396.0    7.7      39.496
2014    9       15    15  59    5.70   395.9    7.8      39.593
2014    9       15    16   4    5.70   395.8    7.8      39.690
2014    9       15    16   9    5.70   395.7    7.8      39.786
2014    9       15    16  14    5.71   395.6    7.8      39.882
2014    9       15    16  18    5.71   395.5    7.9      39.978
2014    9       15    16  23    5.71   395.4    7.9      40.075
2014    9       15    16  28    5.72   395.2    7.9      40.171
2014    9       15    16  33    5.72   395.1    8.0      40.267
2014    9       15    16  37    5.72   395.0    8.0      40.362
2014    9       15    16  42    5.73   394.9    8.0      40.458
2014    9       15    16  47    5.73   394.8    8.0      40.552
2014    9       15    16  52    5.74   394.7    8.1      40.646
2014    9       15    16  56    5.74   394.6    8.1      40.739
2014    9       15    17   1    5.74   394.5    8.1      40.832
2014    9       15    17   6    5.75   394.4    8.1      40.924
2014    9       15    17  11    5.75   394.3    8.2      41.015
2014    9       15    17  15    5.76   394.2    8.2      41.106
2014    9       15    17  20    5.76   394.1    8.2      41.196
2014    9       15    17  25    5.76   394.0    8.2      41.284
2014    9       15    17  29    5.77   393.9    8.3      41.372
2014    9       15    17  34    5.77   393.8    8.3      41.460
2014    9       15    17  39    5.78   393.6    8.3      41.546
2014    9       15    17  44    5.78   393.5    8.3      41.631
2014    9       15    17  48    5.79   393.4    8.4      41.716
2014    9       15    17  53    5.79   393.4    8.4      41.799
2014    9       15    17  58    5.79   393.3    8.4      41.881
2014    9       15    18   3    5.80   393.2    8.4      41.961
2014    9       15    18   7    5.80   393.1    8.5      42.040
2014    9       15    18  12    5.81   393.0    8.5      42.117
2014    9       15    18  17    5.81   392.9    8.5      42.193
2014    9       15    18  22    5.82   392.8    8.5      42.267
2014    9       15    18  26    5.82   392.7    8.6      42.339
2014    9       15    18  31    5.83   392.6    8.6      42.410
2014    9       15    18  36    5.84   392.5    8.6      42.480
2014    9       15    18  41    5.84   392.4    8.6      42.548
2014    9       15    18  45    5.85   392.4    8.6      42.614
2014    9       15    18  50    5.85   392.3    8.7      42.680
2014    9       15    18  55    5.86   392.2    8.7      42.743
2014    9       15    19   0    5.86   392.1    8.7      42.805
2014    9       15    19   4    5.87   392.0    8.7      42.866
2014    9       15    19   9    5.88   392.0    8.7      42.925
2014    9       15    19  14    5.88   391.9    8.8      42.983
2014    9       15    19  19    5.89   391.8    8.8      43.039
2014    9       15    19  23    5.89   391.7    8.8      43.094
2014    9       15    19  28    5.90   391.7    8.8      43.147
2014    9       15    19  33    5.91   391.6    8.8      43.200
2014    9       15    19  38    5.91   391.5    8.8      43.250
2014    9       15    19  42    5.92   391.5    8.9      43.300
2014    9       15    19  47    5.93   391.4    8.9      43.348
2014    9       15    19  52    5.93   391.3    8.9      43.395
2014    9       15    19  57    5.94   391.3    8.9      43.440
2014    9       15    20   1    5.95   391.2    8.9      43.484
2014    9       15    20   6    5.95   391.1    8.9      43.527
2014    9       15    20  11    5.96   391.1    9.0      43.569
2014    9       15    20  15    5.97   391.0    9.0      43.609
2014    9       15    20  20    5.98   390.9    9.0      43.648
2014    9       15    20  25    5.98   390.9    9.0      43.686
2014    9       15    20  30    5.99   390.8    9.0      43.723
2014    9       15    20  34    6.00   390.8    9.0      43.758
2014    9       15    20  39    6.00   390.7    9.0      43.792
2014    9       15    20  44    6.01   390.7    9.0      43.825
2014    9       15    20  49    6.02   390.6    9.1      43.857
2014    9       15    20  53    6.03   390.6    9.1      43.888
2014    9       15    20  58    6.03   390.5    9.1      43.917
2014    9       15    21   3    6.04   390.5    9.1      43.945
2014    9       15    21   8    6.05   390.4    9.1      43.972
2014    9       15    21  12    6.05   390.4    9.1      43.998
2014    9       15    21  17    6.06   390.3    9.1      44.023
2014    9       15    21  22    6.07   390.3    9.1      44.046
2014    9       15    21  27    6.07   390.3    9.1      44.068
2014    9       15    21  31    6.08   390.2    9.2      44.089
2014    9       15    21  36    6.09   390.2    9.2      44.109
2014    9       15    21  41    6.10   390.1    9.2      44.128
2014    9       15    21  46    6.10   390.1    9.2      44.146
2014    9       15    21  50    6.11   390.1    9.2      44.162
2014    9       15    21  55    6.12   390.0    9.2      44.177
2014    9       15    22   0    6.12   390.0    9.2      44.192
2014    9       15    22   5    6.13   390.0    9.2      44.205
2014    9       15    22   9    6.14   390.0    9.2      44.217
2014    9       15    22  14    6.14   389.9    9.2      44.228
2014    9       15    22  19    6.15   389.9    9.2      44.238
2014    9       15    22  24    6.16   389.9    9.2      44.246
2014    9       15    22  28    6.16   389.9    9.2      44.254
2014    9       15    22  33    6.17   389.8    9.2      44.261
2014    9       15    22  38    6.18   389.8    9.2      44.266
2014    9       15    22  43    6.18   389.8    9.2      44.271
2014    9       15    22  47    6.19   389.8    9.2      44.275
2014    9       15    22  52    6.20   389.8    9.2      44.277
2014    9       15    22  57    6.20   389.8    9.2      44.279
2014    9       15    23   2    6.21   389.7    9.2      44.279
2014    9       15    23   6    6.22   389.7    9.2      44.279
2014    9       15    23  11    6.22   389.7    9.2      44.278
2014    9       15    23  16    6.23   389.7    9.3      44.276
2014    9       15    23  20    6.24   389.7    9.3      44.272
2014    9       15    23  25    6.24   389.7    9.3      44.268
2014    9       15    23  30    6.25   389.7    9.3      44.263
2014    9       15    23  35    6.25   389.7    9.3      44.258
2014    9       15    23  39    6.26   389.7    9.3      44.251
2014    9       15    23  44    6.27   389.7    9.2      44.243
2014    9       15    23  49    6.27   389.7    9.2      44.235
2014    9       15    23  54    6.28   389.7    9.2      44.226
2014    9       15    23  58    6.29   389.7    9.2      44.216
2014    9       16     0   3    6.29   389.7    9.2      44.205
2014    9       16     0   8    6.30   389.7    9.2      44.194
2014    9       16     0  13    6.31   389.7    9.2      44.182
2014    9       16     0  17    6.31   389.7    9.2      44.169
2014    9       16     0  22    6.32   389.7    9.2      44.155
2014    9       16     0  27    6.33   389.7    9.2      44.141
2014    9       16     0  32    6.33   389.7    9.2      44.126
2014    9       16     0  36    6.34   389.7    9.2      44.111
2014    9       16     0  41    6.34   389.7    9.2      44.095
2014    9       16     0  46    6.35   389.7    9.2      44.078
2014    9       16     0  51    6.36   389.7    9.2      44.061
2014    9       16     0  55    6.36   389.7    9.2      44.043
2014    9       16     1   0    6.37   389.7    9.2      44.025
2014    9       16     1   5    6.38   389.7    9.2      44.006
2014    9       16     1  10    6.38   389.7    9.2      43.986
2014    9       16     1  14    6.39   389.8    9.2      43.967
2014    9       16     1  19    6.40   389.8    9.2      43.947
2014    9       16     1  24    6.40   389.8    9.2      43.926
2014    9       16     1  29    6.41   389.8    9.2      43.905
2014    9       16     1  33    6.42   389.8    9.2      43.884
2014    9       16     1  38    6.42   389.8    9.2      43.862
2014    9       16     1  43    6.43   389.8    9.2      43.840
2014    9       16     1  48    6.44   389.8    9.1      43.817
2014    9       16     1  52    6.44   389.9    9.1      43.794
2014    9       16     1  57    6.45   389.9    9.1      43.771
2014    9       16     2   2    6.46   389.9    9.1      43.748
2014    9       16     2   6    6.46   389.9    9.1      43.724
2014    9       16     2  11    6.47   389.9    9.1      43.700
2014    9       16     2  16    6.48   389.9    9.1      43.676
2014    9       16     2  21    6.48   389.9    9.1      43.651
2014    9       16     2  25    6.49   389.9    9.1      43.627
2014    9       16     2  30    6.50   390.0    9.1      43.602
2014    9       16     2  35    6.50   390.0    9.1      43.577
2014    9       16     2  40    6.51   390.0    9.1      43.552
2014    9       16     2  44    6.52   390.0    9.1      43.526
2014    9       16     2  49    6.52   390.0    9.1      43.501
2014    9       16     2  54    6.53   390.0    9.0      43.475
2014    9       16     2  59    6.54   390.1    9.0      43.449
2014    9       16     3   3    6.54   390.1    9.0      43.423
2014    9       16     3   8    6.55   390.1    9.0      43.397
2014    9       16     3  13    6.56   390.1    9.0      43.371
2014    9       16     3  18    6.56   390.1    9.0      43.345
2014    9       16     3  22    6.57   390.1    9.0      43.319
2014    9       16     3  27    6.58   390.2    9.0      43.293
2014    9       16     3  32    6.58   390.2    9.0      43.266
2014    9       16     3  37    6.59   390.2    9.0      43.240
2014    9       16     3  41    6.59   390.2    9.0      43.214
2014    9       16     3  46    6.60   390.2    9.0      43.187
2014    9       16     3  51    6.61   390.2    9.0      43.161
2014    9       16     3  56    6.61   390.3    9.0      43.135
2014    9       16     4   0    6.62   390.3    8.9      43.108
2014    9       16     4   5    6.63   390.3    8.9      43.082
2014    9       16     4  10    6.63   390.3    8.9      43.056
2014    9       16     4  15    6.64   390.3    8.9      43.029
2014    9       16     4  19    6.65   390.3    8.9      43.003
2014    9       16     4  24    6.65   390.4    8.9      42.977
2014    9       16     4  29    6.66   390.4    8.9      42.950
2014    9       16     4  34    6.66   390.4    8.9      42.924
2014    9       16     4  38    6.67   390.4    8.9      42.898
2014    9       16     4  43    6.68   390.4    8.9      42.872
2014    9       16     4  48    6.68   390.4    8.9      42.846
2014    9       16     4  52    6.69   390.4    8.9      42.820
2014    9       16     4  57    6.69   390.5    8.9      42.794
2014    9       16     5   2    6.70   390.5    8.8      42.768
2014    9       16     5   7    6.70   390.5    8.8      42.742
2014    9       16     5  11    6.71   390.5    8.8      42.717
2014    9       16     5  16    6.72   390.5    8.8      42.691
2014    9       16     5  21    6.72   390.5    8.8      42.666
2014    9       16     5  26    6.73   390.6    8.8      42.641
2014    9       16     5  30    6.73   390.6    8.8      42.616
2014    9       16     5  35    6.74   390.6    8.8      42.591
2014    9       16     5  40    6.74   390.6    8.8      42.566
2014    9       16     5  45    6.75   390.6    8.8      42.542
2014    9       16     5  49    6.75   390.6    8.8      42.517
2014    9       16     5  54    6.76   390.7    8.8      42.493
2014    9       16     5  59    6.77   390.7    8.8      42.469
2014    9       16     6   4    6.77   390.7    8.7      42.445
2014    9       16     6   8    6.78   390.7    8.7      42.422
2014    9       16     6  13    6.78   390.7    8.7      42.398
2014    9       16     6  18    6.79   390.7    8.7      42.375
2014    9       16     6  23    6.79   390.8    8.7      42.352
2014    9       16     6  27    6.80   390.8    8.7      42.330
2014    9       16     6  32    6.80   390.8    8.7      42.307
2014    9       16     6  37    6.81   390.8    8.7      42.285
2014    9       16     6  42    6.81   390.8    8.7      42.264
2014    9       16     6  46    6.82   390.9    8.7      42.242
2014    9       16     6  51    6.82   390.9    8.7      42.221
2014    9       16     6  56    6.83   390.9    8.7      42.200
2014    9       16     7   1    6.83   390.9    8.7      42.179
2014    9       16     7   5    6.83   390.9    8.7      42.158
2014    9       16     7  10    6.84   390.9    8.7      42.138
2014    9       16     7  15    6.84   391.0    8.7      42.118
2014    9       16     7  20    6.85   391.0    8.6      42.099
2014    9       16     7  24    6.85   391.0    8.6      42.079
2014    9       16     7  29    6.86   391.0    8.6      42.060
2014    9       16     7  34    6.86   391.0    8.6      42.041
2014    9       16     7  39    6.87   391.1    8.6      42.023
2014    9       16     7  43    6.87   391.1    8.6      42.004
2014    9       16     7  48    6.87   391.1    8.6      41.986
2014    9       16     7  53    6.88   391.1    8.6      41.969
2014    9       16     7  58    6.88   391.1    8.6      41.951
2014    9       16     8   2    6.89   391.1    8.6      41.934
2014    9       16     8   7    6.89   391.2    8.6      41.917
2014    9       16     8  12    6.89   391.2    8.6      41.900
2014    9       16     8  16    6.90   391.2    8.6      41.884
2014    9       16     8  21    6.90   391.2    8.6      41.868
2014    9       16     8  26    6.91   391.2    8.6      41.852
2014    9       16     8  31    6.91   391.3    8.6      41.836
2014    9       16     8  35    6.91   391.3    8.6      41.821
2014    9       16     8  40    6.92   391.3    8.6      41.805
2014    9       16     8  45    6.92   391.3    8.6      41.790
2014    9       16     8  50    6.93   391.3    8.5      41.776
2014    9       16     8  54    6.93   391.3    8.5      41.761
2014    9       16     8  59    6.93   391.4    8.5      41.747
2014    9       16     9   4    6.94   391.4    8.5      41.733
2014    9       16     9   9    6.94   391.4    8.5      41.719
2014    9       16     9  13    6.94   391.4    8.5      41.706
2014    9       16     9  18    6.95   391.4    8.5      41.692
2014    9       16     9  23    6.95   391.4    8.5      41.679
2014    9       16     9  28    6.95   391.5    8.5      41.667
2014    9       16     9  32    6.96   391.5    8.5      41.654
2014    9       16     9  37    6.96   391.5    8.5      41.642
2014    9       16     9  42    6.96   391.5    8.5      41.630
2014    9       16     9  47    6.97   391.5    8.5      41.618
2014    9       16     9  51    6.97   391.5    8.5      41.606
2014    9       16     9  56    6.97   391.6    8.5      41.595
2014    9       16    10   1    6.98   391.6    8.5      41.584
2014    9       16    10   6    6.98   391.6    8.5      41.573
2014    9       16    10  10    6.98   391.6    8.5      41.563
2014    9       16    10  15    6.99   391.6    8.5      41.553
2014    9       16    10  20    6.99   391.6    8.5      41.543
2014    9       16    10  25    6.99   391.6    8.5      41.533
2014    9       16    10  29    7.00   391.7    8.5      41.524
2014    9       16    10  34    7.00   391.7    8.5      41.515
2014    9       16    10  39    7.00   391.7    8.5      41.506
2014    9       16    10  44    7.01   391.7    8.5      41.497
2014    9       16    10  48    7.01   391.7    8.5      41.489
2014    9       16    10  53    7.01   391.7    8.5      41.481
2014    9       16    10  58    7.02   391.7    8.5      41.474
2014    9       16    11   2    7.02   391.8    8.5      41.466
2014    9       16    11   7    7.02   391.8    8.5      41.459
2014    9       16    11  12    7.02   391.8    8.5      41.453
2014    9       16    11  17    7.03   391.8    8.5      41.446
2014    9       16    11  21    7.03   391.8    8.5      41.440
2014    9       16    11  26    7.03   391.8    8.5      41.435
2014    9       16    11  31    7.04   391.8    8.5      41.429
2014    9       16    11  36    7.04   391.8    8.5      41.424
2014    9       16    11  40    7.04   391.9    8.5      41.419
2014    9       16    11  45    7.04   391.9    8.5      41.415
2014    9       16    11  50    7.05   391.9    8.5      41.410
2014    9       16    11  55    7.05   391.9    8.5      41.407
2014    9       16    11  59    7.05   391.9    8.4      41.403
2014    9       16    12   4    7.06   391.9    8.4      41.400
2014    9       16    12   9    7.06   391.9    8.4      41.397
2014    9       16    12  14    7.06   391.9    8.4      41.394
2014    9       16    12  18    7.06   392.0    8.4      41.392
2014    9       16    12  23    7.07   392.0    8.4      41.389
2014    9       16    12  28    7.07   392.0    8.4      41.387
2014    9       16    12  33    7.07   392.0    8.4      41.386
2014    9       16    12  37    7.08   392.0    8.4      41.384
2014    9       16    12  42    7.08   392.0    8.4      41.383
2014    9       16    12  47    7.08   392.0    8.4      41.382
2014    9       16    12  52    7.08   392.0    8.4      41.381
2014    9       16    12  56    7.09   392.1    8.4      41.381
2014    9       16    13   1    7.09   392.1    8.4      41.380
2014    9       16    13   6    7.09   392.1    8.4      41.380
2014    9       16    13  11    7.09   392.1    8.4      41.380
2014    9       16    13  15    7.10   392.1    8.4      41.380
2014    9       16    13  20    7.10   392.1    8.4      41.381
2014    9       16    13  25    7.10   392.1    8.4      41.381
2014    9       16    13  30    7.11   392.1    8.4      41.382
2014    9       16    13  34    7.11   392.1    8.4      41.383
2014    9       16    13  39    7.11   392.2    8.4      41.383
2014    9       16    13  44    7.11   392.2    8.4      41.384
2014    9       16    13  49    7.12   392.2    8.4      41.385
2014    9       16    13  53    7.12   392.2    8.4      41.386
2014    9       16    13  58    7.12   392.2    8.4      41.388
2014    9       16    14   3    7.12   392.2    8.4      41.389
2014    9       16    14   7    7.13   392.2    8.4      41.391
2014    9       16    14  12    7.13   392.2    8.4      41.392
2014    9       16    14  17    7.13   392.2    8.4      41.394
2014    9       16    14  22    7.13   392.2    8.4      41.395
2014    9       16    14  26    7.14   392.3    8.4      41.397
2014    9       16    14  31    7.14   392.3    8.4      41.398
2014    9       16    14  36    7.14   392.3    8.4      41.400
2014    9       16    14  41    7.14   392.3    8.4      41.402
2014    9       16    14  45    7.15   392.3    8.4      41.403
2014    9       16    14  50    7.15   392.3    8.4      41.405
2014    9       16    14  55    7.15   392.3    8.4      41.407
2014    9       16    15   0    7.15   392.3    8.4      41.409
2014    9       16    15   4    7.16   392.3    8.5      41.411
2014    9       16    15   9    7.16   392.3    8.5      41.413
2014    9       16    15  14    7.16   392.3    8.5      41.414
2014    9       16    15  19    7.16   392.3    8.5      41.416
2014    9       16    15  23    7.17   392.4    8.5      41.418
2014    9       16    15  28    7.17   392.4    8.5      41.420
2014    9       16    15  33    7.17   392.4    8.5      41.422
2014    9       16    15  38    7.17   392.4    8.5      41.424
2014    9       16    15  42    7.18   392.4    8.5      41.426
2014    9       16    15  47    7.18   392.4    8.5      41.428
2014    9       16    15  52    7.18   392.4    8.5      41.430
2014    9       16    15  57    7.19   392.4    8.5      41.432
2014    9       16    16   1    7.19   392.4    8.5      41.434
2014    9       16    16   6    7.19   392.4    8.5      41.436
2014    9       16    16  11    7.19   392.4    8.5      41.438
2014    9       16    16  16    7.20   392.4    8.5      41.441
2014    9       16    16  20    7.20   392.4    8.5      41.443
2014    9       16    16  25    7.20   392.4    8.5      41.445
2014    9       16    16  30    7.20   392.4    8.5      41.447
2014    9       16    16  35    7.21   392.5    8.5      41.450
2014    9       16    16  39    7.21   392.5    8.5      41.452
2014    9       16    16  44    7.21   392.5    8.5      41.454
2014    9       16    16  49    7.21   392.5    8.5      41.457
2014    9       16    16  53    7.22   392.5    8.5      41.459
2014    9       16    16  58    7.22   392.5    8.5      41.462
2014    9       16    17   3    7.22   392.5    8.5      41.464
2014    9       16    17   8    7.23   392.5    8.5      41.467
2014    9       16    17  12    7.23   392.5    8.5      41.469
2014    9       16    17  17    7.23   392.5    8.5      41.472
2014    9       16    17  22    7.23   392.5    8.5      41.475
2014    9       16    17  27    7.24   392.5    8.5      41.477
2014    9       16    17  31    7.24   392.5    8.5      41.480
2014    9       16    17  36    7.24   392.5    8.5      41.483
2014    9       16    17  41    7.24   392.5    8.5      41.486
2014    9       16    17  46    7.25   392.6    8.5      41.489
2014    9       16    17  50    7.25   392.6    8.5      41.492
2014    9       16    17  55    7.25   392.6    8.5      41.494
2014    9       16    18   0    7.26   392.6    8.5      41.497
2014    9       16    18   5    7.26   392.6    8.5      41.500
2014    9       16    18   9    7.26   392.6    8.5      41.504
2014    9       16    18  14    7.26   392.6    8.5      41.507
2014    9       16    18  19    7.27   392.6    8.5      41.510
2014    9       16    18  24    7.27   392.6    8.5      41.513
2014    9       16    18  28    7.27   392.6    8.5      41.516
2014    9       16    18  33    7.28   392.6    8.5      41.519
2014    9       16    18  38    7.28   392.6    8.5      41.522
2014    9       16    18  43    7.28   392.6    8.5      41.526
2014    9       16    18  47    7.28   392.7    8.5      41.529
2014    9       16    18  52    7.29   392.7    8.5      41.532
2014    9       16    18  57    7.29   392.7    8.5      41.535
2014    9       16    19   2    7.29   392.7    8.5      41.539
2014    9       16    19   6    7.29   392.7    8.5      41.542
2014    9       16    19  11    7.30   392.7    8.5      41.545
2014    9       16    19  16    7.30   392.7    8.5      41.549
2014    9       16    19  21    7.30   392.7    8.5      41.552
2014    9       16    19  25    7.31   392.7    8.5      41.556
2014    9       16    19  30    7.31   392.7    8.5      41.559
2014    9       16    19  35    7.31   392.7    8.5      41.562
2014    9       16    19  39    7.31   392.7    8.5      41.566
2014    9       16    19  44    7.32   392.7    8.5      41.569
2014    9       16    19  49    7.32   392.8    8.5      41.573
2014    9       16    19  54    7.32   392.8    8.5      41.576
2014    9       16    19  58    7.33   392.8    8.5      41.580
2014    9       16    20   3    7.33   392.8    8.5      41.583
2014    9       16    20   8    7.33   392.8    8.5      41.587
2014    9       16    20  13    7.33   392.8    8.5      41.590
2014    9       16    20  17    7.34   392.8    8.5      41.594
2014    9       16    20  22    7.34   392.8    8.5      41.598
2014    9       16    20  27    7.34   392.8    8.5      41.602
2014    9       16    20  32    7.34   392.8    8.5      41.605
2014    9       16    20  36    7.35   392.8    8.5      41.609
2014    9       16    20  41    7.35   392.8    8.5      41.613
2014    9       16    20  46    7.35   392.8    8.5      41.617
2014    9       16    20  51    7.35   392.8    8.5      41.620
2014    9       16    20  55    7.36   392.9    8.5      41.624
2014    9       16    21   0    7.36   392.9    8.5      41.629
2014    9       16    21   5    7.36   392.9    8.5      41.633
2014    9       16    21  10    7.37   392.9    8.5      41.637
2014    9       16    21  14    7.37   392.9    8.5      41.641
2014    9       16    21  19    7.37   392.9    8.5      41.645
2014    9       16    21  24    7.37   392.9    8.5      41.649
2014    9       16    21  29    7.38   392.9    8.5      41.654
2014    9       16    21  33    7.38   392.9    8.5      41.658
2014    9       16    21  38    7.38   392.9    8.5      41.662
2014    9       16    21  43    7.38   392.9    8.5      41.667
2014    9       16    21  48    7.39   392.9    8.5      41.671
2014    9       16    21  52    7.39   392.9    8.5      41.676
2014    9       16    21  57    7.39   393.0    8.5      41.681
2014    9       16    22   2    7.39   393.0    8.5      41.685
2014    9       16    22   7    7.40   393.0    8.5      41.690
2014    9       16    22  11    7.40   393.0    8.5      41.695
2014    9       16    22  16    7.40   393.0    8.5      41.700
2014    9       16    22  21    7.40   393.0    8.5      41.705
2014    9       16    22  26    7.41   393.0    8.5      41.710
2014    9       16    22  30    7.41   393.0    8.5      41.716
2014    9       16    22  35    7.41   393.0    8.5      41.721
2014    9       16    22  40    7.42   393.0    8.5      41.726
2014    9       16    22  45    7.42   393.0    8.5      41.732
2014    9       16    22  49    7.42   393.0    8.5      41.737
2014    9       16    22  54    7.42   393.1    8.5      41.743
2014    9       16    22  59    7.43   393.1    8.5      41.749
2014    9       16    23   3    7.43   393.1    8.5      41.754
2014    9       16    23   8    7.43   393.1    8.5      41.760
2014    9       16    23  13    7.43   393.1    8.5      41.766
2014    9       16    23  18    7.44   393.1    8.5      41.772
2014    9       16    23  22    7.44   393.1    8.5      41.778
2014    9       16    23  27    7.44   393.1    8.5      41.785
2014    9       16    23  32    7.44   393.1    8.5      41.791
2014    9       16    23  37    7.45   393.1    8.5      41.797
2014    9       16    23  41    7.45   393.1    8.5      41.804
2014    9       16    23  46    7.45   393.2    8.6      41.810
2014    9       16    23  51    7.45   393.2    8.6      41.817
2014    9       16    23  56    7.46   393.2    8.6      41.824
2014    9       17     0   0    7.46   393.2    8.6      41.831
2014    9       17     0   5    7.46   393.2    8.6      41.839
2014    9       17     0  10    7.47   393.2    8.6      41.847
2014    9       17     0  15    7.47   393.2    8.6      41.855
2014    9       17     0  19    7.47   393.2    8.6      41.864
2014    9       17     0  24    7.47   393.2    8.6      41.873
2014    9       17     0  29    7.48   393.3    8.6      41.881
2014    9       17     0  34    7.48   393.3    8.6      41.890
2014    9       17     0  38    7.48   393.3    8.6      41.899
2014    9       17     0  43    7.49   393.3    8.6      41.907
2014    9       17     0  48    7.49   393.3    8.6      41.916
2014    9       17     0  53    7.49   393.3    8.6      41.925
2014    9       17     0  57    7.50   393.3    8.6      41.935
2014    9       17     1   2    7.50   393.3    8.6      41.944
2014    9       17     1   7    7.50   393.4    8.6      41.953
2014    9       17     1  12    7.51   393.4    8.6      41.962
2014    9       17     1  16    7.51   393.4    8.6      41.971
2014    9       17     1  21    7.51   393.4    8.6      41.981
2014    9       17     1  26    7.52   393.4    8.6      41.990
2014    9       17     1  30    7.52   393.4    8.6      42.000
2014    9       17     1  35    7.52   393.4    8.6      42.010
2014    9       17     1  40    7.52   393.4    8.6      42.019
2014    9       17     1  45    7.53   393.5    8.6      42.029
2014    9       17     1  49    7.53   393.5    8.6      42.039
2014    9       17     1  54    7.53   393.5    8.6      42.048
2014    9       17     1  59    7.54   393.5    8.6      42.058
2014    9       17     2   4    7.54   393.5    8.6      42.069
2014    9       17     2   8    7.54   393.5    8.6      42.079
2014    9       17     2  13    7.55   393.5    8.6      42.089
2014    9       17     2  18    7.55   393.6    8.6      42.099
2014    9       17     2  23    7.55   393.6    8.6      42.109
2014    9       17     2  27    7.56   393.6    8.6      42.120
2014    9       17     2  32    7.56   393.6    8.6      42.130
2014    9       17     2  37    7.56   393.6    8.6      42.140
2014    9       17     2  42    7.56   393.6    8.6      42.151
2014    9       17     2  46    7.57   393.6    8.7      42.161
2014    9       17     2  51    7.57   393.7    8.7      42.172
2014    9       17     2  56    7.57   393.7    8.7      42.183
2014    9       17     3   1    7.58   393.7    8.7      42.193
2014    9       17     3   5    7.58   393.7    8.7      42.204
2014    9       17     3  10    7.58   393.7    8.7      42.215
2014    9       17     3  15    7.59   393.7    8.7      42.226
2014    9       17     3  20    7.59   393.8    8.7      42.237
2014    9       17     3  24    7.59   393.8    8.7      42.248
2014    9       17     3  29    7.60   393.8    8.7      42.260
2014    9       17     3  34    7.60   393.8    8.7      42.271
2014    9       17     3  39    7.60   393.8    8.7      42.283
2014    9       17     3  43    7.60   393.8    8.7      42.294
2014    9       17     3  48    7.61   393.9    8.7      42.306
2014    9       17     3  53    7.61   393.9    8.7      42.318
2014    9       17     3  58    7.61   393.9    8.7      42.331
2014    9       17     4   2    7.62   393.9    8.7      42.343
2014    9       17     4   7    7.62   393.9    8.7      42.355
2014    9       17     4  12    7.62   394.0    8.7      42.368
2014    9       17     4  17    7.63   394.0    8.7      42.380
2014    9       17     4  21    7.63   394.0    8.7      42.392
2014    9       17     4  26    7.63   394.0    8.7      42.405
2014    9       17     4  31    7.63   394.0    8.7      42.417
2014    9       17     4  36    7.64   394.1    8.7      42.429
2014    9       17     4  40    7.64   394.1    8.7      42.441
2014    9       17     4  45    7.64   394.1    8.7      42.453
2014    9       17     4  50    7.65   394.1    8.7      42.465
2014    9       17     4  54    7.65   394.1    8.7      42.477
2014    9       17     4  59    7.65   394.1    8.7      42.489
2014    9       17     5   4    7.66   394.2    8.7      42.500
2014    9       17     5   9    7.66   394.2    8.7      42.512
2014    9       17     5  13    7.66   394.2    8.7      42.523
2014    9       17     5  18    7.66   394.2    8.7      42.535
2014    9       17     5  23    7.67   394.2    8.7      42.547
2014    9       17     5  28    7.67   394.3    8.8      42.558
2014    9       17     5  32    7.67   394.3    8.8      42.569
2014    9       17     5  37    7.68   394.3    8.8      42.581
2014    9       17     5  42    7.68   394.3    8.8      42.592
2014    9       17     5  47    7.68   394.4    8.8      42.604
2014    9       17     5  51    7.68   394.4    8.8      42.615
2014    9       17     5  56    7.69   394.4    8.8      42.627
2014    9       17     6   1    7.69   394.4    8.8      42.638
2014    9       17     6   6    7.69   394.4    8.8      42.650
2014    9       17     6  10    7.70   394.5    8.8      42.661
2014    9       17     6  15    7.70   394.5    8.8      42.673
2014    9       17     6  20    7.70   394.5    8.8      42.684
2014    9       17     6  25    7.71   394.5    8.8      42.696
2014    9       17     6  29    7.71   394.5    8.8      42.708
2014    9       17     6  34    7.71   394.6    8.8      42.719
2014    9       17     6  39    7.71   394.6    8.8      42.731
2014    9       17     6  44    7.72   394.6    8.8      42.743
2014    9       17     6  48    7.72   394.6    8.8      42.755
2014    9       17     6  53    7.72   394.7    8.8      42.767
2014    9       17     6  58    7.73   394.7    8.8      42.779
2014    9       17     7   3    7.73   394.7    8.8      42.791
2014    9       17     7   7    7.73   394.7    8.8      42.803
2014    9       17     7  12    7.74   394.7    8.8      42.815
2014    9       17     7  17    7.74   394.8    8.8      42.828
2014    9       17     7  22    7.74   394.8    8.8      42.840
2014    9       17     7  26    7.75   394.8    8.8      42.853
2014    9       17     7  31    7.75   394.8    8.8      42.865
2014    9       17     7  36    7.75   394.9    8.8      42.878
2014    9       17     7  40    7.75   394.9    8.8      42.892
2014    9       17     7  45    7.76   394.9    8.8      42.905
2014    9       17     7  50    7.76   394.9    8.8      42.918
2014    9       17     7  55    7.76   395.0    8.8      42.932
2014    9       17     7  59    7.77   395.0    8.8      42.946
2014    9       17     8   4    7.77   395.0    8.8      42.960
2014    9       17     8   9    7.77   395.0    8.8      42.974
2014    9       17     8  14    7.78   395.1    8.8      42.988
2014    9       17     8  18    7.78   395.1    8.9      43.003
2014    9       17     8  23    7.78   395.1    8.9      43.018
2014    9       17     8  28    7.79   395.2    8.9      43.032
2014    9       17     8  33    7.79   395.2    8.9      43.048
2014    9       17     8  37    7.79   395.2    8.9      43.063
2014    9       17     8  42    7.80   395.2    8.9      43.078
2014    9       17     8  47    7.80   395.3    8.9      43.094
2014    9       17     8  52    7.80   395.3    8.9      43.110
2014    9       17     8  56    7.81   395.3    8.9      43.126
2014    9       17     9   1    7.81   395.4    8.9      43.142
2014    9       17     9   6    7.81   395.4    8.9      43.159
2014    9       17     9  11    7.82   395.4    8.9      43.175
2014    9       17     9  15    7.82   395.5    8.9      43.192
2014    9       17     9  20    7.82   395.5    8.9      43.209
2014    9       17     9  25    7.83   395.5    8.9      43.226
2014    9       17     9  30    7.83   395.6    8.9      43.243
2014    9       17     9  34    7.83   395.6    8.9      43.261
2014    9       17     9  39    7.84   395.6    8.9      43.278
2014    9       17     9  44    7.84   395.7    8.9      43.296
2014    9       17     9  49    7.85   395.7    8.9      43.313
2014    9       17     9  53    7.85   395.8    8.9      43.331
2014    9       17     9  58    7.85   395.8    8.9      43.349
2014    9       17    10   3    7.86   395.8    8.9      43.367
2014    9       17    10   8    7.86   395.9    8.9      43.385
2014    9       17    10  12    7.86   395.9    8.9      43.402
2014    9       17    10  17    7.87   395.9    8.9      43.420
2014    9       17    10  22    7.87   396.0    8.9      43.438
2014    9       17    10  26    7.87   396.0    8.9      43.456
2014    9       17    10  31    7.88   396.0    8.9      43.474
2014    9       17    10  36    7.88   396.1    9.0      43.492
2014    9       17    10  41    7.88   396.1    9.0      43.511
2014    9       17    10  45    7.89   396.2    9.0      43.529
2014    9       17    10  50    7.89   396.2    9.0      43.547
2014    9       17    10  55    7.89   396.2    9.0      43.565
2014    9       17    11   0    7.90   396.3    9.0      43.582
2014    9       17    11   4    7.90   396.3    9.0      43.600
2014    9       17    11   9    7.90   396.3    9.0      43.618
2014    9       17    11  14    7.91   396.4    9.0      43.636
2014    9       17    11  19    7.91   396.4    9.0      43.654
2014    9       17    11  23    7.92   396.5    9.0      43.672
2014    9       17    11  28    7.92   396.5    9.0      43.690
2014    9       17    11  33    7.92   396.5    9.0      43.708
2014    9       17    11  38    7.93   396.6    9.0      43.725
2014    9       17    11  42    7.93   396.6    9.0      43.743
2014    9       17    11  47    7.93   396.7    9.0      43.761
2014    9       17    11  52    7.94   396.7    9.0      43.779
2014    9       17    11  57    7.94   396.7    9.0      43.797
2014    9       17    12   1    7.94   396.8    9.0      43.815
2014    9       17    12   6    7.95   396.8    9.0      43.834
2014    9       17    12  11    7.95   396.8    9.0      43.852
2014    9       17    12  16    7.95   396.9    9.0      43.871
2014    9       17    12  20    7.96   396.9    9.0      43.890
2014    9       17    12  25    7.96   397.0    9.0      43.909
2014    9       17    12  30    7.96   397.0    9.0      43.929
2014    9       17    12  35    7.97   397.1    9.0      43.948
2014    9       17    12  39    7.97   397.1    9.1      43.968
2014    9       17    12  44    7.98   397.1    9.1      43.988
2014    9       17    12  49    7.98   397.2    9.1      44.008
2014    9       17    12  54    7.98   397.2    9.1      44.028
2014    9       17    12  58    7.99   397.3    9.1      44.048
2014    9       17    13   3    7.99   397.3    9.1      44.068
2014    9       17    13   8    7.99   397.4    9.1      44.088
2014    9       17    13  13    8.00   397.4    9.1      44.108
2014    9       17    13  17    8.00   397.5    9.1      44.128
2014    9       17    13  22    8.00   397.5    9.1      44.147
2014    9       17    13  27    8.01   397.6    9.1      44.167
2014    9       17    13  32    8.01   397.6    9.1      44.186
2014    9       17    13  36    8.01   397.6    9.1      44.205
2014    9       17    13  41    8.01   397.7    9.1      44.224
2014    9       17    13  46    8.02   397.7    9.1      44.243
2014    9       17    13  50    8.02   397.8    9.1      44.262
2014    9       17    13  55    8.02   397.8    9.1      44.280
2014    9       17    14   0    8.03   397.9    9.1      44.298
2014    9       17    14   5    8.03   397.9    9.1      44.316
2014    9       17    14   9    8.03   398.0    9.1      44.334
2014    9       17    14  14    8.04   398.0    9.1      44.351
2014    9       17    14  19    8.04   398.1    9.1      44.369
2014    9       17    14  24    8.04   398.1    9.1      44.386
2014    9       17    14  28    8.05   398.1    9.1      44.403
2014    9       17    14  33    8.05   398.2    9.1      44.420
2014    9       17    14  38    8.05   398.2    9.1      44.437
2014    9       17    14  43    8.06   398.3    9.1      44.453
2014    9       17    14  47    8.06   398.3    9.1      44.470
2014    9       17    14  52    8.06   398.4    9.1      44.487
2014    9       17    14  57    8.06   398.4    9.1      44.503
2014    9       17    15   2    8.07   398.5    9.1      44.520
2014    9       17    15   6    8.07   398.5    9.1      44.536
2014    9       17    15  11    8.07   398.5    9.1      44.553
2014    9       17    15  16    8.08   398.6    9.1      44.569
2014    9       17    15  21    8.08   398.6    9.1      44.586
2014    9       17    15  25    8.08   398.7    9.1      44.602
2014    9       17    15  30    8.09   398.7    9.1      44.619
2014    9       17    15  35    8.09   398.8    9.1      44.635
2014    9       17    15  40    8.09   398.8    9.1      44.652
2014    9       17    15  44    8.10   398.9    9.1      44.669
2014    9       17    15  49    8.10   398.9    9.1      44.685
2014    9       17    15  54    8.10   399.0    9.1      44.702
2014    9       17    15  59    8.11   399.0    9.1      44.719
2014    9       17    16   3    8.11   399.1    9.1      44.736
2014    9       17    16   8    8.11   399.1    9.1      44.752
2014    9       17    16  13    8.12   399.1    9.1      44.769
2014    9       17    16  17    8.12   399.2    9.1      44.786
2014    9       17    16  22    8.12   399.2    9.1      44.804
2014    9       17    16  27    8.13   399.3    9.1      44.821
2014    9       17    16  32    8.13   399.3    9.1      44.838
2014    9       17    16  36    8.13   399.4    9.1      44.856
2014    9       17    16  41    8.14   399.4    9.1      44.873
2014    9       17    16  46    8.14   399.5    9.1      44.891
2014    9       17    16  51    8.14   399.5    9.1      44.909
2014    9       17    16  55    8.15   399.6    9.2      44.927
2014    9       17    17   0    8.15   399.6    9.2      44.946
2014    9       17    17   5    8.15   399.7    9.2      44.964
2014    9       17    17  10    8.16   399.8    9.2      44.983
2014    9       17    17  14    8.16   399.8    9.2      45.002
2014    9       17    17  19    8.17   399.9    9.2      45.021
2014    9       17    17  24    8.17   399.9    9.2      45.041
2014    9       17    17  29    8.17   400.0    9.2      45.060
2014    9       17    17  33    8.18   400.0    9.2      45.081
2014    9       17    17  38    8.18   400.1    9.2      45.101
2014    9       17    17  43    8.19   400.1    9.2      45.122
2014    9       17    17  48    8.19   400.2    9.2      45.142
2014    9       17    17  52    8.19   400.2    9.2      45.164
2014    9       17    17  57    8.20   400.3    9.2      45.185
2014    9       17    18   2    8.20   400.4    9.2      45.208
2014    9       17    18   7    8.21   400.4    9.2      45.230
2014    9       17    18  11    8.21   400.5    9.2      45.253
2014    9       17    18  16    8.21   400.5    9.2      45.276
2014    9       17    18  21    8.22   400.6    9.2      45.299
2014    9       17    18  26    8.22   400.7    9.2      45.324
2014    9       17    18  30    8.23   400.7    9.2      45.348
2014    9       17    18  35    8.23   400.8    9.2      45.373
2014    9       17    18  40    8.23   400.8    9.2      45.398
2014    9       17    18  45    8.24   400.9    9.2      45.423
2014    9       17    18  49    8.24   401.0    9.2      45.449
2014    9       17    18  54    8.25   401.0    9.2      45.476
2014    9       17    18  59    8.25   401.1    9.2      45.504
2014    9       17    19   4    8.26   401.2    9.2      45.532
2014    9       17    19   8    8.26   401.2    9.2      45.562
2014    9       17    19  13    8.26   401.3    9.2      45.592
2014    9       17    19  18    8.27   401.4    9.2      45.622
2014    9       17    19  23    8.27   401.4    9.2      45.654
2014    9       17    19  27    8.28   401.5    9.2      45.686
2014    9       17    19  32    8.28   401.6    9.3      45.720
2014    9       17    19  37    8.29   401.7    9.3      45.753
2014    9       17    19  41    8.29   401.7    9.3      45.787
2014    9       17    19  46    8.29   401.8    9.3      45.821
2014    9       17    19  51    8.30   401.9    9.3      45.856
2014    9       17    19  56    8.30   402.0    9.3      45.891
2014    9       17    20   0    8.31   402.0    9.3      45.925
2014    9       17    20   5    8.31   402.1    9.3      45.961
2014    9       17    20  10    8.31   402.2    9.3      45.997
2014    9       17    20  15    8.32   402.3    9.3      46.032
2014    9       17    20  19    8.32   402.3    9.3      46.067
2014    9       17    20  24    8.32   402.4    9.3      46.103
2014    9       17    20  29    8.33   402.5    9.3      46.138
2014    9       17    20  34    8.33   402.6    9.3      46.174
2014    9       17    20  38    8.34   402.7    9.3      46.212
2014    9       17    20  43    8.34   402.7    9.3      46.250
2014    9       17    20  48    8.34   402.8    9.3      46.289
2014    9       17    20  53    8.35   402.9    9.3      46.328
2014    9       17    20  57    8.35   403.0    9.3      46.369
2014    9       17    21   2    8.35   403.1    9.3      46.411
2014    9       17    21   7    8.36   403.2    9.3      46.453
2014    9       17    21  12    8.36   403.3    9.4      46.495
2014    9       17    21  16    8.36   403.3    9.4      46.538
2014    9       17    21  21    8.37   403.4    9.4      46.580
2014    9       17    21  26    8.37   403.5    9.4      46.621
2014    9       17    21  31    8.37   403.6    9.4      46.662
2014    9       17    21  35    8.38   403.7    9.4      46.702
2014    9       17    21  40    8.38   403.7    9.4      46.742
2014    9       17    21  45    8.38   403.8    9.4      46.780
2014    9       17    21  50    8.39   403.9    9.4      46.818
2014    9       17    21  54    8.39   404.0    9.4      46.856
2014    9       17    21  59    8.39   404.1    9.4      46.893
2014    9       17    22   4    8.39   404.2    9.4      46.929
2014    9       17    22   9    8.40   404.2    9.4      46.964
2014    9       17    22  13    8.40   404.3    9.4      46.999
2014    9       17    22  18    8.40   404.4    9.4      47.033
2014    9       17    22  23    8.41   404.5    9.4      47.067
2014    9       17    22  27    8.41   404.6    9.4      47.100
2014    9       17    22  32    8.41   404.6    9.4      47.133
2014    9       17    22  37    8.42   404.7    9.4      47.164
2014    9       17    22  42    8.42   404.8    9.4      47.196
2014    9       17    22  46    8.42   404.9    9.4      47.227
2014    9       17    22  51    8.42   405.0    9.4      47.257
2014    9       17    22  56    8.43   405.1    9.4      47.287
2014    9       17    23   1    8.43   405.1    9.4      47.316
2014    9       17    23   5    8.43   405.2    9.4      47.345
2014    9       17    23  10    8.44   405.3    9.4      47.373
2014    9       17    23  15    8.44   405.4    9.4      47.401
2014    9       17    23  20    8.44   405.5    9.4      47.429
2014    9       17    23  24    8.44   405.5    9.4      47.456
2014    9       17    23  29    8.45   405.6    9.4      47.483
2014    9       17    23  34    8.45   405.7    9.4      47.509
2014    9       17    23  39    8.45   405.8    9.4      47.535
2014    9       17    23  43    8.46   405.9    9.4      47.562
2014    9       17    23  48    8.46   405.9    9.4      47.587
2014    9       17    23  53    8.46   406.0    9.4      47.613
2014    9       17    23  58    8.46   406.1    9.4      47.639
2014    9       18     0   2    8.47   406.2    9.4      47.663
2014    9       18     0   7    8.47   406.3    9.4      47.686
2014    9       18     0  12    8.47   406.3    9.4      47.709
2014    9       18     0  17    8.47   406.4    9.4      47.732
2014    9       18     0  21    8.48   406.5    9.4      47.755
2014    9       18     0  26    8.48   406.6    9.4      47.779
2014    9       18     0  31    8.48   406.7    9.4      47.802
2014    9       18     0  36    8.48   406.7    9.4      47.825
2014    9       18     0  40    8.49   406.8    9.4      47.848
2014    9       18     0  45    8.49   406.9    9.4      47.872
2014    9       18     0  50    8.49   407.0    9.3      47.895
2014    9       18     0  55    8.50   407.1    9.3      47.919
2014    9       18     0  59    8.50   407.2    9.3      47.942
2014    9       18     1   4    8.50   407.2    9.3      47.966
2014    9       18     1   9    8.50   407.3    9.3      47.990
2014    9       18     1  13    8.51   407.4    9.3      48.014
2014    9       18     1  18    8.51   407.5    9.3      48.039
2014    9       18     1  23    8.51   407.6    9.3      48.063
2014    9       18     1  28    8.51   407.7    9.3      48.088
2014    9       18     1  32    8.52   407.8    9.3      48.113
2014    9       18     1  37    8.52   407.8    9.3      48.138
2014    9       18     1  42    8.52   407.9    9.3      48.164
2014    9       18     1  47    8.53   408.0    9.3      48.189
2014    9       18     1  51    8.53   408.1    9.3      48.215
2014    9       18     1  56    8.53   408.2    9.3      48.241
2014    9       18     2   1    8.53   408.3    9.3      48.268
2014    9       18     2   6    8.54   408.4    9.3      48.294
2014    9       18     2  10    8.54   408.5    9.3      48.321
2014    9       18     2  15    8.54   408.5    9.3      48.348
2014    9       18     2  20    8.54   408.6    9.3      48.375
2014    9       18     2  25    8.55   408.7    9.3      48.403
2014    9       18     2  29    8.55   408.8    9.3      48.431
2014    9       18     2  34    8.55   408.9    9.3      48.459
2014    9       18     2  39    8.56   409.0    9.3      48.487
2014    9       18     2  44    8.56   409.1    9.3      48.516
2014    9       18     2  48    8.56   409.2    9.3      48.545
2014    9       18     2  53    8.56   409.2    9.3      48.574
2014    9       18     2  58    8.57   409.3    9.3      48.604
2014    9       18     3   3    8.57   409.4    9.3      48.635
2014    9       18     3   7    8.57   409.5    9.3      48.666
2014    9       18     3  12    8.57   409.6    9.3      48.697
2014    9       18     3  17    8.58   409.7    9.3      48.729
2014    9       18     3  22    8.58   409.8    9.3      48.762
2014    9       18     3  26    8.58   409.9    9.3      48.795
2014    9       18     3  31    8.58   409.9    9.3      48.829
2014    9       18     3  36    8.59   410.0    9.3      48.864
2014    9       18     3  41    8.59   410.1    9.3      48.899
2014    9       18     3  45    8.59   410.2    9.3      48.935
2014    9       18     3  50    8.59   410.3    9.3      48.973
2014    9       18     3  55    8.60   410.4    9.3      49.011
2014    9       18     4   0    8.60   410.5    9.3      49.051
2014    9       18     4   4    8.60   410.6    9.3      49.092
2014    9       18     4   9    8.61   410.7    9.4      49.133
2014    9       18     4  14    8.61   410.8    9.4      49.176
2014    9       18     4  18    8.61   410.9    9.4      49.220
2014    9       18     4  23    8.61   411.0    9.4      49.265
2014    9       18     4  28    8.62   411.1    9.4      49.310
2014    9       18     4  33    8.62   411.2    9.4      49.356
2014    9       18     4  37    8.62   411.2    9.4      49.403
2014    9       18     4  42    8.62   411.3    9.4      49.451
2014    9       18     4  47    8.63   411.4    9.4      49.499
2014    9       18     4  52    8.63   411.5    9.4      49.547
2014    9       18     4  56    8.63   411.6    9.4      49.595
2014    9       18     5   1    8.63   411.7    9.4      49.644
2014    9       18     5   6    8.64   411.8    9.4      49.693
2014    9       18     5  11    8.64   411.9    9.4      49.743
2014    9       18     5  15    8.64   412.0    9.4      49.794
2014    9       18     5  20    8.64   412.1    9.4      49.844
2014    9       18     5  25    8.64   412.3    9.4      49.895
2014    9       18     5  30    8.65   412.4    9.4      49.947
2014    9       18     5  34    8.65   412.5    9.4      49.998
2014    9       18     5  39    8.65   412.6    9.4      50.050
2014    9       18     5  44    8.65   412.7    9.4      50.103
2014    9       18     5  49    8.65   412.8    9.4      50.154
2014    9       18     5  53    8.66   412.9    9.4      50.204
2014    9       18     5  58    8.66   413.0    9.4      50.253
2014    9       18     6   3    8.66   413.1    9.4      50.302
2014    9       18     6   8    8.66   413.2    9.4      50.349
2014    9       18     6  12    8.66   413.3    9.4      50.396
2014    9       18     6  17    8.67   413.5    9.4      50.441
2014    9       18     6  22    8.67   413.6    9.4      50.485
2014    9       18     6  27    8.67   413.7    9.4      50.528
2014    9       18     6  31    8.67   413.8    9.4      50.570
2014    9       18     6  36    8.67   413.9    9.4      50.611
2014    9       18     6  41    8.67   414.0    9.4      50.651
2014    9       18     6  46    8.68   414.1    9.4      50.690
2014    9       18     6  50    8.68   414.2    9.4      50.728
2014    9       18     6  55    8.68   414.3    9.4      50.765
2014    9       18     7   0    8.68   414.4    9.4      50.801
2014    9       18     7   4    8.68   414.6    9.4      50.836
2014    9       18     7   9    8.68   414.7    9.4      50.871
2014    9       18     7  14    8.68   414.8    9.4      50.904
2014    9       18     7  19    8.68   414.9    9.4      50.937
2014    9       18     7  23    8.69   415.0    9.4      50.969
2014    9       18     7  28    8.69   415.1    9.4      51.001
2014    9       18     7  33    8.69   415.2    9.4      51.032
2014    9       18     7  38    8.69   415.3    9.4      51.062
2014    9       18     7  42    8.69   415.4    9.4      51.091
2014    9       18     7  47    8.69   415.6    9.4      51.120
2014    9       18     7  52    8.69   415.7    9.4      51.149
2014    9       18     7  57    8.70   415.8    9.4      51.176
2014    9       18     8   1    8.70   415.9    9.4      51.204
2014    9       18     8   6    8.70   416.0    9.4      51.231
2014    9       18     8  11    8.70   416.1    9.4      51.257
2014    9       18     8  16    8.70   416.2    9.3      51.283
2014    9       18     8  20    8.70   416.4    9.3      51.308
2014    9       18     8  25    8.70   416.5    9.3      51.334
2014    9       18     8  30    8.70   416.6    9.3      51.358
2014    9       18     8  35    8.71   416.7    9.3      51.383
2014    9       18     8  39    8.71   416.8    9.3      51.407
2014    9       18     8  44    8.71   416.9    9.3      51.431
2014    9       18     8  49    8.71   417.0    9.3      51.455
2014    9       18     8  54    8.71   417.2    9.3      51.478
2014    9       18     8  58    8.71   417.3    9.3      51.501
2014    9       18     9   3    8.71   417.4    9.3      51.524
2014    9       18     9   8    8.71   417.5    9.3      51.547
2014    9       18     9  13    8.72   417.6    9.3      51.569
2014    9       18     9  17    8.72   417.7    9.3      51.592
2014    9       18     9  22    8.72   417.8    9.3      51.614
2014    9       18     9  27    8.72   418.0    9.3      51.637
2014    9       18     9  32    8.72   418.1    9.3      51.659
2014    9       18     9  36    8.72   418.2    9.3      51.681
2014    9       18     9  41    8.72   418.3    9.3      51.704
2014    9       18     9  46    8.72   418.4    9.3      51.726
2014    9       18     9  51    8.73   418.5    9.3      51.748
2014    9       18     9  55    8.73   418.7    9.3      51.771
2014    9       18    10   0    8.73   418.8    9.2      51.794
2014    9       18    10   5    8.73   418.9    9.2      51.816
2014    9       18    10   9    8.73   419.0    9.2      51.839
2014    9       18    10  14    8.73   419.1    9.2      51.862
2014    9       18    10  19    8.73   419.2    9.2      51.885
2014    9       18    10  24    8.74   419.3    9.2      51.909
2014    9       18    10  28    8.74   419.5    9.2      51.933
2014    9       18    10  33    8.74   419.6    9.2      51.957
2014    9       18    10  38    8.74   419.7    9.2      51.982
2014    9       18    10  43    8.74   419.8    9.2      52.007
2014    9       18    10  47    8.74   419.9    9.2      52.032
2014    9       18    10  52    8.74   420.0    9.2      52.059
2014    9       18    10  57    8.75   420.1    9.2      52.085
2014    9       18    11   2    8.75   420.3    9.2      52.113
2014    9       18    11   6    8.75   420.4    9.2      52.141
2014    9       18    11  11    8.75   420.5    9.2      52.169
2014    9       18    11  16    8.75   420.6    9.2      52.198
2014    9       18    11  21    8.75   420.7    9.2      52.228
2014    9       18    11  25    8.76   420.8    9.2      52.260
2014    9       18    11  30    8.76   421.0    9.2      52.292
2014    9       18    11  35    8.76   421.1    9.2      52.325
2014    9       18    11  40    8.76   421.2    9.2      52.360
2014    9       18    11  44    8.76   421.3    9.2      52.396
2014    9       18    11  49    8.76   421.4    9.2      52.432
2014    9       18    11  54    8.77   421.5    9.2      52.470
2014    9       18    11  59    8.77   421.6    9.2      52.509
2014    9       18    12   3    8.77   421.8    9.2      52.551
2014    9       18    12   8    8.77   421.9    9.2      52.594
2014    9       18    12  13    8.77   422.0    9.2      52.639
2014    9       18    12  18    8.78   422.1    9.2      52.685
2014    9       18    12  22    8.78   422.3    9.2      52.733
2014    9       18    12  27    8.78   422.4    9.2      52.782
2014    9       18    12  32    8.78   422.5    9.2      52.832
2014    9       18    12  37    8.78   422.6    9.2      52.886
2014    9       18    12  41    8.78   422.8    9.2      52.941
2014    9       18    12  46    8.79   422.9    9.2      52.998
2014    9       18    12  51    8.79   423.0    9.2      53.055
2014    9       18    12  56    8.79   423.2    9.2      53.113
2014    9       18    13   0    8.79   423.3    9.2      53.172
2014    9       18    13   5    8.79   423.4    9.2      53.231
2014    9       18    13  10    8.79   423.6    9.2      53.291
2014    9       18    13  14    8.79   423.7    9.2      53.350
2014    9       18    13  19    8.79   423.9    9.2      53.409
2014    9       18    13  24    8.80   424.0    9.2      53.467
2014    9       18    13  29    8.80   424.2    9.2      53.523
2014    9       18    13  33    8.80   424.3    9.2      53.579
2014    9       18    13  38    8.80   424.4    9.2      53.634
2014    9       18    13  43    8.80   424.6    9.2      53.688
2014    9       18    13  48    8.80   424.7    9.2      53.740
2014    9       18    13  52    8.80   424.9    9.2      53.792
2014    9       18    13  57    8.80   425.0    9.2      53.843
2014    9       18    14   2    8.80   425.2    9.2      53.892
2014    9       18    14   7    8.80   425.3    9.2      53.941
2014    9       18    14  11    8.80   425.5    9.2      53.987
2014    9       18    14  16    8.80   425.6    9.2      54.032
2014    9       18    14  21    8.80   425.8    9.2      54.076
2014    9       18    14  26    8.80   425.9    9.2      54.119
2014    9       18    14  30    8.81   426.1    9.2      54.160
2014    9       18    14  35    8.81   426.2    9.2      54.201
2014    9       18    14  40    8.81   426.4    9.2      54.240
2014    9       18    14  45    8.81   426.5    9.2      54.278
2014    9       18    14  49    8.81   426.7    9.2      54.314
2014    9       18    14  54    8.81   426.8    9.2      54.350
2014    9       18    14  59    8.81   427.0    9.2      54.384
2014    9       18    15   4    8.81   427.1    9.2      54.418
2014    9       18    15   8    8.81   427.3    9.2      54.450
2014    9       18    15  13    8.81   427.4    9.2      54.481
2014    9       18    15  18    8.81   427.6    9.1      54.512
2014    9       18    15  23    8.81   427.7    9.1      54.542
2014    9       18    15  27    8.81   427.9    9.1      54.571
2014    9       18    15  32    8.81   428.0    9.1      54.599
2014    9       18    15  37    8.81   428.2    9.1      54.626
2014    9       18    15  42    8.81   428.3    9.1      54.652
2014    9       18    15  46    8.81   428.5    9.1      54.678
2014    9       18    15  51    8.81   428.6    9.1      54.703
2014    9       18    15  56    8.81   428.8    9.1      54.728
2014    9       18    16   0    8.81   429.0    9.1      54.752
2014    9       18    16   5    8.81   429.1    9.1      54.775
2014    9       18    16  10    8.81   429.3    9.1      54.798
2014    9       18    16  15    8.81   429.4    9.1      54.820
2014    9       18    16  19    8.81   429.6    9.1      54.842
2014    9       18    16  24    8.81   429.7    9.0      54.863
2014    9       18    16  29    8.81   429.9    9.0      54.884
2014    9       18    16  34    8.81   430.1    9.0      54.905
2014    9       18    16  38    8.81   430.2    9.0      54.925
2014    9       18    16  43    8.81   430.4    9.0      54.945
2014    9       18    16  48    8.81   430.5    9.0      54.964
2014    9       18    16  53    8.81   430.7    9.0      54.983
2014    9       18    16  57    8.81   430.8    9.0      55.002
2014    9       18    17   2    8.81   431.0    9.0      55.020
2014    9       18    17   7    8.81   431.1    9.0      55.038
2014    9       18    17  12    8.81   431.3    9.0      55.056
2014    9       18    17  16    8.81   431.5    9.0      55.074
2014    9       18    17  21    8.81   431.6    9.0      55.091
2014    9       18    17  26    8.80   431.8    8.9      55.108
2014    9       18    17  31    8.80   431.9    8.9      55.124
2014    9       18    17  35    8.80   432.1    8.9      55.141
2014    9       18    17  40    8.80   432.2    8.9      55.157
2014    9       18    17  45    8.80   432.4    8.9      55.174
2014    9       18    17  50    8.80   432.6    8.9      55.190
2014    9       18    17  54    8.80   432.7    8.9      55.206
2014    9       18    17  59    8.80   432.9    8.9      55.223
2014    9       18    18   4    8.80   433.0    8.9      55.239
2014    9       18    18   9    8.80   433.2    8.9      55.255
2014    9       18    18  13    8.80   433.3    8.9      55.272
2014    9       18    18  18    8.80   433.5    8.9      55.289
2014    9       18    18  23    8.80   433.6    8.9      55.305
2014    9       18    18  28    8.80   433.8    8.9      55.322
2014    9       18    18  32    8.80   434.0    8.8      55.340
2014    9       18    18  37    8.80   434.1    8.8      55.357
2014    9       18    18  42    8.80   434.3    8.8      55.375
2014    9       18    18  47    8.80   434.4    8.8      55.393
2014    9       18    18  51    8.80   434.6    8.8      55.411
2014    9       18    18  56    8.80   434.7    8.8      55.429
2014    9       18    19   1    8.79   434.9    8.8      55.449
2014    9       18    19   5    8.79   435.0    8.8      55.469
2014    9       18    19  10    8.79   435.2    8.8      55.490
2014    9       18    19  15    8.79   435.3    8.8      55.511
2014    9       18    19  20    8.79   435.5    8.8      55.533
2014    9       18    19  24    8.79   435.7    8.8      55.555
2014    9       18    19  29    8.79   435.8    8.8      55.578
2014    9       18    19  34    8.79   436.0    8.8      55.602
2014    9       18    19  39    8.79   436.1    8.8      55.627
2014    9       18    19  43    8.79   436.3    8.8      55.653
2014    9       18    19  48    8.79   436.4    8.8      55.680
2014    9       18    19  53    8.78   436.6    8.7      55.708
2014    9       18    19  58    8.78   436.8    8.7      55.738
2014    9       18    20   2    8.78   436.9    8.7      55.769
2014    9       18    20   7    8.78   437.1    8.7      55.802
2014    9       18    20  12    8.78   437.2    8.7      55.835
2014    9       18    20  17    8.78   437.4    8.7      55.869
2014    9       18    20  21    8.78   437.5    8.7      55.903
2014    9       18    20  26    8.78   437.7    8.7      55.938
2014    9       18    20  31    8.77   437.9    8.7      55.972
2014    9       18    20  36    8.77   438.0    8.7      56.007
2014    9       18    20  40    8.77   438.2    8.7      56.042
2014    9       18    20  45    8.77   438.3    8.7      56.077
2014    9       18    20  50    8.77   438.5    8.7      56.111
2014    9       18    20  55    8.77   438.7    8.7      56.146
2014    9       18    20  59    8.76   438.8    8.7      56.180
2014    9       18    21   4    8.76   439.0    8.7      56.214
2014    9       18    21   9    8.76   439.1    8.7      56.247
2014    9       18    21  14    8.76   439.3    8.6      56.280
2014    9       18    21  18    8.76   439.5    8.6      56.311
2014    9       18    21  23    8.75   439.6    8.6      56.342
2014    9       18    21  28    8.75   439.8    8.6      56.372
2014    9       18    21  33    8.75   439.9    8.6      56.401
2014    9       18    21  37    8.75   440.1    8.6      56.429
2014    9       18    21  42    8.75   440.2    8.6      56.457
2014    9       18    21  47    8.74   440.4    8.6      56.483
2014    9       18    21  51    8.74   440.6    8.6      56.509
2014    9       18    21  56    8.74   440.7    8.6      56.534
2014    9       18    22   1    8.74   440.9    8.6      56.558
2014    9       18    22   6    8.73   441.0    8.6      56.581
2014    9       18    22  10    8.73   441.2    8.5      56.604
2014    9       18    22  15    8.73   441.3    8.5      56.626
2014    9       18    22  20    8.73   441.5    8.5      56.646
2014    9       18    22  25    8.72   441.6    8.5      56.666
2014    9       18    22  29    8.72   441.8    8.5      56.685
2014    9       18    22  34    8.72   441.9    8.5      56.703
2014    9       18    22  39    8.72   442.1    8.5      56.721
2014    9       18    22  44    8.71   442.2    8.5      56.738
2014    9       18    22  48    8.71   442.4    8.5      56.754
2014    9       18    22  53    8.71   442.5    8.5      56.769
2014    9       18    22  58    8.71   442.7    8.5      56.783
2014    9       18    23   3    8.70   442.8    8.4      56.797
2014    9       18    23   7    8.70   443.0    8.4      56.810
2014    9       18    23  12    8.70   443.1    8.4      56.822
2014    9       18    23  17    8.69   443.3    8.4      56.834
2014    9       18    23  22    8.69   443.4    8.4      56.845
2014    9       18    23  26    8.69   443.6    8.4      56.856
2014    9       18    23  31    8.69   443.7    8.4      56.866
2014    9       18    23  36    8.68   443.9    8.4      56.875
2014    9       18    23  41    8.68   444.0    8.4      56.884
2014    9       18    23  45    8.68   444.2    8.3      56.892
2014    9       18    23  50    8.67   444.3    8.3      56.899
2014    9       18    23  55    8.67   444.5    8.3      56.905
2014    9       19     0   0    8.67   444.6    8.3      56.911
2014    9       19     0   4    8.66   444.7    8.3      56.916
2014    9       19     0   9    8.66   444.9    8.3      56.920
2014    9       19     0  14    8.66   445.0    8.3      56.924
2014    9       19     0  19    8.65   445.1    8.3      56.928
2014    9       19     0  23    8.65   445.3    8.3      56.930
2014    9       19     0  28    8.65   445.4    8.2      56.933
2014    9       19     0  33    8.64   445.5    8.2      56.935
2014    9       19     0  38    8.64   445.7    8.2      56.937
2014    9       19     0  42    8.64   445.8    8.2      56.938
2014    9       19     0  47    8.63   445.9    8.2      56.940
2014    9       19     0  52    8.63   446.1    8.2      56.941
2014    9       19     0  56    8.63   446.2    8.2      56.941
2014    9       19     1   1    8.62   446.4    8.2      56.942
2014    9       19     1   6    8.62   446.5    8.2      56.941
2014    9       19     1  11    8.62   446.7    8.1      56.940
2014    9       19     1  15    8.61   446.8    8.1      56.938
2014    9       19     1  20    8.61   446.9    8.1      56.935
2014    9       19     1  25    8.61   447.1    8.1      56.932
2014    9       19     1  30    8.60   447.2    8.1      56.928
2014    9       19     1  34    8.60   447.4    8.1      56.923
2014    9       19     1  39    8.60   447.5    8.1      56.918
2014    9       19     1  44    8.59   447.6    8.1      56.912
2014    9       19     1  49    8.59   447.8    8.1      56.905
2014    9       19     1  53    8.59   447.9    8.0      56.898
2014    9       19     1  58    8.58   448.0    8.0      56.891
2014    9       19     2   3    8.58   448.2    8.0      56.883
2014    9       19     2   8    8.57   448.3    8.0      56.876
2014    9       19     2  12    8.57   448.4    8.0      56.868
2014    9       19     2  17    8.57   448.6    8.0      56.860
2014    9       19     2  22    8.56   448.7    8.0      56.851
2014    9       19     2  27    8.56   448.9    8.0      56.842
2014    9       19     2  31    8.55   449.0    8.0      56.833
2014    9       19     2  36    8.55   449.1    7.9      56.823
2014    9       19     2  41    8.55   449.2    7.9      56.812
2014    9       19     2  46    8.54   449.4    7.9      56.801
2014    9       19     2  50    8.54   449.5    7.9      56.789
2014    9       19     2  55    8.53   449.6    7.9      56.778
2014    9       19     3   0    8.53   449.7    7.9      56.766
2014    9       19     3   5    8.52   449.9    7.9      56.754
2014    9       19     3   9    8.52   450.0    7.9      56.742
2014    9       19     3  14    8.52   450.1    7.9      56.730
2014    9       19     3  19    8.51   450.2    7.8      56.719
2014    9       19     3  24    8.51   450.3    7.8      56.708
2014    9       19     3  28    8.50   450.4    7.8      56.696
2014    9       19     3  33    8.50   450.5    7.8      56.685
2014    9       19     3  38    8.49   450.6    7.8      56.674
2014    9       19     3  42    8.49   450.8    7.8      56.663
2014    9       19     3  47    8.48   450.9    7.8      56.653
2014    9       19     3  52    8.48   451.0    7.8      56.642
2014    9       19     3  57    8.48   451.1    7.8      56.632
2014    9       19     4   1    8.47   451.2    7.8      56.621
2014    9       19     4   6    8.47   451.3    7.7      56.611
2014    9       19     4  11    8.46   451.5    7.7      56.601
2014    9       19     4  16    8.46   451.6    7.7      56.590
2014    9       19     4  20    8.45   451.7    7.7      56.580
2014    9       19     4  25    8.45   451.8    7.7      56.569
2014    9       19     4  30    8.44   451.9    7.7      56.559
2014    9       19     4  35    8.44   452.1    7.7      56.547
2014    9       19     4  39    8.43   452.2    7.7      56.535
2014    9       19     4  44    8.43   452.3    7.7      56.523
2014    9       19     4  49    8.42   452.4    7.6      56.510
2014    9       19     4  54    8.42   452.5    7.6      56.496
2014    9       19     4  58    8.42   452.6    7.6      56.483
2014    9       19     5   3    8.41   452.7    7.6      56.469
2014    9       19     5   8    8.41   452.8    7.6      56.454
2014    9       19     5  13    8.40   452.9    7.6      56.440
2014    9       19     5  17    8.40   453.0    7.6      56.425
2014    9       19     5  22    8.39   453.1    7.6      56.409
2014    9       19     5  27    8.38   453.2    7.6      56.393
2014    9       19     5  32    8.38   453.3    7.6      56.377
2014    9       19     5  36    8.37   453.4    7.5      56.361
2014    9       19     5  41    8.37   453.5    7.5      56.345
2014    9       19     5  46    8.36   453.6    7.5      56.328
2014    9       19     5  51    8.36   453.7    7.5      56.311
2014    9       19     5  55    8.35   453.8    7.5      56.294
2014    9       19     6   0    8.35   453.9    7.5      56.277
2014    9       19     6   5    8.34   454.0    7.5      56.260
2014    9       19     6  10    8.34   454.1    7.5      56.242
2014    9       19     6  14    8.33   454.1    7.5      56.224
2014    9       19     6  19    8.33   454.2    7.5      56.206
2014    9       19     6  24    8.32   454.3    7.4      56.187
2014    9       19     6  29    8.32   454.4    7.4      56.169
2014    9       19     6  33    8.31   454.5    7.4      56.151
2014    9       19     6  38    8.31   454.5    7.4      56.132
2014    9       19     6  43    8.30   454.6    7.4      56.114
2014    9       19     6  47    8.30   454.7    7.4      56.096
2014    9       19     6  52    8.29   454.8    7.4      56.078
2014    9       19     6  57    8.29   454.8    7.4      56.060
2014    9       19     7   2    8.28   454.9    7.4      56.042
2014    9       19     7   6    8.28   455.0    7.4      56.024
2014    9       19     7  11    8.27   455.0    7.3      56.007
2014    9       19     7  16    8.27   455.1    7.3      55.989
2014    9       19     7  21    8.26   455.1    7.3      55.972
2014    9       19     7  25    8.26   455.2    7.3      55.955
2014    9       19     7  30    8.25   455.3    7.3      55.939
2014    9       19     7  35    8.25   455.3    7.3      55.924
2014    9       19     7  40    8.24   455.4    7.3      55.909
2014    9       19     7  44    8.24   455.4    7.3      55.895
2014    9       19     7  49    8.23   455.5    7.3      55.881
2014    9       19     7  54    8.23   455.5    7.3      55.868
2014    9       19     7  59    8.22   455.6    7.3      55.855
2014    9       19     8   3    8.22   455.7    7.3      55.842
2014    9       19     8   8    8.21   455.7    7.3      55.830
2014    9       19     8  13    8.21   455.8    7.3      55.817
2014    9       19     8  18    8.20   455.9    7.2      55.805
2014    9       19     8  22    8.20   455.9    7.2      55.793
2014    9       19     8  27    8.20   456.0    7.2      55.781
2014    9       19     8  32    8.19   456.1    7.2      55.768
2014    9       19     8  37    8.19   456.1    7.2      55.755
2014    9       19     8  41    8.18   456.2    7.2      55.742
2014    9       19     8  46    8.18   456.3    7.2      55.728
2014    9       19     8  51    8.17   456.3    7.2      55.714
2014    9       19     8  56    8.17   456.4    7.2      55.699
2014    9       19     9   0    8.16   456.5    7.2      55.683
2014    9       19     9   5    8.16   456.5    7.2      55.666
2014    9       19     9  10    8.15   456.6    7.2      55.650
2014    9       19     9  15    8.15   456.7    7.2      55.632
2014    9       19     9  19    8.15   456.7    7.2      55.614
2014    9       19     9  24    8.14   456.8    7.2      55.594
2014    9       19     9  29    8.14   456.8    7.1      55.575
2014    9       19     9  33    8.13   456.9    7.1      55.554
2014    9       19     9  38    8.13   457.0    7.1      55.533
2014    9       19     9  43    8.12   457.0    7.1      55.511
2014    9       19     9  48    8.12   457.1    7.1      55.488
2014    9       19     9  52    8.11   457.1    7.1      55.464
2014    9       19     9  57    8.11   457.2    7.1      55.441
2014    9       19    10   2    8.10   457.2    7.1      55.417
2014    9       19    10   7    8.10   457.3    7.1      55.392
2014    9       19    10  11    8.09   457.3    7.1      55.368
2014    9       19    10  16    8.09   457.4    7.1      55.344
2014    9       19    10  21    8.09   457.4    7.1      55.320
2014    9       19    10  26    8.08   457.4    7.1      55.295
2014    9       19    10  30    8.08   457.5    7.1      55.271
2014    9       19    10  35    8.07   457.5    7.0      55.246
2014    9       19    10  40    8.07   457.6    7.0      55.221
2014    9       19    10  45    8.06   457.6    7.0      55.196
2014    9       19    10  49    8.06   457.7    7.0      55.171
2014    9       19    10  54    8.05   457.7    7.0      55.147
2014    9       19    10  59    8.05   457.8    7.0      55.122
2014    9       19    11   4    8.05   457.8    7.0      55.097
2014    9       19    11   8    8.04   457.9    7.0      55.073
2014    9       19    11  13    8.04   458.0    7.0      55.049
2014    9       19    11  18    8.03   458.0    7.0      55.024
2014    9       19    11  23    8.03   458.1    7.0      55.000
2014    9       19    11  27    8.02   458.1    7.0      54.975
2014    9       19    11  32    8.02   458.2    7.0      54.949
2014    9       19    11  37    8.01   458.3    7.0      54.923
2014    9       19    11  42    8.01   458.3    6.9      54.897
2014    9       19    11  46    8.01   458.4    6.9      54.870
2014    9       19    11  51    8.00   458.4    6.9      54.843
2014    9       19    11  56    8.00   458.5    6.9      54.816
2014    9       19    12   1    7.99   458.5    6.9      54.788
2014    9       19    12   5    7.99   458.6    6.9      54.760
2014    9       19    12  10    7.98   458.7    6.9      54.732
2014    9       19    12  15    7.98   458.7    6.9      54.704
2014    9       19    12  19    7.97   458.8    6.9      54.675
2014    9       19    12  24    7.97   458.8    6.9      54.647
2014    9       19    12  29    7.96   458.9    6.9      54.618
2014    9       19    12  34    7.96   458.9    6.9      54.589
2014    9       19    12  38    7.95   459.0    6.9      54.560
2014    9       19    12  43    7.95   459.0    6.9      54.531
2014    9       19    12  48    7.94   459.1    6.9      54.501
2014    9       19    12  53    7.94   459.1    6.8      54.472
2014    9       19    12  57    7.93   459.2    6.8      54.443
2014    9       19    13   2    7.93   459.2    6.8      54.414
2014    9       19    13   7    7.92   459.2    6.8      54.385
2014    9       19    13  12    7.92   459.3    6.8      54.356
2014    9       19    13  16    7.91   459.3    6.8      54.327
2014    9       19    13  21    7.91   459.4    6.8      54.298
2014    9       19    13  26    7.91   459.4    6.8      54.269
2014    9       19    13  31    7.90   459.4    6.8      54.240
2014    9       19    13  35    7.90   459.5    6.8      54.212
2014    9       19    13  40    7.89   459.5    6.8      54.183
2014    9       19    13  45    7.89   459.6    6.8      54.155
2014    9       19    13  50    7.88   459.6    6.8      54.127
2014    9       19    13  54    7.88   459.6    6.8      54.099
2014    9       19    13  59    7.87   459.7    6.8      54.072
2014    9       19    14   4    7.87   459.7    6.8      54.045
2014    9       19    14   9    7.86   459.7    6.7      54.019
2014    9       19    14  13    7.86   459.7    6.7      53.993
2014    9       19    14  18    7.86   459.8    6.7      53.968
2014    9       19    14  23    7.85   459.8    6.7      53.944
2014    9       19    14  28    7.85   459.8    6.7      53.920
2014    9       19    14  32    7.84   459.8    6.7      53.898
2014    9       19    14  37    7.84   459.9    6.7      53.876
2014    9       19    14  42    7.83   459.9    6.7      53.855
2014    9       19    14  47    7.83   459.9    6.7      53.836
2014    9       19    14  51    7.83   459.9    6.7      53.817
2014    9       19    14  56    7.82   460.0    6.7      53.799
2014    9       19    15   1    7.82   460.0    6.7      53.782
2014    9       19    15   6    7.81   460.0    6.7      53.766
2014    9       19    15  10    7.81   460.0    6.7      53.750
2014    9       19    15  15    7.81   460.1    6.7      53.735
2014    9       19    15  20    7.80   460.1    6.7      53.722
2014    9       19    15  25    7.80   460.1    6.7      53.709
2014    9       19    15  29    7.79   460.1    6.7      53.697
2014    9       19    15  34    7.79   460.2    6.7      53.685
2014    9       19    15  39    7.79   460.2    6.7      53.674
2014    9       19    15  43    7.78   460.2    6.7      53.663
2014    9       19    15  48    7.78   460.2    6.7      53.653
2014    9       19    15  53    7.77   460.3    6.7      53.643
2014    9       19    15  58    7.77   460.3    6.7      53.632
2014    9       19    16   2    7.77   460.3    6.7      53.621
2014    9       19    16   7    7.76   460.4    6.7      53.610
2014    9       19    16  12    7.76   460.4    6.7      53.598
2014    9       19    16  17    7.76   460.4    6.7      53.585
2014    9       19    16  21    7.75   460.4    6.7      53.572
2014    9       19    16  26    7.75   460.5    6.7      53.559
2014    9       19    16  31    7.75   460.5    6.7      53.545
2014    9       19    16  36    7.74   460.5    6.7      53.531
2014    9       19    16  40    7.74   460.5    6.7      53.517
2014    9       19    16  45    7.73   460.6    6.7      53.502
2014    9       19    16  50    7.73   460.6    6.7      53.487
2014    9       19    16  55    7.73   460.6    6.7      53.471
2014    9       19    16  59    7.72   460.6    6.7      53.455
2014    9       19    17   4    7.72   460.7    6.6      53.439
2014    9       19    17   9    7.72   460.7    6.6      53.423
2014    9       19    17  14    7.71   460.7    6.6      53.406
2014    9       19    17  18    7.71   460.7    6.6      53.389
2014    9       19    17  23    7.71   460.7    6.6      53.372
2014    9       19    17  28    7.70   460.8    6.6      53.355
2014    9       19    17  33    7.70   460.8    6.6      53.337
2014    9       19    17  37    7.70   460.8    6.6      53.319
2014    9       19    17  42    7.69   460.8    6.6      53.301
2014    9       19    17  47    7.69   460.9    6.6      53.283
2014    9       19    17  52    7.68   460.9    6.6      53.264
2014    9       19    17  56    7.68   460.9    6.6      53.246
2014    9       19    18   1    7.68   460.9    6.6      53.227
2014    9       19    18   6    7.67   461.0    6.6      53.208
2014    9       19    18  11    7.67   461.0    6.6      53.189
2014    9       19    18  15    7.67   461.0    6.6      53.170
2014    9       19    18  20    7.66   461.0    6.6      53.151
2014    9       19    18  25    7.66   461.0    6.6      53.132
2014    9       19    18  29    7.66   461.1    6.6      53.112
2014    9       19    18  34    7.65   461.1    6.6      53.093
2014    9       19    18  39    7.65   461.1    6.6      53.073
2014    9       19    18  44    7.65   461.1    6.6      53.054
2014    9       19    18  48    7.64   461.2    6.6      53.034
2014    9       19    18  53    7.64   461.2    6.6      53.014
2014    9       19    18  58    7.64   461.2    6.6      52.995
2014    9       19    19   3    7.63   461.2    6.6      52.975
2014    9       19    19   7    7.63   461.2    6.6      52.955
2014    9       19    19  12    7.63   461.3    6.6      52.935
2014    9       19    19  17    7.62   461.3    6.6      52.915
2014    9       19    19  22    7.62   461.3    6.6      52.895
2014    9       19    19  26    7.62   461.3    6.6      52.876
2014    9       19    19  31    7.61   461.4    6.5      52.856
2014    9       19    19  36    7.61   461.4    6.5      52.836
2014    9       19    19  41    7.61   461.4    6.5      52.816
2014    9       19    19  45    7.60   461.4    6.5      52.796
2014    9       19    19  50    7.60   461.4    6.5      52.776
2014    9       19    19  55    7.60   461.5    6.5      52.757
2014    9       19    20   0    7.59   461.5    6.5      52.737
2014    9       19    20   4    7.59   461.5    6.5      52.717
2014    9       19    20   9    7.59   461.5    6.5      52.697
2014    9       19    20  14    7.58   461.6    6.5      52.678
2014    9       19    20  19    7.58   461.6    6.5      52.659
2014    9       19    20  23    7.58   461.6    6.5      52.639
2014    9       19    20  28    7.57   461.6    6.5      52.620
2014    9       19    20  33    7.57   461.6    6.5      52.601
2014    9       19    20  38    7.57   461.7    6.5      52.582
2014    9       19    20  42    7.56   461.7    6.5      52.563
2014    9       19    20  47    7.56   461.7    6.5      52.544
2014    9       19    20  52    7.56   461.7    6.5      52.526
2014    9       19    20  57    7.55   461.8    6.5      52.507
2014    9       19    21   1    7.55   461.8    6.5      52.489
2014    9       19    21   6    7.55   461.8    6.5      52.470
2014    9       19    21  11    7.54   461.8    6.5      52.452
2014    9       19    21  15    7.54   461.8    6.5      52.434
2014    9       19    21  20    7.54   461.9    6.5      52.416
2014    9       19    21  25    7.53   461.9    6.5      52.398
2014    9       19    21  30    7.53   461.9    6.5      52.381
2014    9       19    21  34    7.53   461.9    6.5      52.363
2014    9       19    21  39    7.52   461.9    6.5      52.346
2014    9       19    21  44    7.52   462.0    6.5      52.329
2014    9       19    21  49    7.52   462.0    6.5      52.311
2014    9       19    21  53    7.51   462.0    6.5      52.294
2014    9       19    21  58    7.51   462.0    6.5      52.277
2014    9       19    22   3    7.51   462.0    6.5      52.260
2014    9       19    22   8    7.50   462.1    6.5      52.243
2014    9       19    22  12    7.50   462.1    6.5      52.226
2014    9       19    22  17    7.50   462.1    6.5      52.209
2014    9       19    22  22    7.49   462.1    6.5      52.192
2014    9       19    22  27    7.49   462.1    6.5      52.175
2014    9       19    22  31    7.49   462.2    6.4      52.157
2014    9       19    22  36    7.48   462.2    6.4      52.140
2014    9       19    22  41    7.48   462.2    6.4      52.123
2014    9       19    22  46    7.48   462.2    6.4      52.106
2014    9       19    22  50    7.47   462.2    6.4      52.088
2014    9       19    22  55    7.47   462.2    6.4      52.070
2014    9       19    23   0    7.47   462.3    6.4      52.053
2014    9       19    23   5    7.46   462.3    6.4      52.035
2014    9       19    23   9    7.46   462.3    6.4      52.017
2014    9       19    23  14    7.46   462.3    6.4      51.998
2014    9       19    23  19    7.45   462.3    6.4      51.980
2014    9       19    23  24    7.45   462.3    6.4      51.961
2014    9       19    23  28    7.45   462.3    6.4      51.943
2014    9       19    23  33    7.44   462.4    6.4      51.924
2014    9       19    23  38    7.44   462.4    6.4      51.905
2014    9       19    23  43    7.44   462.4    6.4      51.886
2014    9       19    23  47    7.43   462.4    6.4      51.866
2014    9       19    23  52    7.43   462.4    6.4      51.847
2014    9       19    23  57    7.43   462.4    6.4      51.827
2014    9       20     0   2    7.42   462.4    6.4      51.807
