year    month   day   hour  minute  B_enl V_enl   n_enl       T_enl
[year] [month] [day] [hour][minute] [nT]  [km/s]  [cm-3]      [kK]
2014    9       20     0   3    6.60   471.7    6.5      44.893
2014    9       20     0   8    6.60   471.7    6.5      44.849
2014    9       20     0  14    6.60   471.6    6.5      44.804
2014    9       20     0  19    6.60   471.6    6.5      44.761
2014    9       20     0  24    6.59   471.6    6.5      44.717
2014    9       20     0  29    6.59   471.6    6.5      44.673
2014    9       20     0  35    6.59   471.5    6.5      44.629
2014    9       20     0  40    6.59   471.5    6.5      44.586
2014    9       20     0  45    6.59   471.5    6.5      44.542
2014    9       20     0  51    6.58   471.4    6.5      44.499
2014    9       20     0  56    6.58   471.4    6.5      44.456
2014    9       20     1   1    6.58   471.4    6.5      44.413
2014    9       20     1   6    6.58   471.3    6.5      44.370
2014    9       20     1  12    6.58   471.3    6.5      44.327
2014    9       20     1  17    6.57   471.3    6.5      44.284
2014    9       20     1  22    6.57   471.2    6.5      44.241
2014    9       20     1  28    6.57   471.2    6.5      44.198
2014    9       20     1  33    6.57   471.2    6.5      44.155
2014    9       20     1  38    6.57   471.1    6.5      44.113
2014    9       20     1  44    6.56   471.1    6.5      44.070
2014    9       20     1  49    6.56   471.1    6.5      44.028
2014    9       20     1  54    6.56   471.0    6.5      43.986
2014    9       20     1  59    6.56   471.0    6.5      43.943
2014    9       20     2   5    6.56   470.9    6.5      43.901
2014    9       20     2  10    6.56   470.9    6.5      43.860
2014    9       20     2  15    6.55   470.9    6.5      43.818
2014    9       20     2  21    6.55   470.8    6.5      43.777
2014    9       20     2  26    6.55   470.8    6.5      43.736
2014    9       20     2  31    6.55   470.7    6.5      43.694
2014    9       20     2  36    6.55   470.7    6.5      43.654
2014    9       20     2  42    6.55   470.7    6.5      43.613
2014    9       20     2  47    6.55   470.6    6.5      43.573
2014    9       20     2  52    6.54   470.6    6.5      43.532
2014    9       20     2  58    6.54   470.5    6.5      43.493
2014    9       20     3   3    6.54   470.5    6.5      43.453
2014    9       20     3   8    6.54   470.5    6.5      43.414
2014    9       20     3  14    6.54   470.4    6.5      43.375
2014    9       20     3  19    6.54   470.4    6.5      43.336
2014    9       20     3  24    6.54   470.3    6.5      43.298
2014    9       20     3  29    6.54   470.3    6.5      43.260
2014    9       20     3  35    6.54   470.3    6.5      43.222
2014    9       20     3  40    6.54   470.2    6.5      43.184
2014    9       20     3  45    6.53   470.2    6.5      43.147
2014    9       20     3  51    6.53   470.1    6.5      43.111
2014    9       20     3  56    6.53   470.1    6.5      43.075
2014    9       20     4   1    6.53   470.1    6.5      43.039
2014    9       20     4   7    6.53   470.0    6.5      43.003
2014    9       20     4  12    6.53   470.0    6.5      42.968
2014    9       20     4  17    6.53   470.0    6.5      42.934
2014    9       20     4  22    6.53   469.9    6.5      42.900
2014    9       20     4  28    6.53   469.9    6.5      42.866
2014    9       20     4  33    6.53   469.8    6.5      42.833
2014    9       20     4  38    6.53   469.8    6.5      42.800
2014    9       20     4  44    6.53   469.8    6.5      42.768
2014    9       20     4  49    6.53   469.7    6.5      42.736
2014    9       20     4  54    6.53   469.7    6.5      42.705
2014    9       20     4  59    6.53   469.7    6.5      42.674
2014    9       20     5   5    6.53   469.6    6.5      42.643
2014    9       20     5  10    6.53   469.6    6.5      42.614
2014    9       20     5  15    6.52   469.6    6.5      42.584
2014    9       20     5  21    6.52   469.5    6.5      42.556
2014    9       20     5  26    6.52   469.5    6.5      42.528
2014    9       20     5  31    6.52   469.5    6.5      42.500
2014    9       20     5  36    6.52   469.5    6.5      42.473
2014    9       20     5  42    6.52   469.4    6.5      42.447
2014    9       20     5  47    6.52   469.4    6.5      42.421
2014    9       20     5  52    6.52   469.4    6.5      42.395
2014    9       20     5  58    6.52   469.3    6.5      42.370
2014    9       20     6   3    6.52   469.3    6.5      42.346
2014    9       20     6   8    6.52   469.3    6.5      42.322
2014    9       20     6  14    6.52   469.3    6.5      42.299
2014    9       20     6  19    6.52   469.2    6.5      42.276
2014    9       20     6  24    6.52   469.2    6.5      42.253
2014    9       20     6  29    6.52   469.2    6.5      42.231
2014    9       20     6  35    6.52   469.2    6.5      42.210
2014    9       20     6  40    6.52   469.2    6.5      42.189
2014    9       20     6  45    6.52   469.1    6.5      42.168
2014    9       20     6  51    6.52   469.1    6.5      42.148
2014    9       20     6  56    6.52   469.1    6.5      42.128
2014    9       20     7   1    6.52   469.1    6.5      42.108
2014    9       20     7   6    6.52   469.0    6.5      42.089
2014    9       20     7  12    6.52   469.0    6.5      42.070
2014    9       20     7  17    6.52   469.0    6.5      42.052
2014    9       20     7  22    6.52   469.0    6.5      42.034
2014    9       20     7  28    6.52   468.9    6.5      42.016
2014    9       20     7  33    6.52   468.9    6.5      41.999
2014    9       20     7  38    6.52   468.9    6.5      41.983
2014    9       20     7  43    6.52   468.9    6.5      41.966
2014    9       20     7  49    6.52   468.8    6.5      41.950
2014    9       20     7  54    6.52   468.8    6.5      41.934
2014    9       20     7  59    6.52   468.8    6.5      41.917
2014    9       20     8   5    6.52   468.8    6.5      41.902
2014    9       20     8  10    6.52   468.7    6.5      41.886
2014    9       20     8  15    6.52   468.7    6.5      41.870
2014    9       20     8  20    6.52   468.7    6.5      41.854
2014    9       20     8  26    6.52   468.7    6.5      41.839
2014    9       20     8  31    6.52   468.6    6.5      41.823
2014    9       20     8  36    6.52   468.6    6.5      41.808
2014    9       20     8  42    6.52   468.6    6.5      41.792
2014    9       20     8  47    6.52   468.6    6.5      41.777
2014    9       20     8  52    6.52   468.5    6.5      41.762
2014    9       20     8  58    6.53   468.5    6.5      41.746
2014    9       20     9   3    6.53   468.5    6.5      41.731
2014    9       20     9   8    6.53   468.5    6.5      41.716
2014    9       20     9  13    6.53   468.4    6.5      41.701
2014    9       20     9  19    6.53   468.4    6.5      41.685
2014    9       20     9  24    6.53   468.4    6.5      41.670
2014    9       20     9  29    6.53   468.4    6.5      41.655
2014    9       20     9  35    6.53   468.3    6.5      41.640
2014    9       20     9  40    6.53   468.3    6.5      41.626
2014    9       20     9  45    6.53   468.3    6.5      41.611
2014    9       20     9  50    6.53   468.3    6.5      41.596
2014    9       20     9  56    6.53   468.2    6.5      41.581
2014    9       20    10   1    6.54   468.2    6.5      41.567
2014    9       20    10   6    6.54   468.2    6.5      41.553
2014    9       20    10  12    6.54   468.2    6.5      41.538
2014    9       20    10  17    6.54   468.1    6.5      41.525
2014    9       20    10  22    6.54   468.1    6.5      41.511
2014    9       20    10  27    6.54   468.1    6.5      41.497
2014    9       20    10  33    6.54   468.1    6.5      41.483
2014    9       20    10  38    6.54   468.0    6.5      41.470
2014    9       20    10  43    6.55   468.0    6.5      41.457
2014    9       20    10  49    6.55   468.0    6.5      41.444
2014    9       20    10  54    6.55   468.0    6.5      41.432
2014    9       20    10  59    6.55   468.0    6.5      41.419
2014    9       20    11   4    6.55   468.0    6.5      41.407
2014    9       20    11  10    6.55   467.9    6.5      41.396
2014    9       20    11  15    6.55   467.9    6.6      41.385
2014    9       20    11  20    6.56   467.9    6.6      41.373
2014    9       20    11  26    6.56   467.9    6.6      41.363
2014    9       20    11  31    6.56   467.9    6.6      41.353
2014    9       20    11  36    6.56   467.9    6.6      41.343
2014    9       20    11  41    6.56   467.9    6.6      41.334
2014    9       20    11  47    6.56   467.9    6.6      41.325
2014    9       20    11  52    6.57   467.8    6.6      41.317
2014    9       20    11  57    6.57   467.8    6.6      41.309
2014    9       20    12   3    6.57   467.8    6.6      41.303
2014    9       20    12   8    6.57   467.8    6.6      41.297
2014    9       20    12  13    6.57   467.8    6.6      41.291
2014    9       20    12  18    6.57   467.8    6.6      41.286
2014    9       20    12  24    6.58   467.8    6.6      41.283
2014    9       20    12  29    6.58   467.8    6.6      41.280
2014    9       20    12  34    6.58   467.8    6.6      41.278
2014    9       20    12  40    6.58   467.8    6.6      41.278
2014    9       20    12  45    6.58   467.8    6.6      41.278
2014    9       20    12  50    6.59   467.9    6.6      41.280
2014    9       20    12  55    6.59   467.9    6.6      41.283
2014    9       20    13   1    6.59   467.9    6.6      41.287
2014    9       20    13   6    6.59   467.9    6.6      41.292
2014    9       20    13  11    6.59   467.9    6.6      41.298
2014    9       20    13  17    6.60   467.9    6.6      41.304
2014    9       20    13  22    6.60   467.9    6.6      41.310
2014    9       20    13  27    6.60   468.0    6.6      41.316
2014    9       20    13  32    6.60   468.0    6.6      41.323
2014    9       20    13  38    6.60   468.0    6.6      41.330
2014    9       20    13  43    6.61   468.0    6.7      41.338
2014    9       20    13  48    6.61   468.1    6.7      41.346
2014    9       20    13  54    6.61   468.1    6.7      41.354
2014    9       20    13  59    6.61   468.1    6.7      41.362
2014    9       20    14   4    6.61   468.1    6.7      41.370
2014    9       20    14   9    6.62   468.2    6.7      41.379
2014    9       20    14  15    6.62   468.2    6.7      41.388
2014    9       20    14  20    6.62   468.2    6.7      41.397
2014    9       20    14  25    6.62   468.2    6.7      41.406
2014    9       20    14  31    6.62   468.3    6.7      41.416
2014    9       20    14  36    6.62   468.3    6.7      41.425
2014    9       20    14  41    6.63   468.3    6.7      41.435
2014    9       20    14  46    6.63   468.4    6.7      41.444
2014    9       20    14  52    6.63   468.4    6.7      41.454
2014    9       20    14  57    6.63   468.4    6.7      41.463
2014    9       20    15   2    6.63   468.5    6.7      41.472
2014    9       20    15   8    6.64   468.5    6.7      41.481
2014    9       20    15  13    6.64   468.5    6.7      41.490
2014    9       20    15  18    6.64   468.6    6.7      41.498
2014    9       20    15  24    6.64   468.6    6.7      41.506
2014    9       20    15  29    6.65   468.6    6.7      41.514
2014    9       20    15  34    6.65   468.6    6.7      41.522
2014    9       20    15  39    6.65   468.7    6.7      41.530
2014    9       20    15  45    6.65   468.7    6.7      41.537
2014    9       20    15  50    6.65   468.7    6.7      41.545
2014    9       20    15  55    6.66   468.8    6.7      41.552
2014    9       20    16   1    6.66   468.8    6.7      41.559
2014    9       20    16   6    6.66   468.8    6.7      41.565
2014    9       20    16  11    6.66   468.9    6.7      41.572
2014    9       20    16  16    6.66   468.9    6.7      41.578
2014    9       20    16  22    6.67   468.9    6.7      41.585
2014    9       20    16  27    6.67   469.0    6.7      41.591
2014    9       20    16  32    6.67   469.0    6.7      41.597
2014    9       20    16  38    6.67   469.1    6.7      41.604
2014    9       20    16  43    6.68   469.1    6.7      41.610
2014    9       20    16  48    6.68   469.1    6.7      41.616
2014    9       20    16  53    6.68   469.2    6.7      41.623
2014    9       20    16  59    6.68   469.2    6.7      41.629
2014    9       20    17   4    6.69   469.2    6.7      41.636
2014    9       20    17   9    6.69   469.3    6.7      41.643
2014    9       20    17  15    6.69   469.3    6.7      41.650
2014    9       20    17  20    6.69   469.4    6.7      41.657
2014    9       20    17  25    6.70   469.4    6.7      41.664
2014    9       20    17  30    6.70   469.4    6.7      41.672
2014    9       20    17  36    6.70   469.5    6.7      41.679
2014    9       20    17  41    6.70   469.5    6.7      41.688
2014    9       20    17  46    6.71   469.6    6.7      41.696
2014    9       20    17  52    6.71   469.6    6.7      41.705
2014    9       20    17  57    6.71   469.7    6.8      41.714
2014    9       20    18   2    6.72   469.7    6.8      41.724
2014    9       20    18   7    6.72   469.8    6.8      41.734
2014    9       20    18  13    6.72   469.8    6.8      41.745
2014    9       20    18  18    6.72   469.9    6.8      41.756
2014    9       20    18  23    6.73   469.9    6.8      41.767
2014    9       20    18  29    6.73   470.0    6.8      41.779
2014    9       20    18  34    6.73   470.0    6.8      41.792
2014    9       20    18  39    6.74   470.1    6.8      41.806
2014    9       20    18  44    6.74   470.1    6.8      41.820
2014    9       20    18  50    6.74   470.2    6.8      41.835
2014    9       20    18  55    6.74   470.2    6.8      41.851
2014    9       20    19   0    6.75   470.3    6.8      41.868
2014    9       20    19   6    6.75   470.4    6.8      41.886
2014    9       20    19  11    6.75   470.4    6.8      41.904
2014    9       20    19  16    6.76   470.5    6.8      41.925
2014    9       20    19  22    6.76   470.6    6.8      41.947
2014    9       20    19  27    6.76   470.6    6.8      41.972
2014    9       20    19  32    6.77   470.7    6.8      41.998
2014    9       20    19  37    6.77   470.8    6.8      42.025
2014    9       20    19  43    6.77   470.8    6.8      42.053
2014    9       20    19  48    6.77   470.9    6.8      42.083
2014    9       20    19  53    6.78   471.0    6.8      42.114
2014    9       20    19  59    6.78   471.1    6.9      42.146
2014    9       20    20   4    6.78   471.1    6.9      42.180
2014    9       20    20   9    6.79   471.2    6.9      42.214
2014    9       20    20  14    6.79   471.3    6.9      42.250
2014    9       20    20  20    6.79   471.4    6.9      42.287
2014    9       20    20  25    6.79   471.5    6.9      42.324
2014    9       20    20  30    6.80   471.6    6.9      42.361
2014    9       20    20  36    6.80   471.7    6.9      42.398
2014    9       20    20  41    6.80   471.7    6.9      42.433
2014    9       20    20  46    6.81   471.8    6.9      42.468
2014    9       20    20  51    6.81   471.9    6.9      42.503
2014    9       20    20  57    6.81   472.0    6.9      42.537
2014    9       20    21   2    6.81   472.1    6.9      42.570
2014    9       20    21   7    6.82   472.2    6.9      42.603
2014    9       20    21  13    6.82   472.3    6.9      42.635
2014    9       20    21  18    6.82   472.4    6.9      42.666
2014    9       20    21  23    6.82   472.5    6.9      42.697
2014    9       20    21  28    6.83   472.5    6.9      42.727
2014    9       20    21  34    6.83   472.6    6.9      42.756
2014    9       20    21  39    6.83   472.7    6.9      42.785
2014    9       20    21  44    6.84   472.8    6.9      42.813
2014    9       20    21  50    6.84   472.9    6.9      42.840
2014    9       20    21  55    6.84   473.0    6.9      42.867
2014    9       20    22   0    6.84   473.1    6.9      42.894
2014    9       20    22   5    6.85   473.2    6.9      42.920
2014    9       20    22  11    6.85   473.3    6.9      42.945
2014    9       20    22  16    6.85   473.4    6.9      42.970
2014    9       20    22  21    6.85   473.5    6.9      42.994
2014    9       20    22  27    6.86   473.6    6.9      43.018
2014    9       20    22  32    6.86   473.7    6.9      43.042
2014    9       20    22  37    6.86   473.8    6.9      43.065
2014    9       20    22  42    6.86   473.9    6.9      43.087
2014    9       20    22  48    6.87   474.0    6.9      43.110
2014    9       20    22  53    6.87   474.1    6.9      43.131
2014    9       20    22  58    6.87   474.2    6.9      43.153
2014    9       20    23   4    6.87   474.3    6.9      43.174
2014    9       20    23   9    6.88   474.4    6.9      43.195
2014    9       20    23  14    6.88   474.5    6.9      43.215
2014    9       20    23  20    6.88   474.6    6.9      43.236
2014    9       20    23  25    6.88   474.7    6.9      43.256
2014    9       20    23  30    6.89   474.8    6.9      43.276
2014    9       20    23  35    6.89   474.9    6.9      43.295
2014    9       20    23  41    6.89   475.0    6.9      43.315
2014    9       20    23  46    6.89   475.1    6.9      43.334
2014    9       20    23  51    6.90   475.2    6.9      43.354
2014    9       20    23  57    6.90   475.3    6.9      43.373
2014    9       21     0   2    6.90   475.4    6.9      43.393
2014    9       21     0   7    6.90   475.5    6.9      43.412
2014    9       21     0  12    6.91   475.6    6.9      43.432
2014    9       21     0  18    6.91   475.7    6.9      43.452
2014    9       21     0  23    6.91   475.8    6.9      43.472
2014    9       21     0  28    6.91   475.9    6.9      43.492
2014    9       21     0  34    6.92   476.0    6.9      43.513
2014    9       21     0  39    6.92   476.1    6.9      43.534
2014    9       21     0  44    6.92   476.2    6.9      43.555
2014    9       21     0  49    6.93   476.4    6.9      43.577
2014    9       21     0  55    6.93   476.5    6.9      43.598
2014    9       21     1   0    6.93   476.6    6.9      43.621
2014    9       21     1   5    6.93   476.7    6.9      43.644
2014    9       21     1  11    6.94   476.8    6.9      43.667
2014    9       21     1  16    6.94   476.9    6.9      43.691
2014    9       21     1  21    6.94   477.0    6.9      43.715
2014    9       21     1  26    6.95   477.2    6.9      43.740
2014    9       21     1  32    6.95   477.3    6.9      43.766
2014    9       21     1  37    6.95   477.4    6.9      43.792
2014    9       21     1  42    6.95   477.5    6.9      43.819
2014    9       21     1  48    6.96   477.6    6.9      43.847
2014    9       21     1  53    6.96   477.8    6.9      43.876
2014    9       21     1  58    6.96   477.9    6.9      43.907
2014    9       21     2   3    6.96   478.0    6.9      43.938
2014    9       21     2   9    6.97   478.1    6.9      43.971
2014    9       21     2  14    6.97   478.3    6.9      44.005
2014    9       21     2  19    6.97   478.4    6.9      44.040
2014    9       21     2  25    6.98   478.5    6.9      44.077
2014    9       21     2  30    6.98   478.7    6.9      44.116
2014    9       21     2  35    6.98   478.8    6.9      44.156
2014    9       21     2  40    6.98   478.9    6.9      44.197
2014    9       21     2  46    6.99   479.1    6.9      44.240
2014    9       21     2  51    6.99   479.2    6.9      44.283
2014    9       21     2  56    6.99   479.4    6.9      44.327
2014    9       21     3   2    6.99   479.5    6.9      44.372
2014    9       21     3   7    7.00   479.6    6.9      44.418
2014    9       21     3  12    7.00   479.8    6.9      44.464
2014    9       21     3  17    7.00   479.9    6.9      44.510
2014    9       21     3  23    7.00   480.1    6.9      44.557
2014    9       21     3  28    7.00   480.2    6.9      44.604
2014    9       21     3  33    7.01   480.4    6.9      44.651
2014    9       21     3  39    7.01   480.5    6.9      44.699
2014    9       21     3  44    7.01   480.7    6.9      44.745
2014    9       21     3  49    7.01   480.8    6.9      44.791
2014    9       21     3  54    7.02   481.0    6.9      44.836
2014    9       21     4   0    7.02   481.1    6.9      44.879
2014    9       21     4   5    7.02   481.3    6.9      44.921
2014    9       21     4  10    7.02   481.4    6.9      44.962
2014    9       21     4  16    7.02   481.6    6.9      45.002
2014    9       21     4  21    7.02   481.7    6.9      45.041
2014    9       21     4  26    7.03   481.9    6.9      45.080
2014    9       21     4  31    7.03   482.0    6.9      45.117
2014    9       21     4  37    7.03   482.2    6.9      45.153
2014    9       21     4  42    7.03   482.3    6.9      45.189
2014    9       21     4  47    7.03   482.5    6.9      45.223
2014    9       21     4  53    7.04   482.6    6.9      45.257
2014    9       21     4  58    7.04   482.8    6.9      45.291
2014    9       21     5   3    7.04   482.9    6.9      45.323
2014    9       21     5   9    7.04   483.1    6.9      45.355
2014    9       21     5  14    7.04   483.2    6.9      45.386
2014    9       21     5  19    7.04   483.4    6.9      45.416
2014    9       21     5  24    7.05   483.5    6.9      45.447
2014    9       21     5  30    7.05   483.7    6.9      45.476
2014    9       21     5  35    7.05   483.8    6.9      45.505
2014    9       21     5  40    7.05   484.0    6.9      45.533
2014    9       21     5  46    7.05   484.2    6.9      45.561
2014    9       21     5  51    7.05   484.3    6.9      45.589
2014    9       21     5  56    7.06   484.5    6.9      45.616
2014    9       21     6   1    7.06   484.6    6.9      45.642
2014    9       21     6   7    7.06   484.8    6.9      45.669
2014    9       21     6  12    7.06   484.9    6.9      45.695
2014    9       21     6  17    7.06   485.1    6.9      45.721
2014    9       21     6  23    7.06   485.2    6.9      45.747
2014    9       21     6  28    7.07   485.4    6.9      45.773
2014    9       21     6  33    7.07   485.5    6.8      45.798
2014    9       21     6  38    7.07   485.7    6.8      45.824
2014    9       21     6  44    7.07   485.8    6.8      45.849
2014    9       21     6  49    7.07   486.0    6.8      45.875
2014    9       21     6  54    7.07   486.1    6.8      45.902
2014    9       21     7   0    7.08   486.3    6.8      45.928
2014    9       21     7   5    7.08   486.4    6.8      45.955
2014    9       21     7  10    7.08   486.6    6.8      45.982
2014    9       21     7  16    7.08   486.7    6.8      46.010
2014    9       21     7  21    7.08   486.9    6.8      46.039
2014    9       21     7  26    7.09   487.0    6.8      46.069
2014    9       21     7  31    7.09   487.2    6.8      46.099
2014    9       21     7  37    7.09   487.3    6.8      46.131
2014    9       21     7  42    7.09   487.5    6.8      46.164
2014    9       21     7  47    7.10   487.6    6.8      46.197
2014    9       21     7  53    7.10   487.8    6.8      46.231
2014    9       21     7  58    7.10   487.9    6.8      46.266
2014    9       21     8   3    7.10   488.1    6.8      46.303
2014    9       21     8   8    7.10   488.3    6.8      46.340
2014    9       21     8  14    7.11   488.5    6.8      46.378
2014    9       21     8  19    7.11   488.6    6.8      46.416
2014    9       21     8  24    7.11   488.8    6.8      46.456
2014    9       21     8  30    7.11   489.0    6.8      46.495
2014    9       21     8  35    7.12   489.2    6.8      46.534
2014    9       21     8  40    7.12   489.4    6.8      46.572
2014    9       21     8  45    7.12   489.6    6.8      46.609
2014    9       21     8  51    7.12   489.8    6.8      46.646
2014    9       21     8  56    7.12   490.0    6.8      46.682
2014    9       21     9   1    7.13   490.2    6.8      46.718
2014    9       21     9   7    7.13   490.4    6.8      46.753
2014    9       21     9  12    7.13   490.6    6.8      46.788
2014    9       21     9  17    7.13   490.8    6.8      46.822
2014    9       21     9  23    7.13   491.0    6.8      46.857
2014    9       21     9  28    7.13   491.2    6.8      46.892
2014    9       21     9  33    7.13   491.4    6.8      46.927
2014    9       21     9  38    7.14   491.6    6.8      46.963
2014    9       21     9  44    7.14   491.8    6.8      46.999
2014    9       21     9  49    7.14   492.0    6.8      47.035
2014    9       21     9  54    7.14   492.2    6.8      47.071
2014    9       21    10   0    7.14   492.4    6.8      47.107
2014    9       21    10   5    7.14   492.6    6.8      47.143
2014    9       21    10  10    7.14   492.9    6.8      47.178
2014    9       21    10  15    7.14   493.1    6.8      47.213
2014    9       21    10  21    7.14   493.3    6.8      47.248
2014    9       21    10  26    7.15   493.5    6.8      47.283
2014    9       21    10  31    7.15   493.7    6.8      47.318
2014    9       21    10  37    7.15   493.9    6.7      47.352
2014    9       21    10  42    7.15   494.1    6.7      47.387
2014    9       21    10  47    7.15   494.3    6.7      47.421
2014    9       21    10  53    7.15   494.5    6.7      47.456
2014    9       21    10  58    7.15   494.7    6.7      47.490
2014    9       21    11   3    7.15   494.9    6.7      47.523
2014    9       21    11   8    7.15   495.2    6.7      47.555
2014    9       21    11  14    7.15   495.4    6.7      47.587
2014    9       21    11  19    7.15   495.6    6.7      47.618
2014    9       21    11  24    7.15   495.8    6.7      47.648
2014    9       21    11  30    7.15   496.0    6.7      47.677
2014    9       21    11  35    7.15   496.2    6.7      47.706
2014    9       21    11  40    7.15   496.4    6.7      47.734
2014    9       21    11  45    7.15   496.6    6.7      47.762
2014    9       21    11  51    7.15   496.8    6.7      47.788
2014    9       21    11  56    7.15   497.0    6.7      47.815
2014    9       21    12   1    7.16   497.2    6.7      47.840
2014    9       21    12   7    7.16   497.4    6.6      47.865
2014    9       21    12  12    7.16   497.6    6.6      47.890
2014    9       21    12  17    7.16   497.8    6.6      47.914
2014    9       21    12  22    7.16   498.0    6.6      47.938
2014    9       21    12  28    7.16   498.2    6.6      47.961
2014    9       21    12  33    7.16   498.4    6.6      47.983
2014    9       21    12  38    7.16   498.6    6.6      48.006
2014    9       21    12  44    7.16   498.8    6.6      48.027
2014    9       21    12  49    7.16   499.0    6.6      48.049
2014    9       21    12  54    7.16   499.2    6.6      48.069
2014    9       21    12  59    7.16   499.4    6.6      48.090
2014    9       21    13   5    7.16   499.6    6.6      48.110
2014    9       21    13  10    7.16   499.8    6.6      48.130
2014    9       21    13  15    7.16   500.0    6.6      48.150
2014    9       21    13  21    7.16   500.2    6.5      48.169
2014    9       21    13  26    7.16   500.3    6.5      48.188
2014    9       21    13  31    7.16   500.5    6.5      48.207
2014    9       21    13  37    7.16   500.7    6.5      48.225
2014    9       21    13  42    7.16   500.9    6.5      48.244
2014    9       21    13  47    7.16   501.1    6.5      48.263
2014    9       21    13  52    7.16   501.3    6.5      48.281
2014    9       21    13  58    7.16   501.5    6.5      48.300
2014    9       21    14   3    7.16   501.7    6.5      48.319
2014    9       21    14   8    7.16   501.8    6.5      48.337
2014    9       21    14  14    7.16   502.0    6.5      48.357
2014    9       21    14  19    7.16   502.2    6.5      48.376
2014    9       21    14  24    7.16   502.4    6.5      48.396
2014    9       21    14  29    7.17   502.5    6.5      48.416
2014    9       21    14  35    7.17   502.7    6.5      48.437
2014    9       21    14  40    7.17   502.9    6.4      48.459
2014    9       21    14  45    7.17   503.1    6.4      48.481
2014    9       21    14  51    7.17   503.2    6.4      48.505
2014    9       21    14  56    7.17   503.4    6.4      48.529
2014    9       21    15   1    7.17   503.6    6.4      48.553
2014    9       21    15   6    7.17   503.8    6.4      48.579
2014    9       21    15  12    7.17   503.9    6.4      48.605
2014    9       21    15  17    7.17   504.1    6.4      48.633
2014    9       21    15  22    7.17   504.3    6.4      48.661
2014    9       21    15  28    7.17   504.5    6.4      48.690
2014    9       21    15  33    7.17   504.7    6.4      48.719
2014    9       21    15  38    7.18   504.9    6.4      48.748
2014    9       21    15  44    7.18   505.1    6.4      48.778
2014    9       21    15  49    7.18   505.3    6.4      48.807
2014    9       21    15  54    7.18   505.5    6.4      48.835
2014    9       21    15  59    7.18   505.7    6.4      48.862
2014    9       21    16   5    7.18   505.9    6.4      48.889
2014    9       21    16  10    7.18   506.1    6.4      48.915
2014    9       21    16  15    7.18   506.3    6.4      48.940
2014    9       21    16  21    7.18   506.5    6.4      48.964
2014    9       21    16  26    7.18   506.7    6.4      48.987
2014    9       21    16  31    7.18   507.0    6.3      49.010
2014    9       21    16  36    7.18   507.2    6.3      49.032
2014    9       21    16  42    7.18   507.4    6.3      49.053
2014    9       21    16  47    7.17   507.6    6.3      49.074
2014    9       21    16  52    7.17   507.8    6.3      49.094
2014    9       21    16  58    7.17   508.0    6.3      49.114
2014    9       21    17   3    7.17   508.2    6.3      49.133
2014    9       21    17   8    7.17   508.4    6.3      49.151
2014    9       21    17  14    7.17   508.6    6.3      49.169
2014    9       21    17  19    7.17   508.8    6.3      49.186
2014    9       21    17  24    7.17   509.0    6.3      49.203
2014    9       21    17  29    7.17   509.2    6.3      49.219
2014    9       21    17  35    7.17   509.4    6.3      49.235
2014    9       21    17  40    7.17   509.6    6.3      49.250
2014    9       21    17  45    7.17   509.8    6.3      49.265
2014    9       21    17  51    7.17   510.0    6.3      49.280
2014    9       21    17  56    7.16   510.2    6.2      49.295
2014    9       21    18   1    7.16   510.4    6.2      49.310
2014    9       21    18   6    7.16   510.6    6.2      49.324
2014    9       21    18  12    7.16   510.8    6.2      49.338
2014    9       21    18  17    7.16   511.0    6.2      49.352
2014    9       21    18  22    7.16   511.2    6.2      49.367
2014    9       21    18  28    7.16   511.4    6.2      49.381
2014    9       21    18  33    7.16   511.5    6.2      49.395
2014    9       21    18  38    7.16   511.7    6.2      49.409
2014    9       21    18  43    7.15   511.9    6.2      49.423
2014    9       21    18  49    7.15   512.1    6.2      49.437
2014    9       21    18  54    7.15   512.3    6.2      49.450
2014    9       21    18  59    7.15   512.4    6.2      49.464
2014    9       21    19   5    7.15   512.6    6.2      49.478
2014    9       21    19  10    7.15   512.8    6.1      49.492
2014    9       21    19  15    7.15   513.0    6.1      49.507
2014    9       21    19  21    7.15   513.1    6.1      49.521
2014    9       21    19  26    7.15   513.3    6.1      49.535
2014    9       21    19  31    7.15   513.5    6.1      49.549
2014    9       21    19  36    7.15   513.7    6.1      49.563
2014    9       21    19  42    7.14   513.8    6.1      49.576
2014    9       21    19  47    7.14   514.0    6.1      49.590
2014    9       21    19  52    7.14   514.2    6.1      49.603
2014    9       21    19  58    7.14   514.4    6.1      49.616
2014    9       21    20   3    7.14   514.5    6.1      49.629
2014    9       21    20   8    7.14   514.7    6.1      49.641
2014    9       21    20  13    7.14   514.9    6.1      49.654
2014    9       21    20  19    7.14   515.0    6.1      49.665
2014    9       21    20  24    7.14   515.2    6.0      49.677
2014    9       21    20  29    7.14   515.4    6.0      49.688
2014    9       21    20  35    7.14   515.6    6.0      49.698
2014    9       21    20  40    7.14   515.7    6.0      49.708
2014    9       21    20  45    7.14   515.9    6.0      49.717
2014    9       21    20  50    7.14   516.1    6.0      49.726
2014    9       21    20  56    7.14   516.2    6.0      49.735
2014    9       21    21   1    7.14   516.4    6.0      49.743
2014    9       21    21   6    7.13   516.6    6.0      49.751
2014    9       21    21  12    7.13   516.7    6.0      49.759
2014    9       21    21  17    7.13   516.9    6.0      49.766
2014    9       21    21  22    7.13   517.1    6.0      49.773
2014    9       21    21  27    7.13   517.2    6.0      49.780
2014    9       21    21  33    7.13   517.4    6.0      49.786
2014    9       21    21  38    7.13   517.6    5.9      49.792
2014    9       21    21  43    7.13   517.7    5.9      49.799
2014    9       21    21  49    7.13   517.9    5.9      49.804
2014    9       21    21  54    7.13   518.1    5.9      49.810
2014    9       21    21  59    7.13   518.2    5.9      49.815
2014    9       21    22   5    7.13   518.4    5.9      49.821
2014    9       21    22  10    7.13   518.5    5.9      49.826
2014    9       21    22  15    7.13   518.7    5.9      49.831
2014    9       21    22  20    7.12   518.9    5.9      49.835
2014    9       21    22  26    7.12   519.0    5.9      49.840
2014    9       21    22  31    7.12   519.2    5.9      49.844
2014    9       21    22  36    7.12   519.3    5.9      49.849
2014    9       21    22  42    7.12   519.5    5.9      49.853
2014    9       21    22  47    7.12   519.6    5.8      49.857
2014    9       21    22  52    7.12   519.8    5.8      49.861
2014    9       21    22  57    7.12   519.9    5.8      49.865
2014    9       21    23   3    7.12   520.1    5.8      49.870
2014    9       21    23   8    7.11   520.2    5.8      49.874
2014    9       21    23  13    7.11   520.4    5.8      49.878
2014    9       21    23  19    7.11   520.5    5.8      49.882
2014    9       21    23  24    7.11   520.7    5.8      49.886
2014    9       21    23  29    7.11   520.8    5.8      49.891
2014    9       21    23  34    7.11   520.9    5.8      49.896
2014    9       21    23  40    7.11   521.1    5.8      49.901
2014    9       21    23  45    7.11   521.2    5.8      49.906
2014    9       21    23  50    7.11   521.4    5.8      49.911
2014    9       21    23  56    7.10   521.5    5.8      49.916
2014    9       22     0   1    7.10   521.6    5.8      49.922
2014    9       22     0   6    7.10   521.8    5.8      49.928
2014    9       22     0  12    7.10   521.9    5.7      49.934
2014    9       22     0  17    7.10   522.0    5.7      49.940
2014    9       22     0  22    7.10   522.2    5.7      49.947
2014    9       22     0  27    7.10   522.3    5.7      49.953
2014    9       22     0  33    7.09   522.4    5.7      49.961
2014    9       22     0  38    7.09   522.5    5.7      49.968
2014    9       22     0  43    7.09   522.7    5.7      49.976
2014    9       22     0  49    7.09   522.8    5.7      49.984
2014    9       22     0  54    7.09   522.9    5.7      49.993
2014    9       22     0  59    7.09   523.0    5.7      50.002
2014    9       22     1   4    7.09   523.2    5.7      50.012
2014    9       22     1  10    7.08   523.3    5.7      50.022
2014    9       22     1  15    7.08   523.4    5.7      50.033
2014    9       22     1  20    7.08   523.5    5.7      50.045
2014    9       22     1  26    7.08   523.6    5.7      50.057
2014    9       22     1  31    7.08   523.8    5.7      50.070
2014    9       22     1  36    7.08   523.9    5.7      50.084
2014    9       22     1  41    7.08   524.0    5.7      50.098
2014    9       22     1  47    7.08   524.1    5.7      50.112
2014    9       22     1  52    7.08   524.2    5.7      50.125
2014    9       22     1  57    7.07   524.3    5.7      50.138
2014    9       22     2   3    7.07   524.4    5.7      50.151
2014    9       22     2   8    7.07   524.6    5.7      50.164
2014    9       22     2  13    7.07   524.7    5.7      50.176
2014    9       22     2  19    7.07   524.8    5.7      50.189
2014    9       22     2  24    7.07   524.9    5.7      50.201
2014    9       22     2  29    7.07   525.0    5.6      50.213
2014    9       22     2  34    7.07   525.1    5.6      50.224
2014    9       22     2  40    7.07   525.2    5.6      50.236
2014    9       22     2  45    7.07   525.3    5.6      50.247
2014    9       22     2  50    7.07   525.4    5.6      50.259
2014    9       22     2  56    7.07   525.5    5.6      50.270
2014    9       22     3   1    7.07   525.6    5.6      50.280
2014    9       22     3   6    7.07   525.7    5.6      50.291
2014    9       22     3  11    7.07   525.9    5.6      50.301
2014    9       22     3  17    7.07   526.0    5.6      50.311
2014    9       22     3  22    7.06   526.1    5.6      50.321
2014    9       22     3  27    7.06   526.2    5.6      50.330
2014    9       22     3  33    7.06   526.3    5.6      50.338
2014    9       22     3  38    7.06   526.4    5.6      50.346
2014    9       22     3  43    7.06   526.5    5.6      50.354
2014    9       22     3  48    7.06   526.6    5.6      50.361
2014    9       22     3  54    7.06   526.8    5.6      50.368
2014    9       22     3  59    7.06   526.9    5.6      50.375
2014    9       22     4   4    7.06   527.0    5.6      50.381
2014    9       22     4  10    7.06   527.1    5.6      50.387
2014    9       22     4  15    7.06   527.2    5.6      50.392
2014    9       22     4  20    7.06   527.3    5.5      50.398
2014    9       22     4  26    7.06   527.4    5.5      50.403
2014    9       22     4  31    7.06   527.5    5.5      50.407
2014    9       22     4  36    7.06   527.7    5.5      50.412
2014    9       22     4  41    7.06   527.8    5.5      50.416
2014    9       22     4  47    7.06   527.9    5.5      50.421
2014    9       22     4  52    7.06   528.0    5.5      50.425
2014    9       22     4  57    7.06   528.1    5.5      50.429
2014    9       22     5   3    7.06   528.2    5.5      50.433
2014    9       22     5   8    7.05   528.3    5.5      50.437
2014    9       22     5  13    7.05   528.4    5.5      50.440
2014    9       22     5  18    7.05   528.6    5.5      50.444
2014    9       22     5  24    7.05   528.7    5.5      50.447
2014    9       22     5  29    7.05   528.8    5.5      50.451
2014    9       22     5  34    7.05   528.9    5.5      50.455
2014    9       22     5  40    7.05   529.0    5.5      50.458
2014    9       22     5  45    7.05   529.1    5.5      50.462
2014    9       22     5  50    7.05   529.2    5.5      50.465
2014    9       22     5  55    7.05   529.3    5.5      50.469
2014    9       22     6   1    7.05   529.5    5.5      50.473
2014    9       22     6   6    7.05   529.6    5.4      50.477
2014    9       22     6  11    7.05   529.7    5.4      50.481
2014    9       22     6  17    7.05   529.8    5.4      50.485
2014    9       22     6  22    7.04   529.9    5.4      50.489
2014    9       22     6  27    7.04   530.0    5.4      50.493
2014    9       22     6  33    7.04   530.1    5.4      50.498
2014    9       22     6  38    7.04   530.2    5.4      50.503
2014    9       22     6  43    7.04   530.3    5.4      50.508
2014    9       22     6  48    7.04   530.5    5.4      50.513
2014    9       22     6  54    7.04   530.6    5.4      50.519
2014    9       22     6  59    7.04   530.7    5.4      50.524
2014    9       22     7   4    7.04   530.8    5.4      50.531
2014    9       22     7  10    7.04   530.9    5.4      50.537
2014    9       22     7  15    7.04   531.0    5.4      50.544
2014    9       22     7  20    7.04   531.1    5.4      50.552
2014    9       22     7  25    7.04   531.2    5.4      50.560
2014    9       22     7  31    7.04   531.3    5.4      50.569
2014    9       22     7  36    7.03   531.4    5.4      50.578
2014    9       22     7  41    7.03   531.5    5.4      50.588
2014    9       22     7  47    7.03   531.6    5.4      50.599
2014    9       22     7  52    7.03   531.7    5.4      50.610
2014    9       22     7  57    7.03   531.8    5.4      50.622
2014    9       22     8   2    7.03   531.9    5.4      50.635
2014    9       22     8   8    7.03   532.0    5.4      50.648
2014    9       22     8  13    7.03   532.1    5.4      50.663
2014    9       22     8  18    7.03   532.2    5.4      50.678
2014    9       22     8  24    7.03   532.3    5.4      50.695
2014    9       22     8  29    7.03   532.4    5.4      50.712
2014    9       22     8  34    7.03   532.5    5.4      50.730
2014    9       22     8  39    7.03   532.6    5.4      50.750
2014    9       22     8  45    7.03   532.7    5.4      50.770
2014    9       22     8  50    7.03   532.8    5.4      50.792
2014    9       22     8  55    7.03   532.9    5.4      50.813
2014    9       22     9   1    7.03   533.1    5.4      50.835
2014    9       22     9   6    7.03   533.2    5.4      50.856
2014    9       22     9  11    7.03   533.3    5.4      50.879
2014    9       22     9  17    7.03   533.4    5.4      50.901
2014    9       22     9  22    7.03   533.5    5.4      50.924
2014    9       22     9  27    7.03   533.6    5.4      50.946
2014    9       22     9  32    7.03   533.7    5.4      50.968
2014    9       22     9  38    7.03   533.8    5.4      50.990
2014    9       22     9  43    7.03   533.9    5.4      51.011
2014    9       22     9  48    7.03   534.0    5.4      51.031
2014    9       22     9  54    7.03   534.1    5.4      51.051
2014    9       22     9  59    7.03   534.3    5.4      51.070
2014    9       22    10   4    7.03   534.4    5.4      51.088
2014    9       22    10   9    7.03   534.5    5.4      51.106
2014    9       22    10  15    7.03   534.6    5.4      51.124
2014    9       22    10  20    7.03   534.7    5.4      51.141
2014    9       22    10  25    7.03   534.8    5.3      51.157
2014    9       22    10  31    7.03   534.9    5.3      51.173
2014    9       22    10  36    7.03   535.0    5.3      51.189
2014    9       22    10  41    7.03   535.1    5.3      51.204
2014    9       22    10  46    7.03   535.3    5.3      51.219
2014    9       22    10  52    7.03   535.4    5.3      51.234
2014    9       22    10  57    7.03   535.5    5.3      51.248
2014    9       22    11   2    7.03   535.6    5.3      51.261
2014    9       22    11   8    7.03   535.7    5.3      51.275
2014    9       22    11  13    7.03   535.8    5.3      51.288
2014    9       22    11  18    7.03   535.9    5.3      51.300
2014    9       22    11  24    7.03   536.0    5.3      51.313
2014    9       22    11  29    7.03   536.1    5.3      51.325
2014    9       22    11  34    7.03   536.3    5.3      51.336
2014    9       22    11  39    7.03   536.4    5.3      51.348
2014    9       22    11  45    7.03   536.5    5.3      51.359
2014    9       22    11  50    7.03   536.6    5.3      51.370
2014    9       22    11  55    7.03   536.7    5.3      51.381
2014    9       22    12   1    7.03   536.8    5.3      51.392
2014    9       22    12   6    7.03   536.9    5.3      51.402
2014    9       22    12  11    7.03   537.0    5.3      51.412
2014    9       22    12  16    7.03   537.1    5.3      51.422
2014    9       22    12  22    7.03   537.3    5.3      51.432
2014    9       22    12  27    7.03   537.4    5.3      51.443
2014    9       22    12  32    7.03   537.5    5.3      51.452
2014    9       22    12  38    7.03   537.6    5.3      51.462
2014    9       22    12  43    7.03   537.7    5.3      51.472
2014    9       22    12  48    7.03   537.8    5.2      51.482
2014    9       22    12  53    7.03   537.9    5.2      51.492
2014    9       22    12  59    7.03   538.1    5.2      51.502
2014    9       22    13   4    7.03   538.2    5.2      51.512
2014    9       22    13   9    7.03   538.3    5.2      51.522
2014    9       22    13  15    7.03   538.4    5.2      51.532
2014    9       22    13  20    7.03   538.5    5.2      51.542
2014    9       22    13  25    7.03   538.6    5.2      51.553
2014    9       22    13  30    7.03   538.8    5.2      51.563
2014    9       22    13  36    7.03   538.9    5.2      51.574
2014    9       22    13  41    7.03   539.0    5.2      51.585
2014    9       22    13  46    7.03   539.1    5.2      51.596
2014    9       22    13  52    7.03   539.2    5.2      51.606
2014    9       22    13  57    7.03   539.4    5.2      51.618
2014    9       22    14   2    7.03   539.5    5.2      51.629
2014    9       22    14   8    7.03   539.6    5.2      51.640
2014    9       22    14  13    7.03   539.7    5.2      51.651
2014    9       22    14  18    7.03   539.8    5.2      51.663
2014    9       22    14  23    7.03   540.0    5.2      51.674
2014    9       22    14  29    7.03   540.1    5.2      51.686
2014    9       22    14  34    7.03   540.2    5.2      51.697
2014    9       22    14  39    7.03   540.3    5.2      51.709
2014    9       22    14  45    7.03   540.5    5.2      51.720
2014    9       22    14  50    7.03   540.6    5.2      51.732
2014    9       22    14  55    7.03   540.7    5.2      51.743
2014    9       22    15   0    7.03   540.8    5.2      51.755
2014    9       22    15   6    7.03   541.0    5.2      51.766
2014    9       22    15  11    7.03   541.1    5.2      51.778
2014    9       22    15  16    7.03   541.2    5.2      51.789
2014    9       22    15  22    7.02   541.3    5.2      51.800
2014    9       22    15  27    7.02   541.4    5.2      51.812
2014    9       22    15  32    7.02   541.6    5.2      51.825
2014    9       22    15  37    7.02   541.7    5.2      51.837
2014    9       22    15  43    7.02   541.8    5.2      51.850
2014    9       22    15  48    7.02   541.9    5.2      51.864
2014    9       22    15  53    7.02   542.1    5.2      51.878
2014    9       22    15  59    7.03   542.2    5.2      51.893
2014    9       22    16   4    7.03   542.3    5.2      51.909
2014    9       22    16   9    7.03   542.4    5.2      51.926
2014    9       22    16  15    7.03   542.6    5.2      51.945
2014    9       22    16  20    7.03   542.7    5.2      51.965
2014    9       22    16  25    7.03   542.8    5.2      51.986
2014    9       22    16  30    7.03   542.9    5.2      52.009
2014    9       22    16  36    7.03   543.1    5.2      52.032
2014    9       22    16  41    7.03   543.2    5.2      52.056
2014    9       22    16  46    7.03   543.3    5.2      52.081
2014    9       22    16  52    7.03   543.5    5.2      52.106
2014    9       22    16  57    7.03   543.6    5.2      52.132
2014    9       22    17   2    7.03   543.7    5.2      52.159
2014    9       22    17   7    7.03   543.9    5.2      52.187
2014    9       22    17  13    7.03   544.0    5.2      52.215
2014    9       22    17  18    7.03   544.1    5.2      52.244
2014    9       22    17  23    7.03   544.3    5.2      52.274
2014    9       22    17  29    7.03   544.4    5.2      52.305
2014    9       22    17  34    7.03   544.5    5.2      52.337
2014    9       22    17  39    7.03   544.7    5.2      52.369
2014    9       22    17  44    7.03   544.8    5.2      52.402
2014    9       22    17  50    7.03   545.0    5.1      52.435
2014    9       22    17  55    7.03   545.1    5.1      52.468
2014    9       22    18   0    7.03   545.2    5.1      52.501
2014    9       22    18   6    7.03   545.4    5.1      52.532
2014    9       22    18  11    7.03   545.5    5.1      52.562
2014    9       22    18  16    7.03   545.6    5.1      52.591
2014    9       22    18  21    7.03   545.8    5.1      52.620
2014    9       22    18  27    7.03   545.9    5.1      52.647
2014    9       22    18  32    7.03   546.1    5.1      52.674
2014    9       22    18  37    7.03   546.2    5.1      52.699
2014    9       22    18  43    7.03   546.3    5.1      52.724
2014    9       22    18  48    7.03   546.5    5.1      52.748
2014    9       22    18  53    7.03   546.6    5.1      52.772
2014    9       22    18  59    7.03   546.8    5.1      52.794
2014    9       22    19   4    7.03   546.9    5.1      52.816
2014    9       22    19   9    7.03   547.0    5.1      52.837
2014    9       22    19  14    7.03   547.2    5.1      52.858
2014    9       22    19  20    7.03   547.3    5.1      52.878
2014    9       22    19  25    7.03   547.4    5.1      52.898
2014    9       22    19  30    7.03   547.6    5.1      52.916
2014    9       22    19  36    7.03   547.7    5.1      52.935
2014    9       22    19  41    7.03   547.9    5.1      52.953
2014    9       22    19  46    7.03   548.0    5.1      52.970
2014    9       22    19  51    7.03   548.1    5.1      52.987
2014    9       22    19  57    7.03   548.3    5.1      53.004
2014    9       22    20   2    7.03   548.4    5.1      53.020
2014    9       22    20   7    7.03   548.5    5.1      53.036
2014    9       22    20  13    7.03   548.7    5.1      53.052
2014    9       22    20  18    7.03   548.8    5.1      53.067
2014    9       22    20  23    7.03   548.9    5.1      53.082
2014    9       22    20  28    7.03   549.1    5.1      53.097
2014    9       22    20  34    7.03   549.2    5.1      53.111
2014    9       22    20  39    7.03   549.4    5.1      53.126
2014    9       22    20  44    7.03   549.5    5.0      53.140
2014    9       22    20  50    7.03   549.6    5.0      53.154
2014    9       22    20  55    7.03   549.8    5.0      53.167
2014    9       22    21   0    7.03   549.9    5.0      53.181
2014    9       22    21   5    7.03   550.0    5.0      53.194
2014    9       22    21  11    7.03   550.2    5.0      53.207
2014    9       22    21  16    7.03   550.3    5.0      53.220
2014    9       22    21  21    7.03   550.5    5.0      53.232
2014    9       22    21  27    7.03   550.6    5.0      53.245
2014    9       22    21  32    7.03   550.7    5.0      53.257
2014    9       22    21  37    7.03   550.9    5.0      53.269
2014    9       22    21  43    7.03   551.0    5.0      53.281
2014    9       22    21  48    7.03   551.2    5.0      53.293
2014    9       22    21  53    7.03   551.3    5.0      53.305
2014    9       22    21  58    7.03   551.5    5.0      53.317
2014    9       22    22   4    7.03   551.6    5.0      53.328
2014    9       22    22   9    7.03   551.7    5.0      53.340
2014    9       22    22  14    7.03   551.9    5.0      53.352
2014    9       22    22  20    7.03   552.0    5.0      53.363
2014    9       22    22  25    7.03   552.2    5.0      53.374
2014    9       22    22  30    7.03   552.3    5.0      53.386
2014    9       22    22  35    7.03   552.5    5.0      53.398
2014    9       22    22  41    7.03   552.6    5.0      53.410
2014    9       22    22  46    7.03   552.8    5.0      53.421
2014    9       22    22  51    7.03   552.9    5.0      53.434
2014    9       22    22  57    7.03   553.1    5.0      53.446
2014    9       22    23   2    7.04   553.2    5.0      53.459
2014    9       22    23   7    7.04   553.4    5.0      53.471
2014    9       22    23  12    7.04   553.5    5.0      53.485
2014    9       22    23  18    7.04   553.7    5.0      53.499
2014    9       22    23  23    7.04   553.8    5.0      53.513
2014    9       22    23  28    7.04   554.0    5.0      53.528
2014    9       22    23  34    7.04   554.1    5.0      53.543
2014    9       22    23  39    7.04   554.3    5.0      53.559
2014    9       22    23  44    7.04   554.4    5.0      53.576
2014    9       22    23  50    7.04   554.6    5.0      53.593
2014    9       22    23  55    7.04   554.7    4.9      53.612
2014    9       23     0   0    7.04   554.9    4.9      53.631
2014    9       23     0   5    7.04   555.0    4.9      53.651
2014    9       23     0  11    7.04   555.2    4.9      53.673
2014    9       23     0  16    7.04   555.3    4.9      53.695
2014    9       23     0  21    7.04   555.5    4.9      53.719
2014    9       23     0  27    7.04   555.6    4.9      53.744
2014    9       23     0  32    7.04   555.8    4.9      53.771
2014    9       23     0  37    7.04   555.9    4.9      53.799
2014    9       23     0  42    7.04   556.1    4.9      53.829
2014    9       23     0  48    7.04   556.3    4.9      53.861
2014    9       23     0  53    7.04   556.4    4.9      53.894
2014    9       23     0  58    7.04   556.6    4.9      53.929
2014    9       23     1   4    7.04   556.7    4.9      53.966
2014    9       23     1   9    7.04   556.9    4.9      54.006
2014    9       23     1  14    7.04   557.1    4.9      54.047
2014    9       23     1  19    7.04   557.2    4.9      54.091
2014    9       23     1  25    7.04   557.4    4.9      54.136
2014    9       23     1  30    7.04   557.6    4.9      54.183
2014    9       23     1  35    7.04   557.7    4.9      54.230
2014    9       23     1  41    7.04   557.9    4.9      54.276
2014    9       23     1  46    7.04   558.1    4.9      54.322
2014    9       23     1  51    7.04   558.2    4.9      54.366
2014    9       23     1  56    7.04   558.4    4.9      54.410
2014    9       23     2   2    7.04   558.6    4.9      54.453
2014    9       23     2   7    7.04   558.7    4.9      54.495
2014    9       23     2  12    7.04   558.9    4.9      54.537
2014    9       23     2  18    7.04   559.1    4.9      54.578
2014    9       23     2  23    7.04   559.3    4.9      54.618
2014    9       23     2  28    7.04   559.4    4.9      54.657
2014    9       23     2  33    7.04   559.6    4.9      54.696
2014    9       23     2  39    7.04   559.8    4.9      54.734
2014    9       23     2  44    7.04   559.9    4.9      54.771
2014    9       23     2  49    7.04   560.1    4.9      54.806
2014    9       23     2  55    7.04   560.3    4.9      54.841
2014    9       23     3   0    7.04   560.4    4.9      54.876
2014    9       23     3   5    7.04   560.6    4.9      54.909
2014    9       23     3  11    7.04   560.8    4.9      54.942
2014    9       23     3  16    7.04   561.0    4.9      54.974
2014    9       23     3  21    7.04   561.1    4.9      55.006
2014    9       23     3  26    7.04   561.3    4.9      55.036
2014    9       23     3  32    7.04   561.5    4.9      55.067
2014    9       23     3  37    7.04   561.6    4.9      55.097
2014    9       23     3  42    7.05   561.8    4.9      55.126
2014    9       23     3  48    7.05   562.0    4.9      55.155
2014    9       23     3  53    7.05   562.2    4.9      55.183
2014    9       23     3  58    7.05   562.4    4.9      55.211
2014    9       23     4   3    7.05   562.5    4.9      55.238
2014    9       23     4   9    7.05   562.7    4.9      55.265
2014    9       23     4  14    7.05   562.9    4.9      55.292
2014    9       23     4  19    7.05   563.1    4.9      55.318
2014    9       23     4  25    7.05   563.3    4.9      55.343
2014    9       23     4  30    7.05   563.4    4.9      55.367
2014    9       23     4  35    7.05   563.6    4.9      55.391
2014    9       23     4  40    7.05   563.8    4.9      55.414
2014    9       23     4  46    7.05   564.0    4.9      55.437
2014    9       23     4  51    7.05   564.2    4.9      55.459
2014    9       23     4  56    7.05   564.3    4.8      55.481
2014    9       23     5   2    7.05   564.5    4.8      55.502
2014    9       23     5   7    7.05   564.7    4.8      55.522
2014    9       23     5  12    7.05   564.9    4.8      55.542
2014    9       23     5  18    7.05   565.1    4.8      55.562
2014    9       23     5  23    7.05   565.3    4.8      55.581
2014    9       23     5  28    7.05   565.5    4.8      55.600
2014    9       23     5  33    7.05   565.7    4.8      55.618
2014    9       23     5  39    7.05   565.8    4.8      55.636
2014    9       23     5  44    7.05   566.0    4.8      55.654
2014    9       23     5  49    7.05   566.2    4.8      55.672
2014    9       23     5  55    7.05   566.4    4.8      55.689
2014    9       23     6   0    7.05   566.6    4.8      55.707
2014    9       23     6   5    7.05   566.8    4.8      55.724
2014    9       23     6  10    7.05   567.0    4.8      55.741
2014    9       23     6  16    7.05   567.2    4.8      55.758
2014    9       23     6  21    7.05   567.4    4.8      55.776
2014    9       23     6  26    7.05   567.6    4.8      55.793
2014    9       23     6  32    7.05   567.8    4.8      55.811
2014    9       23     6  37    7.05   568.0    4.8      55.828
2014    9       23     6  42    7.05   568.2    4.8      55.846
2014    9       23     6  47    7.05   568.3    4.8      55.865
2014    9       23     6  53    7.05   568.5    4.8      55.883
2014    9       23     6  58    7.05   568.7    4.8      55.902
2014    9       23     7   3    7.05   568.9    4.8      55.922
2014    9       23     7   9    7.05   569.1    4.8      55.941
2014    9       23     7  14    7.05   569.3    4.8      55.962
2014    9       23     7  19    7.05   569.5    4.7      55.982
2014    9       23     7  24    7.05   569.7    4.7      56.004
2014    9       23     7  30    7.05   569.9    4.7      56.026
2014    9       23     7  35    7.05   570.1    4.7      56.049
2014    9       23     7  40    7.05   570.3    4.7      56.073
2014    9       23     7  46    7.05   570.5    4.7      56.097
2014    9       23     7  51    7.05   570.7    4.7      56.122
2014    9       23     7  56    7.05   571.0    4.7      56.148
2014    9       23     8   1    7.05   571.2    4.7      56.175
2014    9       23     8   7    7.05   571.4    4.7      56.204
2014    9       23     8  12    7.05   571.6    4.7      56.233
2014    9       23     8  17    7.05   571.8    4.7      56.263
2014    9       23     8  23    7.05   572.0    4.7      56.294
2014    9       23     8  28    7.05   572.2    4.7      56.326
2014    9       23     8  33    7.05   572.4    4.7      56.357
2014    9       23     8  39    7.05   572.6    4.7      56.389
2014    9       23     8  44    7.04   572.8    4.7      56.420
2014    9       23     8  49    7.04   573.0    4.7      56.452
2014    9       23     8  54    7.04   573.2    4.7      56.484
2014    9       23     9   0    7.04   573.4    4.7      56.517
2014    9       23     9   5    7.04   573.6    4.7      56.549
2014    9       23     9  10    7.04   573.9    4.7      56.582
2014    9       23     9  16    7.04   574.1    4.7      56.616
2014    9       23     9  21    7.04   574.3    4.7      56.651
2014    9       23     9  26    7.04   574.5    4.7      56.687
2014    9       23     9  31    7.04   574.7    4.7      56.723
2014    9       23     9  37    7.04   574.9    4.7      56.761
2014    9       23     9  42    7.04   575.1    4.7      56.799
2014    9       23     9  47    7.04   575.3    4.7      56.839
2014    9       23     9  53    7.04   575.5    4.7      56.880
2014    9       23     9  58    7.04   575.7    4.7      56.922
2014    9       23    10   3    7.04   575.9    4.7      56.966
2014    9       23    10   8    7.04   576.1    4.7      57.012
2014    9       23    10  14    7.03   576.3    4.7      57.058
2014    9       23    10  19    7.03   576.5    4.7      57.105
2014    9       23    10  24    7.03   576.7    4.7      57.153
2014    9       23    10  30    7.03   576.9    4.7      57.201
2014    9       23    10  35    7.03   577.1    4.7      57.248
2014    9       23    10  40    7.03   577.3    4.7      57.295
2014    9       23    10  45    7.03   577.5    4.7      57.341
2014    9       23    10  51    7.03   577.7    4.7      57.387
2014    9       23    10  56    7.03   578.0    4.7      57.432
2014    9       23    11   1    7.03   578.2    4.7      57.476
2014    9       23    11   7    7.03   578.4    4.7      57.519
2014    9       23    11  12    7.03   578.6    4.7      57.561
2014    9       23    11  17    7.03   578.8    4.7      57.602
2014    9       23    11  23    7.03   579.0    4.7      57.642
2014    9       23    11  28    7.03   579.3    4.6      57.682
2014    9       23    11  33    7.03   579.5    4.6      57.721
2014    9       23    11  38    7.03   579.7    4.6      57.759
2014    9       23    11  44    7.03   579.9    4.6      57.797
2014    9       23    11  49    7.03   580.2    4.6      57.834
2014    9       23    11  54    7.03   580.4    4.6      57.871
2014    9       23    12   0    7.03   580.6    4.6      57.908
2014    9       23    12   5    7.03   580.8    4.6      57.944
2014    9       23    12  10    7.03   581.1    4.6      57.981
2014    9       23    12  15    7.03   581.3    4.6      58.018
2014    9       23    12  21    7.03   581.5    4.6      58.054
2014    9       23    12  26    7.03   581.8    4.6      58.092
2014    9       23    12  31    7.03   582.0    4.6      58.129
2014    9       23    12  37    7.03   582.2    4.6      58.168
2014    9       23    12  42    7.03   582.4    4.6      58.207
2014    9       23    12  47    7.03   582.7    4.6      58.247
2014    9       23    12  52    7.03   582.9    4.6      58.286
2014    9       23    12  58    7.03   583.2    4.6      58.328
2014    9       23    13   3    7.03   583.4    4.6      58.370
2014    9       23    13   8    7.03   583.6    4.6      58.413
2014    9       23    13  14    7.03   583.9    4.6      58.456
2014    9       23    13  19    7.03   584.1    4.6      58.501
2014    9       23    13  24    7.03   584.4    4.6      58.546
2014    9       23    13  29    7.03   584.6    4.6      58.590
2014    9       23    13  35    7.03   584.9    4.6      58.633
2014    9       23    13  40    7.03   585.1    4.6      58.675
2014    9       23    13  45    7.03   585.4    4.6      58.717
2014    9       23    13  51    7.03   585.6    4.6      58.758
2014    9       23    13  56    7.03   585.9    4.6      58.799
2014    9       23    14   1    7.03   586.1    4.6      58.839
2014    9       23    14   7    7.03   586.4    4.6      58.879
2014    9       23    14  12    7.03   586.6    4.6      58.919
2014    9       23    14  17    7.02   586.9    4.6      58.959
2014    9       23    14  22    7.02   587.1    4.6      58.999
2014    9       23    14  28    7.02   587.4    4.6      59.039
2014    9       23    14  33    7.02   587.7    4.5      59.079
2014    9       23    14  38    7.02   587.9    4.5      59.119
2014    9       23    14  44    7.02   588.2    4.5      59.158
2014    9       23    14  49    7.02   588.4    4.5      59.197
2014    9       23    14  54    7.02   588.7    4.5      59.233
2014    9       23    14  59    7.02   588.9    4.5      59.269
2014    9       23    15   5    7.02   589.2    4.5      59.304
2014    9       23    15  10    7.02   589.4    4.5      59.338
2014    9       23    15  15    7.02   589.7    4.5      59.370
2014    9       23    15  21    7.02   589.9    4.5      59.402
2014    9       23    15  26    7.02   590.2    4.5      59.433
2014    9       23    15  31    7.02   590.4    4.5      59.464
2014    9       23    15  36    7.02   590.7    4.5      59.494
2014    9       23    15  42    7.02   590.9    4.5      59.524
2014    9       23    15  47    7.02   591.2    4.5      59.553
2014    9       23    15  52    7.02   591.4    4.5      59.582
2014    9       23    15  58    7.01   591.7    4.5      59.611
2014    9       23    16   3    7.01   591.9    4.5      59.639
2014    9       23    16   8    7.01   592.2    4.5      59.668
2014    9       23    16  13    7.01   592.4    4.5      59.696
2014    9       23    16  19    7.01   592.7    4.5      59.725
2014    9       23    16  24    7.01   592.9    4.5      59.754
2014    9       23    16  29    7.01   593.2    4.5      59.783
2014    9       23    16  35    7.01   593.4    4.4      59.812
2014    9       23    16  40    7.01   593.6    4.4      59.840
2014    9       23    16  45    7.01   593.9    4.4      59.869
2014    9       23    16  51    7.01   594.1    4.4      59.898
2014    9       23    16  56    7.01   594.4    4.4      59.926
2014    9       23    17   1    7.01   594.6    4.4      59.955
2014    9       23    17   6    7.01   594.9    4.4      59.983
2014    9       23    17  12    7.01   595.1    4.4      60.012
2014    9       23    17  17    7.01   595.4    4.4      60.040
2014    9       23    17  22    7.01   595.6    4.4      60.069
2014    9       23    17  28    7.00   595.9    4.4      60.098
2014    9       23    17  33    7.00   596.1    4.4      60.127
2014    9       23    17  38    7.00   596.4    4.4      60.156
2014    9       23    17  43    7.00   596.6    4.4      60.185
2014    9       23    17  49    7.00   596.9    4.4      60.214
2014    9       23    17  54    7.00   597.1    4.4      60.244
2014    9       23    17  59    7.00   597.4    4.4      60.275
2014    9       23    18   5    7.00   597.6    4.4      60.305
2014    9       23    18  10    7.00   597.9    4.4      60.336
2014    9       23    18  15    7.00   598.1    4.4      60.368
2014    9       23    18  20    7.00   598.4    4.3      60.400
2014    9       23    18  26    7.00   598.6    4.3      60.432
2014    9       23    18  31    7.00   598.9    4.3      60.465
2014    9       23    18  36    7.00   599.1    4.3      60.499
2014    9       23    18  42    7.00   599.4    4.3      60.533
2014    9       23    18  47    6.99   599.6    4.3      60.568
2014    9       23    18  52    6.99   599.9    4.3      60.604
2014    9       23    18  57    6.99   600.1    4.3      60.640
2014    9       23    19   3    6.99   600.4    4.3      60.677
2014    9       23    19   8    6.99   600.6    4.3      60.715
2014    9       23    19  13    6.99   600.9    4.3      60.754
2014    9       23    19  19    6.99   601.1    4.3      60.794
2014    9       23    19  24    6.99   601.4    4.3      60.835
2014    9       23    19  29    6.99   601.6    4.3      60.877
2014    9       23    19  34    6.99   601.9    4.3      60.921
2014    9       23    19  40    6.99   602.2    4.3      60.964
2014    9       23    19  45    6.99   602.4    4.3      61.010
2014    9       23    19  50    6.99   602.7    4.3      61.056
2014    9       23    19  56    6.98   602.9    4.3      61.104
2014    9       23    20   1    6.98   603.2    4.3      61.153
2014    9       23    20   6    6.98   603.5    4.3      61.202
2014    9       23    20  12    6.98   603.7    4.3      61.252
2014    9       23    20  17    6.98   604.0    4.3      61.301
2014    9       23    20  22    6.98   604.3    4.3      61.350
2014    9       23    20  27    6.98   604.5    4.3      61.398
2014    9       23    20  33    6.98   604.8    4.3      61.444
2014    9       23    20  38    6.98   605.1    4.3      61.490
2014    9       23    20  43    6.98   605.3    4.2      61.535
2014    9       23    20  49    6.98   605.6    4.2      61.578
2014    9       23    20  54    6.97   605.9    4.2      61.620
2014    9       23    20  59    6.97   606.1    4.2      61.660
2014    9       23    21   4    6.97   606.4    4.2      61.700
2014    9       23    21  10    6.97   606.7    4.2      61.739
2014    9       23    21  15    6.97   606.9    4.2      61.776
2014    9       23    21  20    6.97   607.2    4.2      61.813
2014    9       23    21  26    6.97   607.5    4.2      61.849
2014    9       23    21  31    6.97   607.7    4.2      61.884
2014    9       23    21  36    6.97   608.0    4.2      61.918
2014    9       23    21  41    6.96   608.3    4.2      61.951
2014    9       23    21  47    6.96   608.5    4.2      61.982
2014    9       23    21  52    6.96   608.8    4.2      62.013
2014    9       23    21  57    6.96   609.1    4.2      62.042
2014    9       23    22   3    6.96   609.3    4.2      62.071
2014    9       23    22   8    6.96   609.6    4.2      62.098
2014    9       23    22  13    6.96   609.9    4.2      62.124
2014    9       23    22  18    6.96   610.1    4.2      62.150
2014    9       23    22  24    6.95   610.4    4.2      62.175
2014    9       23    22  29    6.95   610.6    4.2      62.199
2014    9       23    22  34    6.95   610.9    4.2      62.222
2014    9       23    22  40    6.95   611.2    4.1      62.245
2014    9       23    22  45    6.95   611.4    4.1      62.267
2014    9       23    22  50    6.95   611.7    4.1      62.288
2014    9       23    22  56    6.95   611.9    4.1      62.309
2014    9       23    23   1    6.94   612.2    4.1      62.330
2014    9       23    23   6    6.94   612.4    4.1      62.350
2014    9       23    23  11    6.94   612.7    4.1      62.370
2014    9       23    23  17    6.94   613.0    4.1      62.390
2014    9       23    23  22    6.94   613.2    4.1      62.409
2014    9       23    23  27    6.94   613.5    4.1      62.428
2014    9       23    23  33    6.93   613.7    4.1      62.447
2014    9       23    23  38    6.93   614.0    4.1      62.465
2014    9       23    23  43    6.93   614.2    4.1      62.484
2014    9       23    23  48    6.93   614.5    4.1      62.502
2014    9       23    23  54    6.93   614.7    4.1      62.521
2014    9       23    23  59    6.93   615.0    4.1      62.539
2014    9       24     0   4    6.92   615.2    4.1      62.558
2014    9       24     0  10    6.92   615.5    4.1      62.576
2014    9       24     0  15    6.92   615.7    4.1      62.595
2014    9       24     0  20    6.92   616.0    4.0      62.614
2014    9       24     0  25    6.92   616.2    4.0      62.633
2014    9       24     0  31    6.92   616.5    4.0      62.652
2014    9       24     0  36    6.91   616.7    4.0      62.671
2014    9       24     0  41    6.91   617.0    4.0      62.691
2014    9       24     0  47    6.91   617.2    4.0      62.711
2014    9       24     0  52    6.91   617.5    4.0      62.731
2014    9       24     0  57    6.91   617.7    4.0      62.751
2014    9       24     1   2    6.90   617.9    4.0      62.772
2014    9       24     1   8    6.90   618.2    4.0      62.793
2014    9       24     1  13    6.90   618.4    4.0      62.815
2014    9       24     1  18    6.90   618.7    4.0      62.837
2014    9       24     1  24    6.90   618.9    4.0      62.860
2014    9       24     1  29    6.90   619.1    4.0      62.884
2014    9       24     1  34    6.89   619.4    4.0      62.908
2014    9       24     1  39    6.89   619.6    4.0      62.933
2014    9       24     1  45    6.89   619.8    4.0      62.959
2014    9       24     1  50    6.89   620.1    4.0      62.986
2014    9       24     1  55    6.89   620.3    4.0      63.014
2014    9       24     2   1    6.88   620.5    4.0      63.042
2014    9       24     2   6    6.88   620.8    3.9      63.072
2014    9       24     2  11    6.88   621.0    3.9      63.103
2014    9       24     2  17    6.88   621.2    3.9      63.135
2014    9       24     2  22    6.88   621.5    3.9      63.168
2014    9       24     2  27    6.87   621.7    3.9      63.202
2014    9       24     2  32    6.87   621.9    3.9      63.237
2014    9       24     2  38    6.87   622.2    3.9      63.272
2014    9       24     2  43    6.87   622.4    3.9      63.308
2014    9       24     2  48    6.87   622.6    3.9      63.345
2014    9       24     2  54    6.87   622.9    3.9      63.383
2014    9       24     2  59    6.86   623.1    3.9      63.420
2014    9       24     3   4    6.86   623.4    3.9      63.456
2014    9       24     3   9    6.86   623.6    3.9      63.492
2014    9       24     3  15    6.86   623.8    3.9      63.527
2014    9       24     3  20    6.86   624.1    3.9      63.561
2014    9       24     3  25    6.85   624.3    3.9      63.594
2014    9       24     3  31    6.85   624.5    3.9      63.626
2014    9       24     3  36    6.85   624.8    3.9      63.658
2014    9       24     3  41    6.85   625.0    3.9      63.689
2014    9       24     3  46    6.85   625.2    3.9      63.720
2014    9       24     3  52    6.84   625.5    3.9      63.749
2014    9       24     3  57    6.84   625.7    3.9      63.779
2014    9       24     4   2    6.84   625.9    3.9      63.809
2014    9       24     4   8    6.84   626.2    3.9      63.839
2014    9       24     4  13    6.83   626.4    3.9      63.869
2014    9       24     4  18    6.83   626.6    3.9      63.899
2014    9       24     4  23    6.83   626.9    3.9      63.928
2014    9       24     4  29    6.83   627.1    3.9      63.956
2014    9       24     4  34    6.83   627.3    3.9      63.984
2014    9       24     4  39    6.82   627.5    3.8      64.010
2014    9       24     4  45    6.82   627.8    3.8      64.036
2014    9       24     4  50    6.82   628.0    3.8      64.061
2014    9       24     4  55    6.82   628.2    3.8      64.085
2014    9       24     5   0    6.82   628.4    3.8      64.109
2014    9       24     5   6    6.81   628.7    3.8      64.132
2014    9       24     5  11    6.81   628.9    3.8      64.155
2014    9       24     5  16    6.81   629.1    3.8      64.177
2014    9       24     5  22    6.81   629.3    3.8      64.200
2014    9       24     5  27    6.80   629.5    3.8      64.222
2014    9       24     5  32    6.80   629.8    3.8      64.243
2014    9       24     5  38    6.80   630.0    3.8      64.265
2014    9       24     5  43    6.80   630.2    3.8      64.287
2014    9       24     5  48    6.79   630.4    3.8      64.309
2014    9       24     5  53    6.79   630.6    3.8      64.332
2014    9       24     5  59    6.79   630.8    3.8      64.355
2014    9       24     6   4    6.79   631.1    3.8      64.377
2014    9       24     6   9    6.79   631.3    3.8      64.399
2014    9       24     6  15    6.78   631.5    3.8      64.421
2014    9       24     6  20    6.78   631.7    3.8      64.442
2014    9       24     6  25    6.78   631.9    3.8      64.463
2014    9       24     6  30    6.78   632.1    3.8      64.483
2014    9       24     6  36    6.77   632.3    3.8      64.504
2014    9       24     6  41    6.77   632.6    3.8      64.524
2014    9       24     6  46    6.77   632.8    3.7      64.543
2014    9       24     6  52    6.77   633.0    3.7      64.563
2014    9       24     6  57    6.76   633.2    3.7      64.582
2014    9       24     7   2    6.76   633.4    3.7      64.600
2014    9       24     7   7    6.76   633.6    3.7      64.618
2014    9       24     7  13    6.76   633.8    3.7      64.635
2014    9       24     7  18    6.75   634.0    3.7      64.651
2014    9       24     7  23    6.75   634.2    3.7      64.666
2014    9       24     7  29    6.75   634.4    3.7      64.681
2014    9       24     7  34    6.74   634.6    3.7      64.695
2014    9       24     7  39    6.74   634.9    3.7      64.709
2014    9       24     7  44    6.74   635.1    3.7      64.722
2014    9       24     7  50    6.74   635.3    3.7      64.734
2014    9       24     7  55    6.73   635.5    3.7      64.746
2014    9       24     8   0    6.73   635.7    3.7      64.757
2014    9       24     8   6    6.73   635.9    3.7      64.768
2014    9       24     8  11    6.72   636.0    3.7      64.779
2014    9       24     8  16    6.72   636.2    3.7      64.789
2014    9       24     8  21    6.72   636.4    3.7      64.799
2014    9       24     8  27    6.72   636.6    3.7      64.808
2014    9       24     8  32    6.71   636.8    3.7      64.818
2014    9       24     8  37    6.71   637.0    3.7      64.827
2014    9       24     8  43    6.71   637.2    3.6      64.837
2014    9       24     8  48    6.70   637.4    3.6      64.846
2014    9       24     8  53    6.70   637.6    3.6      64.855
2014    9       24     8  59    6.70   637.8    3.6      64.864
2014    9       24     9   4    6.70   638.0    3.6      64.873
2014    9       24     9   9    6.69   638.2    3.6      64.882
2014    9       24     9  14    6.69   638.4    3.6      64.891
2014    9       24     9  20    6.69   638.6    3.6      64.901
2014    9       24     9  25    6.68   638.7    3.6      64.910
2014    9       24     9  30    6.68   638.9    3.6      64.920
2014    9       24     9  36    6.68   639.1    3.6      64.930
2014    9       24     9  41    6.67   639.3    3.6      64.940
2014    9       24     9  46    6.67   639.5    3.6      64.950
2014    9       24     9  51    6.67   639.7    3.6      64.960
2014    9       24     9  57    6.67   639.9    3.6      64.971
2014    9       24    10   2    6.66   640.1    3.6      64.982
2014    9       24    10   7    6.66   640.2    3.6      64.994
2014    9       24    10  13    6.66   640.4    3.6      65.006
2014    9       24    10  18    6.65   640.6    3.6      65.018
2014    9       24    10  23    6.65   640.8    3.6      65.029
2014    9       24    10  28    6.65   641.0    3.6      65.041
2014    9       24    10  34    6.64   641.2    3.6      65.052
2014    9       24    10  39    6.64   641.3    3.6      65.063
2014    9       24    10  44    6.64   641.5    3.6      65.073
2014    9       24    10  50    6.63   641.7    3.6      65.084
2014    9       24    10  55    6.63   641.9    3.6      65.094
2014    9       24    11   0    6.63   642.0    3.6      65.105
2014    9       24    11   5    6.62   642.2    3.6      65.115
2014    9       24    11  11    6.62   642.4    3.6      65.126
2014    9       24    11  16    6.62   642.6    3.6      65.137
2014    9       24    11  21    6.61   642.8    3.5      65.149
2014    9       24    11  27    6.61   642.9    3.5      65.160
2014    9       24    11  32    6.61   643.1    3.5      65.171
2014    9       24    11  37    6.60   643.3    3.5      65.181
2014    9       24    11  42    6.60   643.4    3.5      65.191
2014    9       24    11  48    6.60   643.6    3.5      65.200
2014    9       24    11  53    6.59   643.8    3.5      65.208
2014    9       24    11  58    6.59   644.0    3.5      65.217
2014    9       24    12   4    6.59   644.1    3.5      65.225
2014    9       24    12   9    6.59   644.3    3.5      65.232
2014    9       24    12  14    6.58   644.5    3.5      65.240
2014    9       24    12  20    6.58   644.6    3.5      65.247
2014    9       24    12  25    6.58   644.8    3.5      65.254
2014    9       24    12  30    6.57   645.0    3.5      65.260
2014    9       24    12  35    6.57   645.1    3.5      65.267
2014    9       24    12  41    6.57   645.3    3.5      65.273
2014    9       24    12  46    6.56   645.5    3.5      65.279
2014    9       24    12  51    6.56   645.6    3.5      65.285
2014    9       24    12  57    6.56   645.8    3.5      65.291
2014    9       24    13   2    6.55   645.9    3.5      65.296
2014    9       24    13   7    6.55   646.1    3.5      65.302
2014    9       24    13  12    6.55   646.3    3.5      65.308
2014    9       24    13  18    6.54   646.4    3.5      65.313
2014    9       24    13  23    6.54   646.6    3.5      65.319
2014    9       24    13  28    6.54   646.7    3.5      65.324
2014    9       24    13  34    6.53   646.9    3.4      65.329
2014    9       24    13  39    6.53   647.1    3.4      65.335
2014    9       24    13  44    6.53   647.2    3.4      65.340
2014    9       24    13  49    6.52   647.4    3.4      65.346
2014    9       24    13  55    6.52   647.5    3.4      65.351
2014    9       24    14   0    6.52   647.7    3.4      65.356
2014    9       24    14   5    6.51   647.8    3.4      65.361
2014    9       24    14  11    6.51   648.0    3.4      65.366
2014    9       24    14  16    6.51   648.1    3.4      65.371
2014    9       24    14  21    6.50   648.3    3.4      65.375
2014    9       24    14  26    6.50   648.4    3.4      65.378
2014    9       24    14  32    6.50   648.6    3.4      65.381
2014    9       24    14  37    6.49   648.8    3.4      65.383
2014    9       24    14  42    6.49   648.9    3.4      65.385
2014    9       24    14  48    6.48   649.1    3.4      65.385
2014    9       24    14  53    6.48   649.2    3.4      65.385
2014    9       24    14  58    6.48   649.3    3.4      65.385
2014    9       24    15   3    6.47   649.5    3.4      65.384
2014    9       24    15   9    6.47   649.6    3.4      65.383
2014    9       24    15  14    6.47   649.8    3.4      65.381
2014    9       24    15  19    6.46   649.9    3.4      65.379
2014    9       24    15  25    6.46   650.1    3.4      65.377
2014    9       24    15  30    6.46   650.2    3.4      65.375
2014    9       24    15  35    6.45   650.4    3.4      65.372
2014    9       24    15  41    6.45   650.5    3.4      65.369
2014    9       24    15  46    6.45   650.6    3.4      65.366
2014    9       24    15  51    6.44   650.8    3.4      65.363
2014    9       24    15  56    6.44   650.9    3.4      65.360
2014    9       24    16   2    6.43   651.0    3.4      65.358
2014    9       24    16   7    6.43   651.2    3.3      65.356
2014    9       24    16  12    6.43   651.3    3.3      65.354
2014    9       24    16  18    6.42   651.4    3.3      65.352
2014    9       24    16  23    6.42   651.6    3.3      65.350
2014    9       24    16  28    6.42   651.7    3.3      65.349
2014    9       24    16  33    6.41   651.8    3.3      65.349
2014    9       24    16  39    6.41   652.0    3.3      65.349
2014    9       24    16  44    6.41   652.1    3.3      65.350
2014    9       24    16  49    6.40   652.2    3.3      65.351
2014    9       24    16  55    6.40   652.3    3.3      65.352
2014    9       24    17   0    6.39   652.5    3.3      65.353
2014    9       24    17   5    6.39   652.6    3.3      65.352
2014    9       24    17  10    6.39   652.7    3.3      65.352
2014    9       24    17  16    6.38   652.9    3.3      65.352
2014    9       24    17  21    6.38   653.0    3.3      65.352
2014    9       24    17  26    6.38   653.1    3.3      65.352
2014    9       24    17  32    6.37   653.3    3.3      65.352
2014    9       24    17  37    6.37   653.4    3.3      65.352
2014    9       24    17  42    6.37   653.5    3.3      65.352
2014    9       24    17  47    6.36   653.6    3.3      65.350
2014    9       24    17  53    6.36   653.8    3.3      65.348
2014    9       24    17  58    6.36   653.9    3.3      65.345
2014    9       24    18   3    6.35   654.0    3.3      65.341
2014    9       24    18   9    6.35   654.1    3.3      65.336
2014    9       24    18  14    6.34   654.2    3.3      65.331
2014    9       24    18  19    6.34   654.3    3.3      65.325
2014    9       24    18  24    6.34   654.5    3.3      65.319
2014    9       24    18  30    6.33   654.6    3.3      65.312
2014    9       24    18  35    6.33   654.7    3.3      65.305
2014    9       24    18  40    6.33   654.8    3.3      65.298
2014    9       24    18  46    6.32   654.9    3.3      65.290
2014    9       24    18  51    6.32   655.0    3.3      65.282
2014    9       24    18  56    6.32   655.1    3.3      65.274
2014    9       24    19   1    6.31   655.2    3.3      65.265
2014    9       24    19   7    6.31   655.3    3.3      65.256
2014    9       24    19  12    6.31   655.5    3.2      65.247
2014    9       24    19  17    6.30   655.6    3.2      65.238
2014    9       24    19  23    6.30   655.7    3.2      65.229
2014    9       24    19  28    6.30   655.8    3.2      65.219
2014    9       24    19  33    6.29   655.9    3.2      65.210
2014    9       24    19  38    6.29   656.0    3.2      65.200
2014    9       24    19  44    6.29   656.1    3.2      65.191
2014    9       24    19  49    6.28   656.2    3.2      65.181
2014    9       24    19  54    6.28   656.3    3.2      65.171
2014    9       24    20   0    6.28   656.4    3.2      65.162
2014    9       24    20   5    6.27   656.5    3.2      65.152
2014    9       24    20  10    6.27   656.6    3.2      65.142
2014    9       24    20  16    6.27   656.7    3.2      65.133
2014    9       24    20  21    6.26   656.8    3.2      65.124
2014    9       24    20  26    6.26   656.8    3.2      65.115
2014    9       24    20  31    6.26   656.9    3.2      65.106
2014    9       24    20  37    6.25   657.0    3.2      65.098
2014    9       24    20  42    6.25   657.1    3.2      65.090
2014    9       24    20  47    6.25   657.2    3.2      65.082
2014    9       24    20  53    6.24   657.3    3.2      65.074
2014    9       24    20  58    6.24   657.4    3.2      65.067
2014    9       24    21   3    6.24   657.5    3.2      65.060
2014    9       24    21   8    6.23   657.6    3.2      65.053
2014    9       24    21  14    6.23   657.7    3.2      65.047
2014    9       24    21  19    6.23   657.7    3.2      65.041
2014    9       24    21  24    6.22   657.8    3.2      65.036
2014    9       24    21  30    6.22   657.9    3.2      65.030
2014    9       24    21  35    6.22   658.0    3.2      65.025
2014    9       24    21  40    6.22   658.1    3.2      65.020
2014    9       24    21  45    6.21   658.2    3.2      65.016
2014    9       24    21  51    6.21   658.2    3.2      65.011
2014    9       24    21  56    6.21   658.3    3.2      65.007
2014    9       24    22   1    6.20   658.4    3.2      65.003
2014    9       24    22   7    6.20   658.5    3.1      64.999
2014    9       24    22  12    6.20   658.6    3.1      64.994
2014    9       24    22  17    6.19   658.6    3.1      64.990
2014    9       24    22  22    6.19   658.7    3.1      64.985
2014    9       24    22  28    6.19   658.8    3.1      64.981
2014    9       24    22  33    6.18   658.9    3.1      64.977
2014    9       24    22  38    6.18   658.9    3.1      64.972
2014    9       24    22  44    6.18   659.0    3.1      64.967
2014    9       24    22  49    6.17   659.1    3.1      64.962
2014    9       24    22  54    6.17   659.1    3.1      64.957
2014    9       24    23   0    6.17   659.2    3.1      64.951
2014    9       24    23   5    6.16   659.3    3.1      64.945
2014    9       24    23  10    6.16   659.3    3.1      64.939
2014    9       24    23  15    6.16   659.4    3.1      64.933
2014    9       24    23  21    6.15   659.5    3.1      64.927
2014    9       24    23  26    6.15   659.5    3.1      64.921
2014    9       24    23  31    6.15   659.6    3.1      64.915
2014    9       24    23  37    6.14   659.7    3.1      64.908
2014    9       24    23  42    6.14   659.7    3.1      64.901
2014    9       24    23  47    6.14   659.8    3.1      64.894
2014    9       24    23  52    6.13   659.8    3.1      64.887
2014    9       24    23  58    6.13   659.9    3.1      64.879
2014    9       25     0   3    6.13   660.0    3.1      64.872
2014    9       25     0   8    6.13   660.0    3.1      64.865
2014    9       25     0  14    6.12   660.1    3.1      64.856
2014    9       25     0  19    6.12   660.1    3.1      64.847
2014    9       25     0  24    6.12   660.2    3.1      64.838
2014    9       25     0  29    6.11   660.2    3.1      64.828
2014    9       25     0  35    6.11   660.3    3.1      64.817
2014    9       25     0  40    6.11   660.3    3.1      64.805
2014    9       25     0  45    6.10   660.4    3.1      64.793
2014    9       25     0  51    6.10   660.4    3.1      64.780
2014    9       25     0  56    6.10   660.5    3.1      64.767
2014    9       25     1   1    6.09   660.5    3.1      64.753
2014    9       25     1   6    6.09   660.6    3.1      64.738
2014    9       25     1  12    6.09   660.6    3.1      64.723
2014    9       25     1  17    6.09   660.7    3.1      64.708
2014    9       25     1  22    6.08   660.7    3.1      64.692
2014    9       25     1  28    6.08   660.8    3.1      64.676
2014    9       25     1  33    6.08   660.8    3.1      64.660
2014    9       25     1  38    6.07   660.8    3.1      64.643
2014    9       25     1  43    6.07   660.9    3.1      64.626
2014    9       25     1  49    6.07   660.9    3.1      64.609
2014    9       25     1  54    6.07   661.0    3.1      64.591
2014    9       25     1  59    6.06   661.0    3.1      64.573
2014    9       25     2   5    6.06   661.0    3.1      64.555
2014    9       25     2  10    6.06   661.1    3.1      64.537
2014    9       25     2  15    6.05   661.1    3.1      64.519
2014    9       25     2  20    6.05   661.2    3.1      64.501
2014    9       25     2  26    6.05   661.2    3.1      64.483
2014    9       25     2  31    6.05   661.2    3.0      64.465
2014    9       25     2  36    6.04   661.3    3.0      64.447
2014    9       25     2  42    6.04   661.3    3.0      64.428
2014    9       25     2  47    6.04   661.3    3.0      64.410
2014    9       25     2  52    6.04   661.4    3.0      64.393
2014    9       25     2  57    6.03   661.4    3.0      64.375
2014    9       25     3   3    6.03   661.4    3.0      64.358
2014    9       25     3   8    6.03   661.5    3.0      64.341
2014    9       25     3  13    6.02   661.5    3.0      64.324
2014    9       25     3  19    6.02   661.5    3.0      64.308
2014    9       25     3  24    6.02   661.6    3.0      64.292
2014    9       25     3  29    6.02   661.6    3.0      64.277
2014    9       25     3  35    6.01   661.6    3.0      64.262
2014    9       25     3  40    6.01   661.7    3.0      64.248
2014    9       25     3  45    6.01   661.7    3.0      64.234
2014    9       25     3  50    6.01   661.7    3.0      64.221
2014    9       25     3  56    6.00   661.7    3.0      64.208
2014    9       25     4   1    6.00   661.8    3.0      64.196
2014    9       25     4   6    6.00   661.8    3.0      64.185
2014    9       25     4  12    6.00   661.8    3.0      64.174
2014    9       25     4  17    5.99   661.9    3.0      64.164
2014    9       25     4  22    5.99   661.9    3.0      64.154
2014    9       25     4  27    5.99   661.9    3.0      64.145
2014    9       25     4  33    5.99   661.9    3.0      64.137
2014    9       25     4  38    5.98   662.0    3.0      64.129
2014    9       25     4  43    5.98   662.0    3.0      64.121
2014    9       25     4  49    5.98   662.0    3.0      64.114
2014    9       25     4  54    5.98   662.0    3.0      64.108
2014    9       25     4  59    5.97   662.1    3.0      64.101
2014    9       25     5   4    5.97   662.1    3.0      64.095
2014    9       25     5  10    5.97   662.1    3.0      64.090
2014    9       25     5  15    5.96   662.1    3.0      64.084
2014    9       25     5  20    5.96   662.2    3.0      64.078
2014    9       25     5  26    5.96   662.2    3.0      64.073
2014    9       25     5  31    5.96   662.2    3.0      64.067
2014    9       25     5  36    5.95   662.2    3.0      64.061
2014    9       25     5  41    5.95   662.3    3.0      64.056
2014    9       25     5  47    5.95   662.3    3.0      64.050
2014    9       25     5  52    5.95   662.3    3.0      64.043
2014    9       25     5  57    5.94   662.3    3.0      64.036
2014    9       25     6   3    5.94   662.4    3.0      64.029
2014    9       25     6   8    5.94   662.4    3.0      64.022
2014    9       25     6  13    5.94   662.4    3.0      64.014
2014    9       25     6  18    5.93   662.4    3.0      64.005
2014    9       25     6  24    5.93   662.4    3.0      63.996
2014    9       25     6  29    5.93   662.4    3.0      63.987
2014    9       25     6  34    5.93   662.4    3.0      63.977
2014    9       25     6  40    5.92   662.4    3.0      63.967
2014    9       25     6  45    5.92   662.5    3.0      63.956
2014    9       25     6  50    5.92   662.5    3.0      63.944
2014    9       25     6  55    5.92   662.5    3.0      63.932
2014    9       25     7   1    5.91   662.5    3.0      63.920
2014    9       25     7   6    5.91   662.5    3.0      63.907
2014    9       25     7  11    5.91   662.5    3.0      63.893
2014    9       25     7  17    5.91   662.5    3.0      63.879
2014    9       25     7  22    5.90   662.5    3.0      63.864
2014    9       25     7  27    5.90   662.5    3.0      63.849
2014    9       25     7  32    5.90   662.5    3.0      63.834
2014    9       25     7  38    5.90   662.5    3.0      63.818
2014    9       25     7  43    5.89   662.5    3.0      63.801
2014    9       25     7  48    5.89   662.5    3.0      63.784
2014    9       25     7  54    5.89   662.5    3.0      63.766
2014    9       25     7  59    5.89   662.5    3.0      63.748
2014    9       25     8   4    5.88   662.5    3.0      63.729
2014    9       25     8  10    5.88   662.5    3.0      63.710
2014    9       25     8  15    5.88   662.5    3.0      63.691
2014    9       25     8  20    5.88   662.5    3.0      63.671
2014    9       25     8  25    5.88   662.5    3.0      63.651
2014    9       25     8  31    5.87   662.5    2.9      63.630
2014    9       25     8  36    5.87   662.5    2.9      63.609
2014    9       25     8  41    5.87   662.5    2.9      63.588
2014    9       25     8  47    5.87   662.5    2.9      63.566
2014    9       25     8  52    5.86   662.5    2.9      63.544
2014    9       25     8  57    5.86   662.5    2.9      63.522
2014    9       25     9   2    5.86   662.5    2.9      63.499
2014    9       25     9   8    5.86   662.5    2.9      63.477
2014    9       25     9  13    5.86   662.5    2.9      63.454
2014    9       25     9  18    5.85   662.5    2.9      63.431
2014    9       25     9  24    5.85   662.5    2.9      63.408
2014    9       25     9  29    5.85   662.4    2.9      63.385
2014    9       25     9  34    5.85   662.4    2.9      63.362
2014    9       25     9  39    5.85   662.4    2.9      63.339
2014    9       25     9  45    5.84   662.4    2.9      63.316
2014    9       25     9  50    5.84   662.4    2.9      63.293
2014    9       25     9  55    5.84   662.4    2.9      63.271
2014    9       25    10   1    5.84   662.4    2.9      63.248
2014    9       25    10   6    5.83   662.3    2.9      63.226
2014    9       25    10  11    5.83   662.3    2.9      63.205
2014    9       25    10  16    5.83   662.3    2.9      63.183
2014    9       25    10  22    5.83   662.3    2.9      63.162
2014    9       25    10  27    5.83   662.3    2.9      63.142
2014    9       25    10  32    5.82   662.2    2.9      63.121
2014    9       25    10  38    5.82   662.2    2.9      63.102
2014    9       25    10  43    5.82   662.2    2.9      63.083
2014    9       25    10  48    5.82   662.2    2.9      63.065
2014    9       25    10  53    5.82   662.1    2.9      63.047
2014    9       25    10  59    5.81   662.1    2.9      63.030
2014    9       25    11   4    5.81   662.1    2.9      63.014
2014    9       25    11   9    5.81   662.1    2.9      62.998
2014    9       25    11  15    5.81   662.1    2.9      62.984
2014    9       25    11  20    5.81   662.0    2.9      62.970
2014    9       25    11  25    5.80   662.0    2.9      62.957
2014    9       25    11  30    5.80   662.0    2.9      62.944
2014    9       25    11  36    5.80   662.0    2.9      62.932
2014    9       25    11  41    5.80   662.0    2.9      62.922
2014    9       25    11  46    5.80   661.9    2.9      62.911
2014    9       25    11  52    5.79   661.9    2.9      62.902
2014    9       25    11  57    5.79   661.9    2.9      62.893
2014    9       25    12   2    5.79   661.9    2.9      62.884
2014    9       25    12   8    5.79   661.8    2.9      62.876
2014    9       25    12  13    5.79   661.8    2.9      62.869
2014    9       25    12  18    5.78   661.8    2.9      62.862
2014    9       25    12  23    5.78   661.8    2.9      62.855
2014    9       25    12  29    5.78   661.8    2.9      62.849
2014    9       25    12  34    5.78   661.8    2.9      62.843
2014    9       25    12  39    5.78   661.7    2.9      62.837
2014    9       25    12  45    5.77   661.7    2.9      62.831
2014    9       25    12  50    5.77   661.7    2.9      62.825
2014    9       25    12  55    5.77   661.7    2.9      62.820
2014    9       25    13   0    5.77   661.7    2.9      62.814
2014    9       25    13   6    5.77   661.7    2.9      62.808
2014    9       25    13  11    5.77   661.6    2.9      62.802
2014    9       25    13  16    5.76   661.6    2.9      62.795
2014    9       25    13  22    5.76   661.6    2.9      62.789
2014    9       25    13  27    5.76   661.6    2.9      62.781
2014    9       25    13  32    5.76   661.6    2.9      62.774
2014    9       25    13  37    5.76   661.6    2.9      62.766
2014    9       25    13  43    5.75   661.5    2.9      62.757
2014    9       25    13  48    5.75   661.5    2.9      62.748
2014    9       25    13  53    5.75   661.5    2.9      62.738
2014    9       25    13  59    5.75   661.5    2.9      62.728
2014    9       25    14   4    5.75   661.4    2.9      62.718
2014    9       25    14   9    5.74   661.4    2.9      62.707
2014    9       25    14  14    5.74   661.4    2.9      62.695
2014    9       25    14  20    5.74   661.4    2.9      62.683
2014    9       25    14  25    5.74   661.4    2.9      62.670
2014    9       25    14  30    5.74   661.3    2.9      62.657
2014    9       25    14  36    5.74   661.3    2.9      62.643
2014    9       25    14  41    5.73   661.3    2.9      62.629
2014    9       25    14  46    5.73   661.3    2.9      62.614
2014    9       25    14  51    5.73   661.2    2.9      62.599
2014    9       25    14  57    5.73   661.2    2.9      62.583
2014    9       25    15   2    5.73   661.2    2.9      62.567
2014    9       25    15   7    5.72   661.2    2.9      62.550
2014    9       25    15  13    5.72   661.1    2.9      62.533
2014    9       25    15  18    5.72   661.1    2.9      62.515
2014    9       25    15  23    5.72   661.1    2.9      62.497
2014    9       25    15  28    5.72   661.1    2.9      62.479
2014    9       25    15  34    5.72   661.0    2.9      62.461
2014    9       25    15  39    5.71   661.0    2.9      62.442
2014    9       25    15  44    5.71   661.0    2.9      62.423
2014    9       25    15  50    5.71   661.0    2.9      62.403
2014    9       25    15  55    5.71   660.9    2.9      62.384
2014    9       25    16   0    5.71   660.9    2.9      62.364
2014    9       25    16   5    5.71   660.9    2.9      62.344
2014    9       25    16  11    5.70   660.8    2.9      62.324
2014    9       25    16  16    5.70   660.8    2.9      62.304
2014    9       25    16  21    5.70   660.8    2.9      62.284
2014    9       25    16  27    5.70   660.7    2.9      62.264
2014    9       25    16  32    5.70   660.7    2.9      62.243
2014    9       25    16  37    5.70   660.7    2.9      62.224
2014    9       25    16  42    5.69   660.6    2.9      62.204
2014    9       25    16  48    5.69   660.6    2.9      62.184
2014    9       25    16  53    5.69   660.5    2.9      62.164
2014    9       25    16  58    5.69   660.5    2.9      62.145
2014    9       25    17   4    5.69   660.5    2.9      62.126
2014    9       25    17   9    5.69   660.4    2.9      62.107
2014    9       25    17  14    5.68   660.4    2.9      62.088
2014    9       25    17  19    5.68   660.3    2.9      62.070
2014    9       25    17  25    5.68   660.3    2.9      62.051
2014    9       25    17  30    5.68   660.3    2.9      62.034
2014    9       25    17  35    5.68   660.2    2.9      62.016
2014    9       25    17  41    5.68   660.2    2.9      61.999
2014    9       25    17  46    5.67   660.1    2.9      61.983
2014    9       25    17  51    5.67   660.1    2.9      61.966
2014    9       25    17  57    5.67   660.0    2.9      61.950
2014    9       25    18   2    5.67   660.0    2.9      61.934
2014    9       25    18   7    5.67   659.9    2.8      61.919
2014    9       25    18  12    5.67   659.9    2.8      61.904
2014    9       25    18  18    5.67   659.8    2.8      61.889
2014    9       25    18  23    5.66   659.8    2.8      61.875
2014    9       25    18  28    5.66   659.8    2.8      61.861
2014    9       25    18  34    5.66   659.7    2.8      61.848
2014    9       25    18  39    5.66   659.7    2.8      61.835
2014    9       25    18  44    5.66   659.6    2.8      61.822
2014    9       25    18  49    5.66   659.6    2.8      61.809
2014    9       25    18  55    5.66   659.5    2.8      61.797
2014    9       25    19   0    5.65   659.5    2.8      61.785
2014    9       25    19   5    5.65   659.4    2.8      61.774
2014    9       25    19  11    5.65   659.4    2.8      61.763
2014    9       25    19  16    5.65   659.3    2.8      61.752
2014    9       25    19  21    5.65   659.3    2.8      61.741
2014    9       25    19  26    5.65   659.2    2.8      61.730
2014    9       25    19  32    5.65   659.2    2.8      61.720
2014    9       25    19  37    5.64   659.1    2.8      61.710
2014    9       25    19  42    5.64   659.1    2.8      61.700
2014    9       25    19  48    5.64   659.0    2.8      61.690
2014    9       25    19  53    5.64   659.0    2.8      61.680
2014    9       25    19  58    5.64   658.9    2.8      61.671
2014    9       25    20   3    5.64   658.9    2.8      61.661
2014    9       25    20   9    5.64   658.9    2.8      61.651
2014    9       25    20  14    5.63   658.8    2.8      61.642
2014    9       25    20  19    5.63   658.8    2.8      61.632
2014    9       25    20  25    5.63   658.7    2.8      61.622
2014    9       25    20  30    5.63   658.7    2.8      61.612
2014    9       25    20  35    5.63   658.6    2.8      61.602
2014    9       25    20  40    5.63   658.6    2.8      61.593
2014    9       25    20  46    5.63   658.5    2.8      61.583
2014    9       25    20  51    5.62   658.5    2.8      61.572
2014    9       25    20  56    5.62   658.5    2.8      61.562
2014    9       25    21   2    5.62   658.4    2.8      61.551
2014    9       25    21   7    5.62   658.4    2.8      61.541
2014    9       25    21  12    5.62   658.3    2.8      61.530
2014    9       25    21  18    5.62   658.3    2.8      61.520
2014    9       25    21  23    5.62   658.2    2.8      61.509
2014    9       25    21  28    5.62   658.2    2.8      61.497
2014    9       25    21  33    5.61   658.2    2.8      61.486
2014    9       25    21  39    5.61   658.1    2.8      61.474
2014    9       25    21  44    5.61   658.1    2.8      61.462
2014    9       25    21  49    5.61   658.0    2.8      61.450
2014    9       25    21  55    5.61   658.0    2.8      61.438
2014    9       25    22   0    5.61   657.9    2.8      61.425
2014    9       25    22   5    5.61   657.9    2.8      61.412
2014    9       25    22  10    5.60   657.8    2.8      61.399
2014    9       25    22  16    5.60   657.8    2.8      61.387
2014    9       25    22  21    5.60   657.7    2.8      61.373
2014    9       25    22  26    5.60   657.7    2.8      61.361
2014    9       25    22  32    5.60   657.7    2.8      61.348
2014    9       25    22  37    5.60   657.6    2.8      61.335
2014    9       25    22  42    5.60   657.6    2.8      61.322
2014    9       25    22  47    5.60   657.5    2.8      61.309
2014    9       25    22  53    5.59   657.5    2.8      61.296
2014    9       25    22  58    5.59   657.4    2.8      61.283
2014    9       25    23   3    5.59   657.4    2.8      61.270
2014    9       25    23   9    5.59   657.3    2.8      61.258
2014    9       25    23  14    5.59   657.3    2.8      61.245
2014    9       25    23  19    5.59   657.2    2.8      61.231
2014    9       25    23  24    5.59   657.2    2.8      61.218
2014    9       25    23  30    5.59   657.2    2.8      61.205
2014    9       25    23  35    5.58   657.1    2.8      61.190
2014    9       25    23  40    5.58   657.1    2.8      61.176
2014    9       25    23  46    5.58   657.0    2.8      61.161
2014    9       25    23  51    5.58   657.0    2.8      61.147
2014    9       25    23  56    5.58   656.9    2.8      61.132
2014    9       26     0   1    5.58   656.9    2.8      61.117
2014    9       26     0   7    5.58   656.8    2.8      61.102
2014    9       26     0  12    5.58   656.8    2.8      61.087
2014    9       26     0  17    5.57   656.7    2.8      61.072
2014    9       26     0  23    5.57   656.6    2.8      61.057
2014    9       26     0  28    5.57   656.6    2.8      61.043
2014    9       26     0  33    5.57   656.5    2.8      61.029
2014    9       26     0  38    5.57   656.5    2.8      61.015
2014    9       26     0  44    5.57   656.4    2.8      61.001
2014    9       26     0  49    5.57   656.4    2.8      60.988
2014    9       26     0  54    5.57   656.3    2.8      60.975
2014    9       26     1   0    5.56   656.3    2.8      60.962
2014    9       26     1   5    5.56   656.2    2.8      60.950
2014    9       26     1  10    5.56   656.2    2.8      60.938
2014    9       26     1  15    5.56   656.1    2.8      60.927
2014    9       26     1  21    5.56   656.1    2.8      60.916
2014    9       26     1  26    5.56   656.0    2.8      60.906
2014    9       26     1  31    5.56   656.0    2.8      60.896
2014    9       26     1  37    5.56   655.9    2.8      60.886
2014    9       26     1  42    5.56   655.8    2.8      60.877
2014    9       26     1  47    5.55   655.8    2.8      60.868
2014    9       26     1  52    5.55   655.7    2.8      60.858
2014    9       26     1  58    5.55   655.7    2.8      60.850
2014    9       26     2   3    5.55   655.6    2.8      60.841
2014    9       26     2   8    5.55   655.6    2.8      60.833
2014    9       26     2  14    5.55   655.5    2.8      60.825
2014    9       26     2  19    5.55   655.4    2.8      60.818
2014    9       26     2  24    5.55   655.4    2.8      60.810
2014    9       26     2  30    5.55   655.3    2.8      60.801
2014    9       26     2  35    5.55   655.3    2.8      60.793
2014    9       26     2  40    5.54   655.2    2.8      60.784
2014    9       26     2  45    5.54   655.2    2.8      60.775
2014    9       26     2  51    5.54   655.1    2.8      60.766
2014    9       26     2  56    5.54   655.1    2.8      60.757
2014    9       26     3   1    5.54   655.0    2.8      60.747
2014    9       26     3   7    5.54   654.9    2.8      60.736
2014    9       26     3  12    5.54   654.9    2.8      60.724
2014    9       26     3  17    5.54   654.8    2.8      60.712
2014    9       26     3  22    5.54   654.8    2.8      60.699
2014    9       26     3  28    5.53   654.7    2.8      60.686
2014    9       26     3  33    5.53   654.7    2.8      60.672
2014    9       26     3  38    5.53   654.6    2.8      60.658
2014    9       26     3  44    5.53   654.5    2.8      60.643
2014    9       26     3  49    5.53   654.5    2.8      60.628
2014    9       26     3  54    5.53   654.4    2.8      60.613
2014    9       26     3  59    5.53   654.4    2.8      60.598
2014    9       26     4   5    5.53   654.3    2.8      60.582
2014    9       26     4  10    5.53   654.2    2.8      60.567
2014    9       26     4  15    5.52   654.2    2.8      60.552
2014    9       26     4  21    5.52   654.1    2.8      60.536
2014    9       26     4  26    5.52   654.1    2.8      60.522
2014    9       26     4  31    5.52   654.0    2.8      60.507
2014    9       26     4  36    5.52   653.9    2.8      60.492
2014    9       26     4  42    5.52   653.9    2.8      60.478
2014    9       26     4  47    5.52   653.8    2.8      60.465
2014    9       26     4  52    5.52   653.8    2.8      60.452
2014    9       26     4  58    5.52   653.7    2.8      60.439
2014    9       26     5   3    5.51   653.6    2.8      60.426
2014    9       26     5   8    5.51   653.6    2.8      60.415
2014    9       26     5  13    5.51   653.5    2.8      60.404
2014    9       26     5  19    5.51   653.4    2.8      60.393
2014    9       26     5  24    5.51   653.4    2.8      60.383
2014    9       26     5  29    5.51   653.3    2.8      60.373
2014    9       26     5  35    5.51   653.3    2.8      60.364
2014    9       26     5  40    5.51   653.2    2.8      60.356
2014    9       26     5  45    5.51   653.1    2.8      60.348
2014    9       26     5  50    5.51   653.1    2.8      60.340
2014    9       26     5  56    5.51   653.0    2.8      60.333
2014    9       26     6   1    5.50   652.9    2.8      60.326
2014    9       26     6   6    5.50   652.9    2.8      60.319
2014    9       26     6  12    5.50   652.8    2.8      60.312
2014    9       26     6  17    5.50   652.8    2.8      60.305
2014    9       26     6  22    5.50   652.7    2.8      60.298
2014    9       26     6  27    5.50   652.6    2.8      60.291
2014    9       26     6  33    5.50   652.6    2.8      60.285
2014    9       26     6  38    5.50   652.5    2.8      60.278
2014    9       26     6  43    5.50   652.5    2.8      60.272
2014    9       26     6  49    5.50   652.4    2.8      60.265
2014    9       26     6  54    5.50   652.4    2.8      60.259
2014    9       26     6  59    5.50   652.3    2.8      60.251
2014    9       26     7   4    5.49   652.3    2.8      60.243
2014    9       26     7  10    5.49   652.2    2.8      60.233
2014    9       26     7  15    5.49   652.1    2.8      60.223
2014    9       26     7  20    5.49   652.1    2.8      60.212
2014    9       26     7  26    5.49   652.0    2.8      60.200
2014    9       26     7  31    5.49   652.0    2.8      60.188
2014    9       26     7  36    5.49   651.9    2.8      60.175
2014    9       26     7  42    5.49   651.9    2.8      60.161
2014    9       26     7  47    5.49   651.8    2.8      60.147
2014    9       26     7  52    5.49   651.8    2.8      60.133
2014    9       26     7  57    5.49   651.7    2.8      60.118
2014    9       26     8   3    5.49   651.7    2.8      60.103
2014    9       26     8   8    5.48   651.6    2.8      60.088
2014    9       26     8  13    5.48   651.5    2.8      60.072
2014    9       26     8  19    5.48   651.5    2.8      60.057
2014    9       26     8  24    5.48   651.4    2.8      60.041
2014    9       26     8  29    5.48   651.4    2.8      60.026
2014    9       26     8  34    5.48   651.3    2.8      60.011
2014    9       26     8  40    5.48   651.3    2.8      59.995
2014    9       26     8  45    5.48   651.2    2.8      59.980
2014    9       26     8  50    5.48   651.1    2.8      59.965
2014    9       26     8  56    5.48   651.1    2.8      59.950
2014    9       26     9   1    5.48   651.0    2.8      59.935
2014    9       26     9   6    5.48   651.0    2.8      59.921
2014    9       26     9  11    5.47   650.9    2.8      59.907
2014    9       26     9  17    5.47   650.8    2.8      59.893
2014    9       26     9  22    5.47   650.8    2.8      59.879
2014    9       26     9  27    5.47   650.7    2.8      59.865
2014    9       26     9  33    5.47   650.7    2.8      59.852
2014    9       26     9  38    5.47   650.6    2.8      59.840
2014    9       26     9  43    5.47   650.5    2.8      59.827
2014    9       26     9  48    5.47   650.5    2.8      59.815
2014    9       26     9  54    5.47   650.4    2.8      59.803
2014    9       26     9  59    5.47   650.3    2.8      59.791
2014    9       26    10   4    5.47   650.2    2.8      59.780
2014    9       26    10  10    5.46   650.2    2.8      59.769
2014    9       26    10  15    5.46   650.1    2.8      59.758
2014    9       26    10  20    5.46   650.0    2.8      59.748
2014    9       26    10  25    5.46   650.0    2.8      59.738
2014    9       26    10  31    5.46   649.9    2.8      59.728
2014    9       26    10  36    5.46   649.8    2.8      59.718
2014    9       26    10  41    5.46   649.7    2.8      59.708
2014    9       26    10  47    5.46   649.6    2.8      59.699
2014    9       26    10  52    5.46   649.6    2.8      59.689
2014    9       26    10  57    5.46   649.5    2.8      59.679
2014    9       26    11   3    5.46   649.4    2.8      59.669
2014    9       26    11   8    5.45   649.3    2.8      59.660
2014    9       26    11  13    5.45   649.2    2.8      59.650
2014    9       26    11  18    5.45   649.2    2.8      59.640
2014    9       26    11  24    5.45   649.1    2.8      59.630
2014    9       26    11  29    5.45   649.0    2.8      59.620
2014    9       26    11  34    5.45   648.9    2.8      59.610
2014    9       26    11  40    5.45   648.8    2.8      59.600
2014    9       26    11  45    5.45   648.7    2.8      59.590
2014    9       26    11  50    5.45   648.6    2.8      59.580
2014    9       26    11  55    5.45   648.6    2.8      59.570
2014    9       26    12   1    5.45   648.5    2.8      59.560
2014    9       26    12   6    5.44   648.4    2.8      59.550
2014    9       26    12  11    5.44   648.3    2.8      59.540
2014    9       26    12  17    5.44   648.2    2.8      59.529
2014    9       26    12  22    5.44   648.1    2.8      59.519
2014    9       26    12  27    5.44   648.0    2.8      59.509
2014    9       26    12  32    5.44   647.9    2.8      59.499
2014    9       26    12  38    5.44   647.9    2.8      59.489
2014    9       26    12  43    5.44   647.8    2.8      59.480
2014    9       26    12  48    5.44   647.7    2.8      59.471
2014    9       26    12  54    5.44   647.6    2.8      59.462
2014    9       26    12  59    5.44   647.5    2.8      59.455
2014    9       26    13   4    5.44   647.4    2.8      59.448
2014    9       26    13   9    5.44   647.3    2.8      59.442
2014    9       26    13  15    5.44   647.3    2.8      59.436
2014    9       26    13  20    5.43   647.2    2.8      59.431
2014    9       26    13  25    5.43   647.1    2.8      59.428
2014    9       26    13  31    5.43   647.0    2.8      59.425
2014    9       26    13  36    5.43   647.0    2.8      59.422
2014    9       26    13  41    5.43   646.9    2.8      59.420
2014    9       26    13  46    5.43   646.8    2.8      59.418
2014    9       26    13  52    5.43   646.8    2.8      59.415
2014    9       26    13  57    5.43   646.7    2.8      59.412
2014    9       26    14   2    5.43   646.6    2.8      59.408
2014    9       26    14   8    5.43   646.6    2.8      59.405
2014    9       26    14  13    5.43   646.5    2.8      59.401
2014    9       26    14  18    5.43   646.4    2.8      59.397
2014    9       26    14  23    5.43   646.3    2.8      59.392
2014    9       26    14  29    5.43   646.3    2.8      59.387
2014    9       26    14  34    5.43   646.2    2.8      59.381
2014    9       26    14  39    5.43   646.1    2.8      59.376
2014    9       26    14  45    5.43   646.1    2.8      59.370
2014    9       26    14  50    5.43   646.0    2.8      59.365
2014    9       26    14  55    5.42   645.9    2.8      59.359
2014    9       26    15   0    5.42   645.8    2.8      59.353
2014    9       26    15   6    5.42   645.8    2.8      59.347
2014    9       26    15  11    5.42   645.7    2.8      59.341
2014    9       26    15  16    5.42   645.6    2.8      59.336
2014    9       26    15  22    5.42   645.6    2.8      59.330
2014    9       26    15  27    5.42   645.5    2.8      59.324
2014    9       26    15  32    5.42   645.4    2.8      59.318
2014    9       26    15  37    5.42   645.4    2.8      59.312
2014    9       26    15  43    5.42   645.3    2.8      59.304
2014    9       26    15  48    5.42   645.2    2.8      59.296
2014    9       26    15  53    5.42   645.2    2.8      59.288
2014    9       26    15  59    5.42   645.1    2.8      59.278
2014    9       26    16   4    5.42   645.0    2.8      59.268
2014    9       26    16   9    5.42   644.9    2.8      59.257
2014    9       26    16  14    5.42   644.9    2.8      59.246
2014    9       26    16  20    5.42   644.8    2.8      59.235
2014    9       26    16  25    5.41   644.7    2.8      59.222
2014    9       26    16  30    5.41   644.7    2.8      59.210
2014    9       26    16  36    5.41   644.6    2.8      59.197
2014    9       26    16  41    5.41   644.5    2.8      59.184
2014    9       26    16  46    5.41   644.4    2.8      59.171
2014    9       26    16  52    5.41   644.4    2.8      59.157
2014    9       26    16  57    5.41   644.3    2.8      59.144
2014    9       26    17   2    5.41   644.2    2.8      59.130
2014    9       26    17   7    5.41   644.1    2.8      59.116
2014    9       26    17  13    5.41   644.0    2.8      59.102
2014    9       26    17  18    5.41   643.9    2.8      59.089
2014    9       26    17  23    5.41   643.9    2.8      59.075
2014    9       26    17  29    5.41   643.8    2.8      59.062
2014    9       26    17  34    5.41   643.7    2.8      59.048
2014    9       26    17  39    5.40   643.6    2.8      59.035
2014    9       26    17  44    5.40   643.5    2.8      59.022
2014    9       26    17  50    5.40   643.4    2.8      59.009
2014    9       26    17  55    5.40   643.3    2.8      58.996
2014    9       26    18   0    5.40   643.3    2.8      58.983
2014    9       26    18   6    5.40   643.2    2.8      58.970
2014    9       26    18  11    5.40   643.1    2.8      58.958
2014    9       26    18  16    5.40   643.0    2.8      58.945
2014    9       26    18  21    5.40   642.9    2.8      58.933
2014    9       26    18  27    5.40   642.8    2.8      58.920
2014    9       26    18  32    5.40   642.7    2.8      58.907
2014    9       26    18  37    5.40   642.6    2.8      58.895
2014    9       26    18  43    5.40   642.5    2.8      58.882
2014    9       26    18  48    5.40   642.4    2.8      58.870
2014    9       26    18  53    5.40   642.3    2.8      58.857
2014    9       26    18  58    5.39   642.2    2.8      58.844
2014    9       26    19   4    5.39   642.1    2.8      58.832
2014    9       26    19   9    5.39   642.0    2.8      58.819
2014    9       26    19  14    5.39   641.9    2.8      58.807
2014    9       26    19  20    5.39   641.8    2.8      58.794
2014    9       26    19  25    5.39   641.6    2.8      58.782
2014    9       26    19  30    5.39   641.5    2.8      58.770
2014    9       26    19  35    5.39   641.4    2.8      58.758
2014    9       26    19  41    5.39   641.3    2.8      58.746
2014    9       26    19  46    5.39   641.2    2.8      58.735
2014    9       26    19  51    5.39   641.1    2.8      58.724
2014    9       26    19  57    5.39   641.0    2.8      58.713
2014    9       26    20   2    5.39   640.9    2.8      58.703
2014    9       26    20   7    5.39   640.8    2.8      58.693
2014    9       26    20  12    5.39   640.7    2.8      58.683
2014    9       26    20  18    5.39   640.6    2.8      58.674
2014    9       26    20  23    5.39   640.5    2.8      58.665
2014    9       26    20  28    5.38   640.3    2.8      58.656
2014    9       26    20  34    5.38   640.2    2.8      58.648
2014    9       26    20  39    5.38   640.1    2.8      58.640
2014    9       26    20  44    5.38   640.0    2.9      58.633
2014    9       26    20  49    5.38   639.9    2.9      58.626
2014    9       26    20  55    5.38   639.8    2.9      58.619
2014    9       26    21   0    5.38   639.7    2.9      58.612
2014    9       26    21   5    5.38   639.6    2.9      58.606
2014    9       26    21  11    5.38   639.5    2.9      58.599
2014    9       26    21  16    5.38   639.4    2.9      58.592
2014    9       26    21  21    5.38   639.3    2.9      58.585
2014    9       26    21  26    5.38   639.2    2.9      58.578
2014    9       26    21  32    5.38   639.1    2.9      58.571
2014    9       26    21  37    5.38   639.0    2.9      58.563
2014    9       26    21  42    5.38   638.8    2.9      58.556
2014    9       26    21  48    5.38   638.7    2.9      58.548
2014    9       26    21  53    5.38   638.6    2.9      58.541
2014    9       26    21  58    5.38   638.5    2.9      58.534
2014    9       26    22   4    5.38   638.3    2.9      58.527
2014    9       26    22   9    5.38   638.2    2.9      58.521
2014    9       26    22  14    5.38   638.1    2.9      58.516
2014    9       26    22  19    5.37   638.0    2.9      58.511
2014    9       26    22  25    5.37   637.8    2.9      58.508
2014    9       26    22  30    5.37   637.7    2.9      58.506
2014    9       26    22  35    5.37   637.6    2.9      58.505
2014    9       26    22  41    5.37   637.5    2.9      58.506
2014    9       26    22  46    5.37   637.3    2.9      58.508
2014    9       26    22  51    5.37   637.2    2.9      58.512
2014    9       26    22  56    5.37   637.1    2.9      58.517
2014    9       26    23   2    5.37   637.0    2.9      58.522
2014    9       26    23   7    5.37   636.9    2.9      58.529
2014    9       26    23  12    5.37   636.8    2.9      58.537
2014    9       26    23  18    5.37   636.7    2.9      58.544
2014    9       26    23  23    5.37   636.6    2.9      58.552
2014    9       26    23  28    5.37   636.5    2.9      58.559
2014    9       26    23  33    5.37   636.4    2.9      58.567
2014    9       26    23  39    5.37   636.3    2.9      58.575
2014    9       26    23  44    5.37   636.2    2.9      58.583
2014    9       26    23  49    5.37   636.0    2.9      58.591
2014    9       26    23  55    5.37   635.9    2.9      58.599
2014    9       27     0   0    5.37   635.8    2.9      58.608
2014    9       27     0   5    5.37   635.7    2.9      58.616
2014    9       27     0  10    5.37   635.7    2.9      58.625
2014    9       27     0  16    5.37   635.6    2.9      58.634
2014    9       27     0  21    5.37   635.5    2.9      58.642
2014    9       27     0  26    5.37   635.4    2.9      58.648
2014    9       27     0  32    5.37   635.3    2.9      58.653
2014    9       27     0  37    5.37   635.2    2.9      58.657
2014    9       27     0  42    5.37   635.1    2.9      58.660
2014    9       27     0  47    5.37   635.0    2.9      58.662
2014    9       27     0  53    5.37   634.9    2.9      58.663
2014    9       27     0  58    5.37   634.8    2.9      58.663
2014    9       27     1   3    5.37   634.7    2.9      58.663
2014    9       27     1   9    5.37   634.6    2.9      58.661
2014    9       27     1  14    5.37   634.5    2.9      58.659
2014    9       27     1  19    5.37   634.4    2.9      58.655
2014    9       27     1  25    5.37   634.3    2.9      58.651
2014    9       27     1  30    5.37   634.2    2.9      58.647
2014    9       27     1  35    5.37   634.1    2.9      58.642
2014    9       27     1  40    5.37   634.0    2.9      58.636
2014    9       27     1  46    5.37   633.9    2.9      58.629
2014    9       27     1  51    5.37   633.8    2.9      58.622
2014    9       27     1  56    5.37   633.8    2.9      58.614
2014    9       27     2   2    5.37   633.7    2.9      58.606
2014    9       27     2   7    5.37   633.6    2.9      58.597
2014    9       27     2  12    5.37   633.5    2.9      58.588
2014    9       27     2  17    5.36   633.4    2.9      58.578
2014    9       27     2  23    5.36   633.3    2.9      58.568
2014    9       27     2  28    5.36   633.2    2.9      58.558
2014    9       27     2  33    5.36   633.1    2.9      58.547
2014    9       27     2  39    5.36   633.0    2.9      58.535
2014    9       27     2  44    5.36   632.8    2.9      58.524
2014    9       27     2  49    5.36   632.7    2.9      58.512
2014    9       27     2  54    5.36   632.6    2.9      58.499
2014    9       27     3   0    5.36   632.5    2.9      58.487
2014    9       27     3   5    5.36   632.4    2.9      58.474
2014    9       27     3  10    5.36   632.3    2.9      58.461
2014    9       27     3  16    5.36   632.2    2.9      58.448
2014    9       27     3  21    5.36   632.1    2.9      58.434
2014    9       27     3  26    5.36   632.0    2.9      58.421
2014    9       27     3  31    5.36   631.9    2.9      58.407
2014    9       27     3  37    5.36   631.8    2.9      58.393
2014    9       27     3  42    5.36   631.6    2.9      58.379
2014    9       27     3  47    5.36   631.5    2.9      58.364
2014    9       27     3  53    5.36   631.4    2.9      58.350
2014    9       27     3  58    5.36   631.3    2.9      58.335
2014    9       27     4   3    5.36   631.2    2.9      58.320
2014    9       27     4   8    5.36   631.1    2.9      58.306
2014    9       27     4  14    5.36   630.9    2.9      58.291
2014    9       27     4  19    5.36   630.8    2.9      58.276
2014    9       27     4  24    5.36   630.7    2.9      58.261
2014    9       27     4  30    5.36   630.6    2.9      58.246
2014    9       27     4  35    5.36   630.4    2.9      58.232
2014    9       27     4  40    5.36   630.3    2.9      58.218
2014    9       27     4  45    5.36   630.2    2.9      58.203
2014    9       27     4  51    5.36   630.1    2.9      58.190
2014    9       27     4  56    5.36   629.9    2.9      58.176
2014    9       27     5   1    5.36   629.8    2.9      58.164
2014    9       27     5   7    5.36   629.7    2.9      58.152
2014    9       27     5  12    5.36   629.5    2.9      58.141
2014    9       27     5  17    5.36   629.4    2.9      58.131
2014    9       27     5  22    5.36   629.2    2.9      58.121
2014    9       27     5  28    5.36   629.1    2.9      58.114
2014    9       27     5  33    5.36   629.0    2.9      58.108
2014    9       27     5  38    5.36   628.8    2.9      58.103
2014    9       27     5  44    5.36   628.7    2.9      58.099
2014    9       27     5  49    5.36   628.6    2.9      58.097
2014    9       27     5  54    5.36   628.4    2.9      58.097
2014    9       27     5  59    5.36   628.3    2.9      58.099
2014    9       27     6   5    5.36   628.2    2.9      58.103
2014    9       27     6  10    5.36   628.1    2.9      58.108
2014    9       27     6  15    5.36   627.9    2.9      58.115
2014    9       27     6  21    5.36   627.8    2.9      58.123
2014    9       27     6  26    5.36   627.7    2.9      58.133
2014    9       27     6  31    5.36   627.6    2.9      58.143
2014    9       27     6  37    5.36   627.4    2.9      58.156
2014    9       27     6  42    5.36   627.3    2.9      58.169
2014    9       27     6  47    5.36   627.2    3.0      58.184
2014    9       27     6  52    5.36   627.1    3.0      58.201
2014    9       27     6  58    5.36   627.0    3.0      58.218
2014    9       27     7   3    5.36   626.8    3.0      58.236
2014    9       27     7   8    5.36   626.7    3.0      58.255
2014    9       27     7  14    5.36   626.6    3.0      58.275
2014    9       27     7  19    5.36   626.5    3.0      58.297
2014    9       27     7  24    5.36   626.4    3.0      58.318
2014    9       27     7  29    5.36   626.3    3.0      58.341
2014    9       27     7  35    5.36   626.2    3.0      58.364
2014    9       27     7  40    5.36   626.1    3.0      58.386
2014    9       27     7  45    5.36   626.0    3.0      58.408
2014    9       27     7  51    5.36   625.9    3.0      58.428
2014    9       27     7  56    5.36   625.8    3.0      58.448
2014    9       27     8   1    5.36   625.7    3.0      58.467
2014    9       27     8   6    5.36   625.6    3.0      58.485
2014    9       27     8  12    5.36   625.5    3.0      58.503
2014    9       27     8  17    5.36   625.4    3.0      58.519
2014    9       27     8  22    5.36   625.3    3.0      58.535
2014    9       27     8  28    5.37   625.2    3.0      58.550
2014    9       27     8  33    5.37   625.1    3.0      58.565
2014    9       27     8  38    5.37   625.0    3.0      58.579
2014    9       27     8  43    5.37   624.9    3.0      58.593
2014    9       27     8  49    5.37   624.8    3.0      58.606
2014    9       27     8  54    5.37   624.7    3.0      58.618
2014    9       27     8  59    5.37   624.6    3.0      58.630
2014    9       27     9   5    5.37   624.5    3.0      58.641
2014    9       27     9  10    5.37   624.4    3.0      58.651
2014    9       27     9  15    5.37   624.4    3.0      58.660
2014    9       27     9  20    5.37   624.3    3.0      58.668
2014    9       27     9  26    5.37   624.2    3.0      58.675
2014    9       27     9  31    5.37   624.1    3.0      58.682
2014    9       27     9  36    5.37   624.0    3.0      58.687
2014    9       27     9  42    5.37   623.9    3.0      58.692
2014    9       27     9  47    5.37   623.8    3.0      58.696
2014    9       27     9  52    5.37   623.7    3.0      58.699
2014    9       27     9  57    5.37   623.6    3.0      58.701
2014    9       27    10   3    5.37   623.5    3.0      58.703
2014    9       27    10   8    5.37   623.4    3.0      58.704
2014    9       27    10  13    5.37   623.3    3.0      58.705
2014    9       27    10  19    5.37   623.2    3.0      58.704
2014    9       27    10  24    5.37   623.1    3.0      58.704
2014    9       27    10  29    5.37   623.0    3.0      58.702
2014    9       27    10  34    5.37   622.9    3.0      58.701
2014    9       27    10  40    5.37   622.8    3.0      58.699
2014    9       27    10  45    5.37   622.7    3.0      58.696
2014    9       27    10  50    5.37   622.6    3.0      58.693
2014    9       27    10  56    5.37   622.5    3.0      58.690
2014    9       27    11   1    5.37   622.4    3.0      58.687
2014    9       27    11   6    5.37   622.4    3.0      58.683
2014    9       27    11  12    5.37   622.3    3.0      58.679
2014    9       27    11  17    5.37   622.2    3.0      58.675
2014    9       27    11  22    5.37   622.1    3.0      58.671
2014    9       27    11  27    5.37   622.0    3.0      58.666
2014    9       27    11  33    5.37   621.9    3.0      58.662
2014    9       27    11  38    5.37   621.8    3.0      58.658
2014    9       27    11  43    5.37   621.7    3.0      58.654
2014    9       27    11  49    5.37   621.6    3.0      58.650
2014    9       27    11  54    5.37   621.5    3.0      58.645
2014    9       27    11  59    5.37   621.4    3.0      58.641
2014    9       27    12   4    5.37   621.3    3.0      58.638
2014    9       27    12  10    5.37   621.2    3.0      58.634
2014    9       27    12  15    5.37   621.1    3.0      58.630
2014    9       27    12  20    5.37   621.0    3.0      58.627
2014    9       27    12  26    5.37   620.9    3.0      58.624
2014    9       27    12  31    5.37   620.8    3.0      58.621
2014    9       27    12  36    5.37   620.7    3.0      58.619
2014    9       27    12  41    5.37   620.6    3.0      58.617
2014    9       27    12  47    5.37   620.5    3.0      58.615
2014    9       27    12  52    5.37   620.5    3.0      58.614
2014    9       27    12  57    5.37   620.4    3.0      58.613
2014    9       27    13   3    5.37   620.3    3.0      58.613
2014    9       27    13   8    5.37   620.2    3.0      58.613
2014    9       27    13  13    5.37   620.1    3.0      58.614
2014    9       27    13  18    5.37   620.0    3.0      58.615
2014    9       27    13  24    5.37   619.9    3.0      58.617
2014    9       27    13  29    5.37   619.8    3.0      58.620
2014    9       27    13  34    5.37   619.7    3.1      58.624
2014    9       27    13  40    5.37   619.6    3.1      58.629
2014    9       27    13  45    5.37   619.5    3.1      58.635
2014    9       27    13  50    5.37   619.4    3.1      58.641
2014    9       27    13  55    5.37   619.3    3.1      58.649
2014    9       27    14   1    5.38   619.2    3.1      58.657
2014    9       27    14   6    5.38   619.1    3.1      58.667
2014    9       27    14  11    5.38   619.0    3.1      58.677
2014    9       27    14  17    5.38   618.9    3.1      58.689
2014    9       27    14  22    5.38   618.8    3.1      58.701
2014    9       27    14  27    5.38   618.7    3.1      58.714
2014    9       27    14  32    5.38   618.6    3.1      58.727
2014    9       27    14  38    5.38   618.5    3.1      58.741
2014    9       27    14  43    5.38   618.4    3.1      58.755
2014    9       27    14  48    5.38   618.3    3.1      58.771
2014    9       27    14  54    5.38   618.2    3.1      58.787
2014    9       27    14  59    5.38   618.1    3.1      58.803
2014    9       27    15   4    5.38   618.1    3.1      58.820
2014    9       27    15  10    5.38   618.0    3.1      58.838
2014    9       27    15  15    5.38   617.9    3.1      58.856
2014    9       27    15  20    5.38   617.8    3.1      58.875
2014    9       27    15  25    5.38   617.7    3.1      58.895
2014    9       27    15  31    5.38   617.6    3.1      58.914
2014    9       27    15  36    5.38   617.5    3.1      58.935
2014    9       27    15  41    5.38   617.5    3.1      58.956
2014    9       27    15  47    5.38   617.4    3.1      58.977
2014    9       27    15  52    5.38   617.3    3.1      58.999
2014    9       27    15  57    5.38   617.2    3.1      59.021
2014    9       27    16   2    5.38   617.1    3.1      59.043
2014    9       27    16   8    5.38   617.0    3.1      59.064
2014    9       27    16  13    5.38   617.0    3.1      59.084
2014    9       27    16  18    5.38   616.9    3.1      59.104
2014    9       27    16  24    5.38   616.8    3.1      59.122
2014    9       27    16  29    5.38   616.7    3.1      59.140
2014    9       27    16  34    5.38   616.6    3.1      59.157
2014    9       27    16  39    5.38   616.6    3.1      59.174
2014    9       27    16  45    5.38   616.5    3.1      59.190
2014    9       27    16  50    5.38   616.4    3.1      59.205
2014    9       27    16  55    5.38   616.3    3.1      59.220
2014    9       27    17   1    5.38   616.3    3.1      59.234
2014    9       27    17   6    5.38   616.2    3.1      59.248
2014    9       27    17  11    5.38   616.1    3.1      59.261
2014    9       27    17  16    5.38   616.0    3.1      59.273
2014    9       27    17  22    5.38   615.9    3.1      59.285
2014    9       27    17  27    5.38   615.9    3.1      59.296
2014    9       27    17  32    5.38   615.8    3.1      59.307
2014    9       27    17  38    5.38   615.7    3.1      59.317
2014    9       27    17  43    5.38   615.6    3.1      59.327
2014    9       27    17  48    5.39   615.5    3.1      59.336
2014    9       27    17  53    5.39   615.5    3.1      59.345
2014    9       27    17  59    5.39   615.4    3.1      59.353
2014    9       27    18   4    5.39   615.3    3.1      59.361
2014    9       27    18   9    5.39   615.2    3.1      59.369
2014    9       27    18  15    5.39   615.2    3.1      59.376
2014    9       27    18  20    5.39   615.1    3.1      59.383
2014    9       27    18  25    5.39   615.0    3.1      59.389
2014    9       27    18  30    5.39   614.9    3.1      59.395
2014    9       27    18  36    5.39   614.9    3.1      59.401
2014    9       27    18  41    5.39   614.8    3.1      59.407
2014    9       27    18  46    5.39   614.7    3.1      59.412
2014    9       27    18  52    5.39   614.6    3.1      59.418
2014    9       27    18  57    5.39   614.6    3.1      59.423
2014    9       27    19   2    5.39   614.5    3.1      59.428
2014    9       27    19   7    5.39   614.4    3.1      59.433
2014    9       27    19  13    5.39   614.3    3.1      59.438
2014    9       27    19  18    5.39   614.3    3.1      59.443
2014    9       27    19  23    5.39   614.2    3.1      59.448
2014    9       27    19  29    5.39   614.1    3.2      59.453
2014    9       27    19  34    5.39   614.0    3.2      59.458
2014    9       27    19  39    5.39   614.0    3.2      59.463
2014    9       27    19  44    5.39   613.9    3.2      59.468
2014    9       27    19  50    5.39   613.8    3.2      59.474
2014    9       27    19  55    5.39   613.7    3.2      59.480
2014    9       27    20   0    5.39   613.7    3.2      59.486
2014    9       27    20   6    5.39   613.6    3.2      59.492
2014    9       27    20  11    5.39   613.5    3.2      59.498
2014    9       27    20  16    5.39   613.4    3.2      59.505
2014    9       27    20  21    5.39   613.3    3.2      59.511
2014    9       27    20  27    5.39   613.3    3.2      59.518
2014    9       27    20  32    5.39   613.2    3.2      59.526
2014    9       27    20  37    5.39   613.1    3.2      59.533
2014    9       27    20  43    5.39   613.0    3.2      59.541
2014    9       27    20  48    5.39   613.0    3.2      59.549
2014    9       27    20  53    5.39   612.9    3.2      59.557
2014    9       27    20  59    5.39   612.8    3.2      59.565
2014    9       27    21   4    5.39   612.7    3.2      59.573
2014    9       27    21   9    5.39   612.6    3.2      59.582
2014    9       27    21  14    5.39   612.6    3.2      59.592
2014    9       27    21  20    5.39   612.5    3.2      59.601
2014    9       27    21  25    5.39   612.4    3.2      59.611
2014    9       27    21  30    5.39   612.3    3.2      59.622
2014    9       27    21  36    5.39   612.2    3.2      59.634
2014    9       27    21  41    5.39   612.1    3.2      59.646
2014    9       27    21  46    5.39   612.1    3.2      59.660
2014    9       27    21  51    5.39   612.0    3.2      59.673
2014    9       27    21  57    5.39   611.9    3.2      59.688
2014    9       27    22   2    5.39   611.8    3.2      59.704
2014    9       27    22   7    5.39   611.7    3.2      59.721
2014    9       27    22  13    5.39   611.7    3.2      59.739
2014    9       27    22  18    5.39   611.6    3.2      59.757
2014    9       27    22  23    5.39   611.5    3.2      59.776
2014    9       27    22  28    5.39   611.5    3.2      59.795
2014    9       27    22  34    5.39   611.4    3.2      59.814
2014    9       27    22  39    5.39   611.3    3.2      59.831
2014    9       27    22  44    5.39   611.3    3.2      59.848
2014    9       27    22  50    5.39   611.2    3.2      59.865
2014    9       27    22  55    5.39   611.1    3.2      59.881
2014    9       27    23   0    5.39   611.1    3.2      59.896
2014    9       27    23   5    5.39   611.0    3.2      59.910
2014    9       27    23  11    5.39   610.9    3.2      59.924
2014    9       27    23  16    5.39   610.9    3.2      59.938
2014    9       27    23  21    5.39   610.8    3.2      59.950
2014    9       27    23  27    5.39   610.7    3.2      59.962
2014    9       27    23  32    5.38   610.7    3.2      59.974
2014    9       27    23  37    5.38   610.6    3.2      59.985
2014    9       27    23  43    5.38   610.6    3.2      59.995
2014    9       27    23  48    5.38   610.5    3.2      60.005
2014    9       27    23  53    5.38   610.4    3.2      60.014
2014    9       27    23  58    5.38   610.4    3.2      60.023
2014    9       28     0   4    5.38   610.3    3.2      60.032
2014    9       28     0   9    5.38   610.2    3.2      60.039
2014    9       28     0  14    5.38   610.2    3.2      60.047
2014    9       28     0  20    5.38   610.1    3.2      60.054
2014    9       28     0  25    5.38   610.0    3.2      60.060
2014    9       28     0  30    5.38   610.0    3.2      60.066
2014    9       28     0  35    5.38   609.9    3.2      60.071
2014    9       28     0  41    5.38   609.8    3.2      60.075
2014    9       28     0  46    5.38   609.7    3.2      60.080
2014    9       28     0  51    5.38   609.7    3.2      60.083
2014    9       28     0  57    5.38   609.6    3.2      60.087
2014    9       28     1   2    5.38   609.5    3.2      60.090
2014    9       28     1   7    5.38   609.5    3.2      60.092
2014    9       28     1  12    5.38   609.4    3.2      60.094
2014    9       28     1  18    5.38   609.3    3.2      60.095
2014    9       28     1  23    5.38   609.3    3.2      60.096
2014    9       28     1  28    5.38   609.2    3.2      60.097
2014    9       28     1  34    5.38   609.1    3.2      60.097
2014    9       28     1  39    5.38   609.0    3.2      60.097
2014    9       28     1  44    5.38   609.0    3.2      60.097
2014    9       28     1  49    5.38   608.9    3.2      60.096
2014    9       28     1  55    5.38   608.8    3.2      60.095
2014    9       28     2   0    5.38   608.7    3.2      60.094
2014    9       28     2   5    5.38   608.7    3.2      60.092
2014    9       28     2  11    5.38   608.6    3.2      60.091
2014    9       28     2  16    5.38   608.5    3.2      60.089
2014    9       28     2  21    5.38   608.4    3.2      60.087
2014    9       28     2  26    5.38   608.4    3.2      60.085
2014    9       28     2  32    5.37   608.3    3.2      60.083
2014    9       28     2  37    5.37   608.2    3.2      60.081
2014    9       28     2  42    5.37   608.1    3.2      60.080
2014    9       28     2  48    5.37   608.1    3.2      60.078
2014    9       28     2  53    5.37   608.0    3.2      60.077
2014    9       28     2  58    5.37   607.9    3.2      60.076
2014    9       28     3   3    5.37   607.8    3.2      60.075
2014    9       28     3   9    5.37   607.7    3.2      60.075
2014    9       28     3  14    5.37   607.6    3.2      60.076
2014    9       28     3  19    5.37   607.6    3.2      60.077
2014    9       28     3  25    5.37   607.5    3.2      60.079
2014    9       28     3  30    5.37   607.4    3.2      60.081
2014    9       28     3  35    5.37   607.3    3.2      60.084
2014    9       28     3  40    5.37   607.2    3.2      60.088
2014    9       28     3  46    5.37   607.1    3.2      60.093
2014    9       28     3  51    5.37   607.1    3.2      60.099
2014    9       28     3  56    5.37   607.0    3.2      60.105
2014    9       28     4   2    5.37   606.9    3.2      60.112
2014    9       28     4   7    5.37   606.8    3.2      60.119
2014    9       28     4  12    5.37   606.7    3.2      60.127
2014    9       28     4  17    5.37   606.6    3.2      60.135
2014    9       28     4  23    5.37   606.5    3.2      60.144
2014    9       28     4  28    5.37   606.4    3.2      60.153
2014    9       28     4  33    5.37   606.3    3.2      60.163
2014    9       28     4  39    5.37   606.3    3.2      60.174
2014    9       28     4  44    5.37   606.2    3.2      60.186
2014    9       28     4  49    5.37   606.1    3.2      60.198
2014    9       28     4  54    5.37   606.0    3.2      60.212
2014    9       28     5   0    5.37   605.9    3.2      60.226
2014    9       28     5   5    5.36   605.8    3.2      60.241
2014    9       28     5  10    5.36   605.7    3.2      60.258
2014    9       28     5  16    5.36   605.6    3.2      60.277
2014    9       28     5  21    5.36   605.5    3.2      60.297
2014    9       28     5  26    5.36   605.5    3.3      60.319
2014    9       28     5  32    5.36   605.4    3.3      60.342
2014    9       28     5  37    5.36   605.3    3.3      60.365
2014    9       28     5  42    5.36   605.2    3.3      60.390
2014    9       28     5  47    5.36   605.1    3.3      60.415
2014    9       28     5  53    5.36   605.1    3.3      60.440
2014    9       28     5  58    5.36   605.0    3.3      60.466
2014    9       28     6   3    5.36   604.9    3.3      60.492
2014    9       28     6   9    5.36   604.9    3.3      60.518
2014    9       28     6  14    5.36   604.8    3.3      60.542
2014    9       28     6  19    5.36   604.7    3.3      60.564
2014    9       28     6  24    5.36   604.7    3.3      60.585
2014    9       28     6  30    5.36   604.6    3.3      60.605
2014    9       28     6  35    5.36   604.5    3.3      60.623
2014    9       28     6  40    5.36   604.5    3.3      60.641
2014    9       28     6  46    5.36   604.4    3.3      60.656
2014    9       28     6  51    5.36   604.3    3.3      60.671
2014    9       28     6  56    5.36   604.3    3.3      60.684
2014    9       28     7   1    5.36   604.2    3.3      60.697
2014    9       28     7   7    5.36   604.1    3.3      60.708
2014    9       28     7  12    5.36   604.1    3.3      60.718
2014    9       28     7  17    5.36   604.0    3.3      60.727
2014    9       28     7  23    5.36   604.0    3.3      60.735
2014    9       28     7  28    5.35   603.9    3.3      60.742
2014    9       28     7  33    5.35   603.8    3.3      60.748
2014    9       28     7  38    5.35   603.8    3.3      60.752
2014    9       28     7  44    5.35   603.7    3.3      60.757
2014    9       28     7  49    5.35   603.6    3.3      60.760
2014    9       28     7  54    5.35   603.6    3.3      60.762
2014    9       28     8   0    5.35   603.5    3.3      60.763
2014    9       28     8   5    5.35   603.4    3.3      60.764
2014    9       28     8  10    5.35   603.4    3.3      60.763
2014    9       28     8  15    5.35   603.3    3.3      60.762
2014    9       28     8  21    5.35   603.3    3.3      60.760
2014    9       28     8  26    5.35   603.2    3.3      60.758
2014    9       28     8  31    5.35   603.1    3.3      60.755
2014    9       28     8  37    5.35   603.1    3.3      60.751
2014    9       28     8  42    5.35   603.0    3.3      60.746
2014    9       28     8  47    5.34   602.9    3.3      60.740
2014    9       28     8  52    5.34   602.9    3.3      60.734
2014    9       28     8  58    5.34   602.8    3.3      60.728
2014    9       28     9   3    5.34   602.7    3.3      60.720
2014    9       28     9   8    5.34   602.6    3.3      60.712
2014    9       28     9  14    5.34   602.6    3.3      60.704
2014    9       28     9  19    5.34   602.5    3.3      60.695
2014    9       28     9  24    5.34   602.4    3.3      60.686
2014    9       28     9  29    5.34   602.4    3.3      60.676
2014    9       28     9  35    5.34   602.3    3.3      60.666
2014    9       28     9  40    5.34   602.2    3.3      60.655
2014    9       28     9  45    5.34   602.1    3.3      60.644
2014    9       28     9  51    5.34   602.1    3.3      60.633
2014    9       28     9  56    5.34   602.0    3.3      60.621
2014    9       28    10   1    5.33   601.9    3.3      60.610
2014    9       28    10   7    5.33   601.8    3.3      60.598
2014    9       28    10  12    5.33   601.8    3.3      60.586
2014    9       28    10  17    5.33   601.7    3.3      60.575
2014    9       28    10  22    5.33   601.6    3.3      60.563
2014    9       28    10  28    5.33   601.5    3.3      60.551
2014    9       28    10  33    5.33   601.5    3.3      60.540
2014    9       28    10  38    5.33   601.4    3.3      60.528
2014    9       28    10  44    5.33   601.3    3.3      60.517
2014    9       28    10  49    5.33   601.2    3.3      60.507
2014    9       28    10  54    5.33   601.1    3.3      60.496
2014    9       28    10  59    5.33   601.1    3.3      60.486
2014    9       28    11   5    5.33   601.0    3.3      60.476
2014    9       28    11  10    5.32   600.9    3.3      60.467
2014    9       28    11  15    5.32   600.8    3.3      60.459
2014    9       28    11  21    5.32   600.7    3.3      60.451
2014    9       28    11  26    5.32   600.6    3.3      60.443
2014    9       28    11  31    5.32   600.5    3.3      60.436
2014    9       28    11  36    5.32   600.5    3.3      60.430
2014    9       28    11  42    5.32   600.4    3.3      60.424
2014    9       28    11  47    5.32   600.3    3.3      60.419
2014    9       28    11  52    5.32   600.2    3.3      60.414
2014    9       28    11  58    5.32   600.1    3.3      60.410
2014    9       28    12   3    5.32   600.0    3.3      60.407
2014    9       28    12   8    5.32   599.9    3.3      60.404
2014    9       28    12  13    5.32   599.8    3.3      60.402
2014    9       28    12  19    5.32   599.7    3.3      60.400
2014    9       28    12  24    5.31   599.6    3.3      60.399
2014    9       28    12  29    5.31   599.5    3.3      60.400
2014    9       28    12  35    5.31   599.4    3.3      60.402
2014    9       28    12  40    5.31   599.3    3.3      60.404
2014    9       28    12  45    5.31   599.2    3.3      60.408
2014    9       28    12  50    5.31   599.1    3.3      60.413
2014    9       28    12  56    5.31   599.1    3.3      60.420
2014    9       28    13   1    5.31   599.0    3.3      60.429
2014    9       28    13   6    5.31   598.9    3.3      60.440
2014    9       28    13  12    5.31   598.8    3.3      60.453
2014    9       28    13  17    5.31   598.7    3.3      60.467
2014    9       28    13  22    5.31   598.6    3.3      60.482
2014    9       28    13  28    5.31   598.5    3.3      60.498
2014    9       28    13  33    5.31   598.5    3.3      60.514
2014    9       28    13  38    5.31   598.4    3.3      60.530
2014    9       28    13  43    5.31   598.3    3.3      60.547
2014    9       28    13  49    5.30   598.2    3.3      60.563
2014    9       28    13  54    5.30   598.1    3.3      60.581
2014    9       28    13  59    5.30   598.0    3.3      60.598
2014    9       28    14   5    5.30   598.0    3.3      60.616
2014    9       28    14  10    5.30   597.9    3.3      60.635
2014    9       28    14  15    5.30   597.8    3.3      60.655
2014    9       28    14  20    5.30   597.7    3.3      60.675
2014    9       28    14  26    5.30   597.7    3.3      60.696
2014    9       28    14  31    5.30   597.6    3.3      60.717
2014    9       28    14  36    5.30   597.5    3.3      60.737
2014    9       28    14  42    5.30   597.5    3.3      60.755
2014    9       28    14  47    5.30   597.4    3.3      60.773
2014    9       28    14  52    5.30   597.3    3.3      60.788
2014    9       28    14  57    5.30   597.2    3.3      60.802
2014    9       28    15   3    5.29   597.2    3.3      60.815
2014    9       28    15   8    5.29   597.1    3.3      60.827
2014    9       28    15  13    5.29   597.0    3.3      60.838
2014    9       28    15  19    5.29   597.0    3.3      60.847
2014    9       28    15  24    5.29   596.9    3.3      60.856
2014    9       28    15  29    5.29   596.8    3.3      60.863
2014    9       28    15  34    5.29   596.8    3.3      60.869
2014    9       28    15  40    5.29   596.7    3.3      60.874
2014    9       28    15  45    5.29   596.6    3.3      60.879
2014    9       28    15  50    5.29   596.5    3.3      60.882
2014    9       28    15  56    5.29   596.5    3.3      60.884
2014    9       28    16   1    5.28   596.4    3.3      60.885
2014    9       28    16   6    5.28   596.3    3.3      60.885
2014    9       28    16  11    5.28   596.3    3.3      60.885
2014    9       28    16  17    5.28   596.2    3.3      60.883
2014    9       28    16  22    5.28   596.1    3.3      60.881
2014    9       28    16  27    5.28   596.0    3.3      60.877
2014    9       28    16  33    5.28   596.0    3.3      60.873
2014    9       28    16  38    5.28   595.9    3.3      60.868
2014    9       28    16  43    5.28   595.8    3.3      60.862
2014    9       28    16  48    5.28   595.7    3.3      60.855
2014    9       28    16  54    5.28   595.7    3.3      60.848
2014    9       28    16  59    5.27   595.6    3.3      60.839
2014    9       28    17   4    5.27   595.5    3.3      60.830
2014    9       28    17  10    5.27   595.4    3.3      60.820
2014    9       28    17  15    5.27   595.4    3.3      60.809
2014    9       28    17  20    5.27   595.3    3.3      60.797
2014    9       28    17  25    5.27   595.2    3.3      60.785
2014    9       28    17  31    5.27   595.1    3.3      60.772
2014    9       28    17  36    5.27   595.1    3.3      60.758
2014    9       28    17  41    5.27   595.0    3.3      60.744
2014    9       28    17  47    5.27   594.9    3.3      60.728
2014    9       28    17  52    5.26   594.8    3.3      60.713
2014    9       28    17  57    5.26   594.7    3.3      60.696
2014    9       28    18   2    5.26   594.7    3.3      60.679
2014    9       28    18   8    5.26   594.6    3.3      60.662
2014    9       28    18  13    5.26   594.5    3.3      60.644
2014    9       28    18  18    5.26   594.4    3.3      60.625
2014    9       28    18  24    5.26   594.3    3.3      60.606
2014    9       28    18  29    5.26   594.2    3.3      60.587
2014    9       28    18  34    5.26   594.2    3.3      60.568
2014    9       28    18  39    5.25   594.1    3.3      60.548
2014    9       28    18  45    5.25   594.0    3.3      60.528
2014    9       28    18  50    5.25   593.9    3.3      60.508
2014    9       28    18  55    5.25   593.8    3.3      60.489
2014    9       28    19   1    5.25   593.7    3.3      60.469
2014    9       28    19   6    5.25   593.6    3.3      60.450
2014    9       28    19  11    5.25   593.5    3.3      60.430
2014    9       28    19  17    5.25   593.5    3.3      60.411
2014    9       28    19  22    5.25   593.4    3.3      60.392
2014    9       28    19  27    5.24   593.3    3.3      60.374
2014    9       28    19  32    5.24   593.2    3.3      60.355
2014    9       28    19  38    5.24   593.1    3.3      60.337
2014    9       28    19  43    5.24   593.0    3.3      60.319
2014    9       28    19  48    5.24   592.9    3.3      60.301
2014    9       28    19  54    5.24   592.8    3.3      60.284
2014    9       28    19  59    5.24   592.7    3.3      60.267
2014    9       28    20   4    5.24   592.6    3.3      60.250
2014    9       28    20   9    5.24   592.5    3.3      60.234
2014    9       28    20  15    5.23   592.4    3.3      60.219
2014    9       28    20  20    5.23   592.3    3.3      60.205
2014    9       28    20  25    5.23   592.2    3.3      60.191
2014    9       28    20  31    5.23   592.1    3.3      60.177
2014    9       28    20  36    5.23   592.0    3.3      60.165
2014    9       28    20  41    5.23   591.9    3.3      60.154
2014    9       28    20  46    5.23   591.8    3.3      60.144
2014    9       28    20  52    5.23   591.7    3.3      60.136
2014    9       28    20  57    5.23   591.6    3.3      60.128
2014    9       28    21   2    5.22   591.5    3.3      60.123
2014    9       28    21   8    5.22   591.4    3.3      60.119
2014    9       28    21  13    5.22   591.3    3.3      60.117
2014    9       28    21  18    5.22   591.2    3.3      60.118
2014    9       28    21  23    5.22   591.1    3.3      60.121
2014    9       28    21  29    5.22   591.0    3.3      60.126
2014    9       28    21  34    5.22   590.9    3.3      60.132
2014    9       28    21  39    5.22   590.8    3.3      60.140
2014    9       28    21  45    5.22   590.7    3.3      60.149
2014    9       28    21  50    5.22   590.6    3.3      60.158
2014    9       28    21  55    5.21   590.5    3.3      60.168
2014    9       28    22   0    5.21   590.4    3.3      60.179
2014    9       28    22   6    5.21   590.3    3.3      60.189
2014    9       28    22  11    5.21   590.3    3.3      60.201
2014    9       28    22  16    5.21   590.2    3.3      60.214
2014    9       28    22  22    5.21   590.1    3.3      60.228
2014    9       28    22  27    5.21   590.0    3.3      60.243
2014    9       28    22  32    5.21   589.9    3.3      60.258
2014    9       28    22  37    5.21   589.8    3.3      60.275
2014    9       28    22  43    5.21   589.8    3.3      60.290
2014    9       28    22  48    5.21   589.7    3.3      60.303
2014    9       28    22  53    5.20   589.6    3.3      60.315
2014    9       28    22  59    5.20   589.5    3.3      60.326
2014    9       28    23   4    5.20   589.5    3.3      60.335
2014    9       28    23   9    5.20   589.4    3.3      60.343
2014    9       28    23  15    5.20   589.3    3.3      60.350
2014    9       28    23  20    5.20   589.2    3.3      60.355
2014    9       28    23  25    5.20   589.1    3.3      60.360
2014    9       28    23  30    5.20   589.1    3.3      60.363
2014    9       28    23  36    5.20   589.0    3.3      60.364
2014    9       28    23  41    5.19   588.9    3.3      60.365
2014    9       28    23  46    5.19   588.8    3.3      60.365
2014    9       28    23  52    5.19   588.7    3.3      60.364
2014    9       28    23  57    5.19   588.7    3.3      60.361
2014    9       29     0   2    5.19   588.6    3.3      60.358
2014    9       29     0   7    5.19   588.5    3.3      60.354
2014    9       29     0  13    5.19   588.4    3.3      60.349
2014    9       29     0  18    5.19   588.3    3.3      60.343
2014    9       29     0  23    5.19   588.2    3.3      60.336
2014    9       29     0  29    5.18   588.1    3.3      60.328
2014    9       29     0  34    5.18   588.0    3.3      60.319
2014    9       29     0  39    5.18   588.0    3.3      60.309
2014    9       29     0  44    5.18   587.9    3.3      60.299
2014    9       29     0  50    5.18   587.8    3.3      60.288
2014    9       29     0  55    5.18   587.7    3.3      60.276
2014    9       29     1   0    5.18   587.6    3.3      60.263
2014    9       29     1   6    5.18   587.5    3.3      60.250
2014    9       29     1  11    5.17   587.4    3.3      60.236
2014    9       29     1  16    5.17   587.3    3.3      60.221
2014    9       29     1  21    5.17   587.2    3.3      60.206
2014    9       29     1  27    5.17   587.1    3.3      60.191
2014    9       29     1  32    5.17   587.0    3.3      60.175
2014    9       29     1  37    5.17   586.9    3.3      60.158
2014    9       29     1  43    5.17   586.8    3.3      60.141
2014    9       29     1  48    5.17   586.8    3.3      60.123
2014    9       29     1  53    5.16   586.7    3.3      60.105
2014    9       29     1  58    5.16   586.6    3.3      60.086
2014    9       29     2   4    5.16   586.5    3.3      60.067
2014    9       29     2   9    5.16   586.4    3.3      60.048
2014    9       29     2  14    5.16   586.3    3.3      60.028
2014    9       29     2  20    5.16   586.2    3.3      60.008
2014    9       29     2  25    5.16   586.1    3.3      59.988
2014    9       29     2  30    5.16   586.0    3.3      59.968
2014    9       29     2  35    5.15   585.9    3.3      59.948
2014    9       29     2  41    5.15   585.8    3.3      59.927
2014    9       29     2  46    5.15   585.7    3.3      59.906
2014    9       29     2  51    5.15   585.6    3.3      59.886
2014    9       29     2  57    5.15   585.5    3.3      59.865
2014    9       29     3   2    5.15   585.4    3.3      59.844
2014    9       29     3   7    5.15   585.3    3.3      59.823
2014    9       29     3  13    5.14   585.2    3.3      59.802
2014    9       29     3  18    5.14   585.1    3.3      59.780
2014    9       29     3  23    5.14   584.9    3.3      59.759
2014    9       29     3  28    5.14   584.8    3.3      59.738
2014    9       29     3  34    5.14   584.7    3.3      59.717
2014    9       29     3  39    5.14   584.6    3.3      59.696
2014    9       29     3  44    5.14   584.5    3.3      59.676
2014    9       29     3  50    5.14   584.4    3.3      59.656
2014    9       29     3  55    5.13   584.3    3.3      59.636
2014    9       29     4   0    5.13   584.2    3.3      59.617
2014    9       29     4   5    5.13   584.1    3.3      59.598
2014    9       29     4  11    5.13   584.0    3.3      59.580
2014    9       29     4  16    5.13   583.9    3.3      59.562
2014    9       29     4  21    5.13   583.8    3.3      59.545
2014    9       29     4  27    5.13   583.7    3.3      59.528
2014    9       29     4  32    5.13   583.6    3.3      59.511
2014    9       29     4  37    5.12   583.5    3.3      59.496
2014    9       29     4  42    5.12   583.3    3.3      59.481
2014    9       29     4  48    5.12   583.2    3.3      59.467
2014    9       29     4  53    5.12   583.1    3.3      59.454
2014    9       29     4  58    5.12   583.0    3.3      59.441
2014    9       29     5   4    5.12   582.9    3.3      59.431
2014    9       29     5   9    5.12   582.8    3.3      59.421
2014    9       29     5  14    5.12   582.7    3.3      59.413
2014    9       29     5  19    5.11   582.6    3.3      59.405
2014    9       29     5  25    5.11   582.5    3.3      59.399
2014    9       29     5  30    5.11   582.4    3.3      59.394
2014    9       29     5  35    5.11   582.3    3.3      59.389
2014    9       29     5  41    5.11   582.2    3.3      59.383
2014    9       29     5  46    5.11   582.1    3.3      59.376
2014    9       29     5  51    5.11   582.0    3.3      59.370
2014    9       29     5  56    5.11   581.9    3.3      59.364
2014    9       29     6   2    5.10   581.8    3.3      59.357
2014    9       29     6   7    5.10   581.7    3.3      59.350
2014    9       29     6  12    5.10   581.6    3.3      59.344
2014    9       29     6  18    5.10   581.5    3.3      59.338
2014    9       29     6  23    5.10   581.4    3.3      59.332
2014    9       29     6  28    5.10   581.3    3.3      59.327
2014    9       29     6  33    5.10   581.2    3.3      59.321
2014    9       29     6  39    5.10   581.1    3.3      59.316
2014    9       29     6  44    5.09   581.0    3.3      59.311
2014    9       29     6  49    5.09   580.9    3.3      59.307
2014    9       29     6  55    5.09   580.8    3.3      59.303
2014    9       29     7   0    5.09   580.7    3.3      59.299
2014    9       29     7   5    5.09   580.6    3.3      59.296
2014    9       29     7  10    5.09   580.5    3.3      59.293
2014    9       29     7  16    5.09   580.4    3.3      59.290
2014    9       29     7  21    5.08   580.3    3.3      59.286
2014    9       29     7  26    5.08   580.2    3.3      59.282
2014    9       29     7  32    5.08   580.1    3.3      59.276
2014    9       29     7  37    5.08   580.0    3.3      59.270
2014    9       29     7  42    5.08   579.9    3.3      59.263
2014    9       29     7  47    5.08   579.8    3.3      59.255
2014    9       29     7  53    5.08   579.8    3.3      59.246
2014    9       29     7  58    5.08   579.7    3.3      59.237
2014    9       29     8   3    5.07   579.6    3.3      59.227
2014    9       29     8   9    5.07   579.5    3.3      59.217
2014    9       29     8  14    5.07   579.4    3.3      59.206
2014    9       29     8  19    5.07   579.3    3.3      59.194
2014    9       29     8  24    5.07   579.2    3.3      59.182
2014    9       29     8  30    5.07   579.1    3.3      59.170
2014    9       29     8  35    5.07   579.0    3.3      59.157
2014    9       29     8  40    5.06   578.9    3.3      59.143
2014    9       29     8  46    5.06   578.8    3.3      59.130
2014    9       29     8  51    5.06   578.7    3.3      59.115
2014    9       29     8  56    5.06   578.6    3.3      59.101
2014    9       29     9   2    5.06   578.4    3.3      59.086
2014    9       29     9   7    5.06   578.3    3.3      59.071
2014    9       29     9  12    5.06   578.2    3.3      59.055
2014    9       29     9  17    5.06   578.1    3.3      59.039
2014    9       29     9  23    5.05   578.0    3.3      59.023
2014    9       29     9  28    5.05   577.9    3.3      59.006
2014    9       29     9  33    5.05   577.8    3.3      58.989
2014    9       29     9  39    5.05   577.7    3.3      58.972
2014    9       29     9  44    5.05   577.6    3.3      58.954
2014    9       29     9  49    5.05   577.5    3.3      58.936
2014    9       29     9  54    5.05   577.4    3.3      58.918
2014    9       29    10   0    5.04   577.3    3.3      58.900
2014    9       29    10   5    5.04   577.2    3.3      58.881
2014    9       29    10  10    5.04   577.1    3.3      58.862
2014    9       29    10  16    5.04   577.0    3.3      58.843
2014    9       29    10  21    5.04   576.9    3.3      58.824
2014    9       29    10  26    5.04   576.8    3.3      58.805
2014    9       29    10  31    5.04   576.6    3.3      58.786
2014    9       29    10  37    5.04   576.5    3.3      58.767
2014    9       29    10  42    5.03   576.4    3.3      58.747
2014    9       29    10  47    5.03   576.3    3.3      58.727
2014    9       29    10  53    5.03   576.2    3.3      58.708
2014    9       29    10  58    5.03   576.1    3.3      58.688
2014    9       29    11   3    5.03   576.0    3.3      58.669
2014    9       29    11   8    5.03   575.9    3.3      58.649
2014    9       29    11  14    5.03   575.8    3.3      58.629
2014    9       29    11  19    5.02   575.7    3.3      58.609
2014    9       29    11  24    5.02   575.6    3.3      58.588
2014    9       29    11  30    5.02   575.4    3.3      58.567
2014    9       29    11  35    5.02   575.3    3.3      58.545
2014    9       29    11  40    5.02   575.2    3.3      58.523
2014    9       29    11  46    5.02   575.1    3.3      58.501
2014    9       29    11  51    5.02   575.0    3.3      58.478
2014    9       29    11  56    5.01   574.9    3.3      58.455
2014    9       29    12   1    5.01   574.8    3.3      58.431
2014    9       29    12   7    5.01   574.6    3.3      58.407
2014    9       29    12  12    5.01   574.5    3.3      58.383
2014    9       29    12  17    5.01   574.4    3.3      58.359
2014    9       29    12  23    5.01   574.3    3.3      58.334
2014    9       29    12  28    5.01   574.1    3.3      58.310
2014    9       29    12  33    5.00   574.0    3.3      58.286
2014    9       29    12  38    5.00   573.9    3.3      58.261
2014    9       29    12  44    5.00   573.8    3.3      58.237
2014    9       29    12  49    5.00   573.6    3.3      58.213
2014    9       29    12  54    5.00   573.5    3.3      58.188
2014    9       29    13   0    5.00   573.4    3.3      58.165
2014    9       29    13   5    5.00   573.2    3.3      58.141
2014    9       29    13  10    4.99   573.1    3.3      58.118
2014    9       29    13  15    4.99   573.0    3.3      58.095
2014    9       29    13  21    4.99   572.8    3.3      58.073
2014    9       29    13  26    4.99   572.7    3.3      58.052
2014    9       29    13  31    4.99   572.6    3.3      58.032
2014    9       29    13  37    4.99   572.4    3.3      58.012
2014    9       29    13  42    4.99   572.3    3.3      57.992
2014    9       29    13  47    4.98   572.2    3.3      57.974
2014    9       29    13  52    4.98   572.0    3.3      57.957
2014    9       29    13  58    4.98   571.9    3.3      57.941
2014    9       29    14   3    4.98   571.8    3.3      57.925
2014    9       29    14   8    4.98   571.7    3.3      57.910
2014    9       29    14  14    4.98   571.5    3.3      57.897
2014    9       29    14  19    4.98   571.4    3.3      57.883
2014    9       29    14  24    4.98   571.3    3.3      57.869
2014    9       29    14  29    4.97   571.2    3.3      57.854
2014    9       29    14  35    4.97   571.0    3.3      57.840
2014    9       29    14  40    4.97   570.9    3.3      57.825
2014    9       29    14  45    4.97   570.8    3.3      57.810
2014    9       29    14  51    4.97   570.7    3.3      57.794
2014    9       29    14  56    4.97   570.5    3.3      57.779
2014    9       29    15   1    4.97   570.4    3.3      57.763
2014    9       29    15   6    4.97   570.3    3.3      57.747
2014    9       29    15  12    4.96   570.2    3.3      57.731
2014    9       29    15  17    4.96   570.0    3.3      57.714
2014    9       29    15  22    4.96   569.9    3.3      57.697
2014    9       29    15  28    4.96   569.8    3.3      57.680
2014    9       29    15  33    4.96   569.7    3.3      57.663
2014    9       29    15  38    4.96   569.5    3.3      57.645
2014    9       29    15  43    4.96   569.4    3.3      57.627
2014    9       29    15  49    4.95   569.3    3.3      57.608
2014    9       29    15  54    4.95   569.2    3.3      57.589
2014    9       29    15  59    4.95   569.0    3.3      57.570
2014    9       29    16   5    4.95   568.9    3.3      57.551
2014    9       29    16  10    4.95   568.8    3.3      57.532
2014    9       29    16  15    4.95   568.7    3.3      57.512
2014    9       29    16  20    4.95   568.5    3.3      57.492
2014    9       29    16  26    4.95   568.4    3.3      57.471
2014    9       29    16  31    4.94   568.3    3.3      57.451
2014    9       29    16  36    4.94   568.2    3.3      57.430
2014    9       29    16  42    4.94   568.0    3.3      57.409
2014    9       29    16  47    4.94   567.9    3.3      57.388
2014    9       29    16  52    4.94   567.8    3.3      57.367
2014    9       29    16  57    4.94   567.7    3.3      57.345
2014    9       29    17   3    4.94   567.6    3.3      57.324
2014    9       29    17   8    4.93   567.4    3.3      57.302
2014    9       29    17  13    4.93   567.3    3.3      57.280
2014    9       29    17  19    4.93   567.2    3.3      57.258
2014    9       29    17  24    4.93   567.1    3.3      57.237
2014    9       29    17  29    4.93   566.9    3.3      57.215
2014    9       29    17  35    4.93   566.8    3.3      57.193
2014    9       29    17  40    4.93   566.7    3.3      57.171
2014    9       29    17  45    4.92   566.6    3.3      57.149
2014    9       29    17  50    4.92   566.5    3.3      57.127
2014    9       29    17  56    4.92   566.3    3.3      57.105
2014    9       29    18   1    4.92   566.2    3.3      57.083
2014    9       29    18   6    4.92   566.1    3.3      57.061
2014    9       29    18  12    4.92   566.0    3.3      57.039
2014    9       29    18  17    4.92   565.9    3.3      57.017
2014    9       29    18  22    4.92   565.7    3.3      56.994
2014    9       29    18  27    4.91   565.6    3.3      56.972
2014    9       29    18  33    4.91   565.5    3.3      56.950
2014    9       29    18  38    4.91   565.4    3.3      56.928
2014    9       29    18  43    4.91   565.3    3.3      56.906
2014    9       29    18  49    4.91   565.1    3.3      56.884
2014    9       29    18  54    4.91   565.0    3.3      56.862
2014    9       29    18  59    4.91   564.9    3.3      56.840
2014    9       29    19   4    4.90   564.8    3.3      56.817
2014    9       29    19  10    4.90   564.6    3.3      56.795
2014    9       29    19  15    4.90   564.5    3.3      56.773
2014    9       29    19  20    4.90   564.4    3.3      56.751
2014    9       29    19  26    4.90   564.3    3.3      56.729
2014    9       29    19  31    4.90   564.1    3.3      56.707
2014    9       29    19  36    4.90   564.0    3.3      56.684
2014    9       29    19  41    4.89   563.9    3.3      56.662
2014    9       29    19  47    4.89   563.7    3.3      56.640
2014    9       29    19  52    4.89   563.6    3.3      56.618
2014    9       29    19  57    4.89   563.5    3.3      56.596
2014    9       29    20   3    4.89   563.3    3.3      56.574
2014    9       29    20   8    4.89   563.2    3.3      56.551
2014    9       29    20  13    4.89   563.1    3.3      56.529
2014    9       29    20  18    4.88   562.9    3.3      56.507
2014    9       29    20  24    4.88   562.8    3.3      56.484
2014    9       29    20  29    4.88   562.7    3.3      56.462
2014    9       29    20  34    4.88   562.5    3.3      56.439
2014    9       29    20  40    4.88   562.4    3.3      56.416
2014    9       29    20  45    4.88   562.3    3.3      56.393
2014    9       29    20  50    4.88   562.1    3.4      56.370
2014    9       29    20  55    4.87   562.0    3.4      56.347
2014    9       29    21   1    4.87   561.8    3.4      56.323
2014    9       29    21   6    4.87   561.7    3.4      56.300
2014    9       29    21  11    4.87   561.6    3.4      56.276
2014    9       29    21  17    4.87   561.4    3.4      56.252
2014    9       29    21  22    4.87   561.3    3.4      56.227
2014    9       29    21  27    4.87   561.1    3.4      56.202
2014    9       29    21  32    4.87   561.0    3.4      56.178
2014    9       29    21  38    4.86   560.8    3.4      56.153
2014    9       29    21  43    4.86   560.7    3.4      56.128
2014    9       29    21  48    4.86   560.6    3.4      56.102
2014    9       29    21  54    4.86   560.4    3.4      56.077
2014    9       29    21  59    4.86   560.3    3.4      56.051
2014    9       29    22   4    4.86   560.1    3.4      56.026
2014    9       29    22   9    4.86   560.0    3.4      56.000
2014    9       29    22  15    4.85   559.9    3.4      55.974
2014    9       29    22  20    4.85   559.7    3.4      55.948
2014    9       29    22  25    4.85   559.6    3.4      55.921
2014    9       29    22  31    4.85   559.4    3.4      55.895
2014    9       29    22  36    4.85   559.3    3.4      55.868
2014    9       29    22  41    4.85   559.1    3.4      55.841
2014    9       29    22  47    4.85   559.0    3.4      55.813
2014    9       29    22  52    4.85   558.8    3.4      55.786
2014    9       29    22  57    4.84   558.7    3.4      55.758
2014    9       29    23   2    4.84   558.6    3.4      55.730
2014    9       29    23   8    4.84   558.4    3.4      55.701
2014    9       29    23  13    4.84   558.3    3.4      55.672
2014    9       29    23  18    4.84   558.1    3.4      55.643
2014    9       29    23  24    4.84   558.0    3.4      55.614
2014    9       29    23  29    4.84   557.8    3.4      55.584
2014    9       29    23  34    4.84   557.7    3.4      55.554
2014    9       29    23  39    4.83   557.5    3.4      55.524
2014    9       29    23  45    4.83   557.4    3.4      55.493
2014    9       29    23  50    4.83   557.2    3.4      55.463
2014    9       29    23  55    4.83   557.0    3.4      55.432
2014    9       30     0   1    4.83   556.9    3.4      55.401
