year    month   day   hour  minute  B_enl V_enl   n_enl       T_enl
[year] [month] [day] [hour][minute] [nT]  [km/s]  [cm-3]      [kK]
2014    9       21     0   1    7.57   488.7    7.3      49.577
2014    9       21     0   7    7.57   489.0    7.3      49.628
2014    9       21     0  12    7.57   489.2    7.3      49.679
2014    9       21     0  17    7.58   489.5    7.3      49.728
2014    9       21     0  23    7.58   489.8    7.3      49.778
2014    9       21     0  28    7.58   490.1    7.3      49.826
2014    9       21     0  34    7.58   490.3    7.3      49.873
2014    9       21     0  39    7.58   490.6    7.3      49.919
2014    9       21     0  45    7.58   490.8    7.3      49.964
2014    9       21     0  50    7.58   491.1    7.3      50.009
2014    9       21     0  55    7.58   491.4    7.3      50.053
2014    9       21     1   1    7.59   491.6    7.2      50.098
2014    9       21     1   6    7.59   491.9    7.2      50.144
2014    9       21     1  12    7.59   492.2    7.2      50.192
2014    9       21     1  17    7.59   492.4    7.2      50.242
2014    9       21     1  22    7.59   492.7    7.2      50.294
2014    9       21     1  28    7.59   493.1    7.2      50.347
2014    9       21     1  33    7.59   493.4    7.2      50.404
2014    9       21     1  39    7.59   493.7    7.2      50.463
2014    9       21     1  44    7.60   494.0    7.2      50.521
2014    9       21     1  49    7.60   494.3    7.2      50.579
2014    9       21     1  55    7.60   494.6    7.2      50.637
2014    9       21     2   0    7.60   494.9    7.2      50.696
2014    9       21     2   6    7.60   495.2    7.2      50.754
2014    9       21     2  11    7.60   495.5    7.2      50.812
2014    9       21     2  16    7.60   495.8    7.1      50.873
2014    9       21     2  22    7.60   496.1    7.1      50.935
2014    9       21     2  27    7.60   496.4    7.1      51.001
2014    9       21     2  33    7.60   496.7    7.1      51.072
2014    9       21     2  38    7.61   497.1    7.1      51.146
2014    9       21     2  43    7.61   497.4    7.1      51.222
2014    9       21     2  49    7.61   497.8    7.1      51.304
2014    9       21     2  54    7.61   498.2    7.1      51.391
2014    9       21     3   0    7.61   498.6    7.1      51.481
2014    9       21     3   5    7.61   499.0    7.1      51.574
2014    9       21     3  11    7.62   499.4    7.1      51.668
2014    9       21     3  16    7.62   499.8    7.1      51.764
2014    9       21     3  21    7.62   500.3    7.1      51.858
2014    9       21     3  27    7.62   500.7    7.1      51.948
2014    9       21     3  32    7.62   501.1    7.0      52.034
2014    9       21     3  38    7.62   501.6    7.0      52.117
2014    9       21     3  43    7.62   502.0    7.0      52.196
2014    9       21     3  48    7.62   502.4    7.0      52.272
2014    9       21     3  54    7.62   502.8    7.0      52.344
2014    9       21     3  59    7.62   503.2    7.0      52.415
2014    9       21     4   5    7.62   503.6    7.0      52.483
2014    9       21     4  10    7.62   503.9    7.0      52.550
2014    9       21     4  15    7.62   504.3    7.0      52.617
2014    9       21     4  21    7.62   504.7    7.0      52.682
2014    9       21     4  26    7.62   505.1    7.0      52.746
2014    9       21     4  32    7.62   505.5    6.9      52.810
2014    9       21     4  37    7.62   505.9    6.9      52.873
2014    9       21     4  42    7.62   506.3    6.9      52.935
2014    9       21     4  48    7.62   506.7    6.9      52.996
2014    9       21     4  53    7.61   507.0    6.9      53.056
2014    9       21     4  59    7.61   507.4    6.9      53.116
2014    9       21     5   4    7.61   507.8    6.9      53.175
2014    9       21     5  10    7.61   508.2    6.9      53.233
2014    9       21     5  15    7.61   508.6    6.9      53.293
2014    9       21     5  20    7.61   509.0    6.9      53.352
2014    9       21     5  26    7.61   509.4    6.8      53.412
2014    9       21     5  31    7.61   509.8    6.8      53.473
2014    9       21     5  37    7.61   510.1    6.8      53.533
2014    9       21     5  42    7.60   510.5    6.8      53.595
2014    9       21     5  47    7.60   510.9    6.8      53.658
2014    9       21     5  53    7.60   511.3    6.8      53.722
2014    9       21     5  58    7.60   511.7    6.8      53.785
2014    9       21     6   4    7.60   512.1    6.8      53.848
2014    9       21     6   9    7.60   512.6    6.8      53.910
2014    9       21     6  14    7.60   513.0    6.8      53.970
2014    9       21     6  20    7.59   513.5    6.7      54.026
2014    9       21     6  25    7.59   513.9    6.7      54.077
2014    9       21     6  31    7.59   514.3    6.7      54.123
2014    9       21     6  36    7.59   514.8    6.7      54.164
2014    9       21     6  41    7.58   515.2    6.7      54.201
2014    9       21     6  47    7.58   515.6    6.7      54.233
2014    9       21     6  52    7.58   516.0    6.7      54.261
2014    9       21     6  58    7.57   516.4    6.6      54.284
2014    9       21     7   3    7.57   516.9    6.6      54.305
2014    9       21     7   8    7.57   517.3    6.6      54.324
2014    9       21     7  14    7.56   517.7    6.6      54.341
2014    9       21     7  19    7.56   518.1    6.6      54.357
2014    9       21     7  25    7.56   518.5    6.6      54.371
2014    9       21     7  30    7.55   518.9    6.5      54.384
2014    9       21     7  36    7.55   519.3    6.5      54.395
2014    9       21     7  41    7.54   519.7    6.5      54.404
2014    9       21     7  46    7.54   520.1    6.5      54.409
2014    9       21     7  52    7.54   520.4    6.5      54.413
2014    9       21     7  57    7.53   520.8    6.4      54.414
2014    9       21     8   3    7.53   521.2    6.4      54.414
2014    9       21     8   8    7.52   521.5    6.4      54.410
2014    9       21     8  13    7.52   521.8    6.4      54.404
2014    9       21     8  19    7.51   522.2    6.4      54.395
2014    9       21     8  24    7.51   522.5    6.3      54.384
2014    9       21     8  30    7.51   522.8    6.3      54.373
2014    9       21     8  35    7.50   523.1    6.3      54.360
2014    9       21     8  40    7.50   523.4    6.3      54.347
2014    9       21     8  46    7.49   523.7    6.3      54.340
2014    9       21     8  51    7.49   524.0    6.3      54.337
2014    9       21     8  57    7.48   524.3    6.2      54.335
2014    9       21     9   2    7.48   524.6    6.2      54.335
2014    9       21     9   7    7.48   524.9    6.2      54.337
2014    9       21     9  13    7.47   525.1    6.2      54.340
2014    9       21     9  18    7.47   525.4    6.2      54.344
2014    9       21     9  24    7.46   525.6    6.2      54.348
2014    9       21     9  29    7.46   525.8    6.2      54.355
2014    9       21     9  34    7.46   526.1    6.1      54.365
2014    9       21     9  40    7.45   526.3    6.1      54.381
2014    9       21     9  45    7.45   526.6    6.1      54.403
2014    9       21     9  51    7.45   526.8    6.1      54.430
2014    9       21     9  56    7.45   527.1    6.1      54.461
2014    9       21    10   2    7.44   527.4    6.1      54.499
2014    9       21    10   7    7.44   527.7    6.1      54.544
2014    9       21    10  12    7.44   528.1    6.1      54.595
2014    9       21    10  18    7.44   528.4    6.1      54.652
2014    9       21    10  23    7.43   528.8    6.1      54.712
2014    9       21    10  29    7.43   529.2    6.1      54.776
2014    9       21    10  34    7.43   529.7    6.0      54.840
2014    9       21    10  39    7.42   530.1    6.0      54.900
2014    9       21    10  45    7.42   530.5    6.0      54.955
2014    9       21    10  50    7.42   530.9    6.0      55.003
2014    9       21    10  56    7.41   531.3    6.0      55.044
2014    9       21    11   1    7.41   531.7    6.0      55.080
2014    9       21    11   6    7.40   532.1    6.0      55.111
2014    9       21    11  12    7.40   532.4    6.0      55.136
2014    9       21    11  17    7.39   532.8    6.0      55.157
2014    9       21    11  23    7.39   533.1    5.9      55.174
2014    9       21    11  28    7.38   533.4    5.9      55.189
2014    9       21    11  33    7.38   533.7    5.9      55.202
2014    9       21    11  39    7.37   534.1    5.9      55.213
2014    9       21    11  44    7.37   534.4    5.9      55.223
2014    9       21    11  50    7.36   534.7    5.9      55.233
2014    9       21    11  55    7.35   535.1    5.9      55.242
2014    9       21    12   0    7.35   535.4    5.8      55.251
2014    9       21    12   6    7.34   535.7    5.8      55.259
2014    9       21    12  11    7.34   536.0    5.8      55.267
2014    9       21    12  17    7.33   536.4    5.8      55.274
2014    9       21    12  22    7.32   536.7    5.8      55.281
2014    9       21    12  28    7.32   537.1    5.8      55.285
2014    9       21    12  33    7.31   537.4    5.8      55.288
2014    9       21    12  38    7.31   537.8    5.7      55.289
2014    9       21    12  44    7.30   538.1    5.7      55.288
2014    9       21    12  49    7.29   538.4    5.7      55.285
2014    9       21    12  55    7.29   538.7    5.7      55.279
2014    9       21    13   0    7.28   539.0    5.7      55.271
2014    9       21    13   5    7.27   539.3    5.7      55.263
2014    9       21    13  11    7.27   539.6    5.7      55.254
2014    9       21    13  16    7.26   539.9    5.6      55.244
2014    9       21    13  22    7.25   540.2    5.6      55.232
2014    9       21    13  27    7.25   540.5    5.6      55.220
2014    9       21    13  32    7.24   540.8    5.6      55.206
2014    9       21    13  38    7.23   541.0    5.6      55.190
2014    9       21    13  43    7.23   541.3    5.6      55.172
2014    9       21    13  49    7.22   541.6    5.6      55.151
2014    9       21    13  54    7.21   541.9    5.5      55.129
2014    9       21    13  59    7.21   542.1    5.5      55.104
2014    9       21    14   5    7.20   542.4    5.5      55.078
2014    9       21    14  10    7.20   542.6    5.5      55.051
2014    9       21    14  16    7.19   542.9    5.5      55.024
2014    9       21    14  21    7.18   543.2    5.5      54.999
2014    9       21    14  26    7.18   543.5    5.5      54.973
2014    9       21    14  32    7.17   543.8    5.4      54.948
2014    9       21    14  37    7.16   544.1    5.4      54.925
2014    9       21    14  43    7.16   544.4    5.4      54.902
2014    9       21    14  48    7.15   544.7    5.4      54.879
2014    9       21    14  54    7.14   545.0    5.4      54.855
2014    9       21    14  59    7.14   545.3    5.4      54.829
2014    9       21    15   4    7.13   545.6    5.4      54.801
2014    9       21    15  10    7.12   545.9    5.4      54.772
2014    9       21    15  15    7.12   546.2    5.3      54.739
2014    9       21    15  21    7.11   546.4    5.3      54.701
2014    9       21    15  26    7.10   546.7    5.3      54.657
2014    9       21    15  31    7.10   547.0    5.3      54.610
2014    9       21    15  37    7.09   547.2    5.3      54.559
2014    9       21    15  42    7.08   547.4    5.3      54.505
2014    9       21    15  48    7.07   547.6    5.3      54.447
2014    9       21    15  53    7.07   547.7    5.2      54.389
2014    9       21    15  58    7.06   547.9    5.2      54.335
2014    9       21    16   4    7.05   548.0    5.2      54.283
2014    9       21    16   9    7.05   548.2    5.2      54.233
2014    9       21    16  15    7.04   548.3    5.2      54.185
2014    9       21    16  20    7.03   548.4    5.2      54.140
2014    9       21    16  25    7.03   548.6    5.2      54.099
2014    9       21    16  31    7.02   548.7    5.2      54.060
2014    9       21    16  36    7.02   548.8    5.2      54.023
2014    9       21    16  42    7.01   548.9    5.2      53.988
2014    9       21    16  47    7.00   549.0    5.1      53.954
2014    9       21    16  52    7.00   549.1    5.1      53.923
2014    9       21    16  58    6.99   549.2    5.1      53.895
2014    9       21    17   3    6.99   549.3    5.1      53.870
2014    9       21    17   9    6.98   549.4    5.1      53.846
2014    9       21    17  14    6.98   549.5    5.1      53.825
2014    9       21    17  20    6.97   549.7    5.1      53.806
2014    9       21    17  25    6.97   549.8    5.1      53.790
2014    9       21    17  30    6.96   549.9    5.1      53.777
2014    9       21    17  36    6.96   550.1    5.1      53.765
2014    9       21    17  41    6.95   550.3    5.1      53.754
2014    9       21    17  47    6.95   550.4    5.1      53.742
2014    9       21    17  52    6.94   550.6    5.1      53.730
2014    9       21    17  57    6.93   550.8    5.1      53.716
2014    9       21    18   3    6.93   550.9    5.1      53.699
2014    9       21    18   8    6.92   551.1    5.0      53.678
2014    9       21    18  14    6.92   551.2    5.0      53.655
2014    9       21    18  19    6.91   551.4    5.0      53.629
2014    9       21    18  24    6.90   551.5    5.0      53.600
2014    9       21    18  30    6.90   551.6    5.0      53.569
2014    9       21    18  35    6.89   551.8    5.0      53.536
2014    9       21    18  41    6.89   551.9    5.0      53.502
2014    9       21    18  46    6.88   552.0    5.0      53.467
2014    9       21    18  51    6.87   552.1    5.0      53.431
2014    9       21    18  57    6.87   552.3    5.0      53.394
2014    9       21    19   2    6.86   552.4    5.0      53.357
2014    9       21    19   8    6.86   552.5    4.9      53.320
2014    9       21    19  13    6.85   552.6    4.9      53.283
2014    9       21    19  19    6.84   552.8    4.9      53.245
2014    9       21    19  24    6.84   552.9    4.9      53.208
2014    9       21    19  29    6.83   553.0    4.9      53.170
2014    9       21    19  35    6.82   553.2    4.9      53.133
2014    9       21    19  40    6.82   553.3    4.9      53.093
2014    9       21    19  46    6.81   553.4    4.9      53.051
2014    9       21    19  51    6.81   553.5    4.9      53.006
2014    9       21    19  56    6.80   553.7    4.9      52.961
2014    9       21    20   2    6.79   553.8    4.9      52.913
2014    9       21    20   7    6.79   553.8    4.8      52.863
2014    9       21    20  13    6.78   553.9    4.8      52.810
2014    9       21    20  18    6.77   553.9    4.8      52.759
2014    9       21    20  23    6.77   554.0    4.8      52.709
2014    9       21    20  29    6.76   554.1    4.8      52.660
2014    9       21    20  34    6.76   554.1    4.8      52.611
2014    9       21    20  40    6.75   554.2    4.8      52.563
2014    9       21    20  45    6.75   554.2    4.8      52.515
2014    9       21    20  50    6.74   554.3    4.8      52.468
2014    9       21    20  56    6.73   554.3    4.8      52.422
2014    9       21    21   1    6.73   554.3    4.8      52.377
2014    9       21    21   7    6.72   554.4    4.8      52.332
2014    9       21    21  12    6.72   554.4    4.7      52.288
2014    9       21    21  17    6.71   554.5    4.7      52.244
2014    9       21    21  23    6.71   554.5    4.7      52.201
2014    9       21    21  28    6.70   554.5    4.7      52.158
2014    9       21    21  34    6.70   554.6    4.7      52.117
2014    9       21    21  39    6.69   554.6    4.7      52.076
2014    9       21    21  45    6.69   554.7    4.7      52.036
2014    9       21    21  50    6.68   554.8    4.7      51.997
2014    9       21    21  55    6.68   554.8    4.7      51.959
2014    9       21    22   1    6.67   554.9    4.7      51.922
2014    9       21    22   6    6.67   554.9    4.7      51.885
2014    9       21    22  12    6.66   555.0    4.7      51.849
2014    9       21    22  17    6.66   555.1    4.7      51.813
2014    9       21    22  22    6.65   555.1    4.7      51.778
2014    9       21    22  28    6.65   555.2    4.7      51.741
2014    9       21    22  33    6.64   555.2    4.7      51.704
2014    9       21    22  39    6.64   555.3    4.7      51.667
2014    9       21    22  44    6.63   555.3    4.7      51.631
2014    9       21    22  49    6.63   555.4    4.7      51.595
2014    9       21    22  55    6.62   555.4    4.7      51.560
2014    9       21    23   0    6.62   555.5    4.7      51.525
2014    9       21    23   6    6.62   555.5    4.6      51.492
2014    9       21    23  11    6.61   555.5    4.6      51.459
2014    9       21    23  16    6.61   555.5    4.6      51.426
2014    9       21    23  22    6.60   555.6    4.6      51.393
2014    9       21    23  27    6.60   555.6    4.6      51.362
2014    9       21    23  33    6.59   555.6    4.6      51.332
2014    9       21    23  38    6.59   555.6    4.6      51.304
2014    9       21    23  43    6.59   555.6    4.6      51.278
2014    9       21    23  49    6.58   555.6    4.6      51.252
2014    9       21    23  54    6.58   555.7    4.6      51.229
2014    9       22     0   0    6.57   555.7    4.6      51.205
2014    9       22     0   5    6.57   555.7    4.6      51.184
2014    9       22     0  11    6.57   555.7    4.6      51.164
2014    9       22     0  16    6.56   555.7    4.6      51.146
2014    9       22     0  21    6.56   555.8    4.6      51.129
2014    9       22     0  27    6.56   555.8    4.6      51.113
2014    9       22     0  32    6.55   555.8    4.6      51.097
2014    9       22     0  38    6.55   555.8    4.6      51.082
2014    9       22     0  43    6.55   555.9    4.6      51.068
2014    9       22     0  48    6.54   555.9    4.6      51.052
2014    9       22     0  54    6.54   555.9    4.6      51.034
2014    9       22     0  59    6.53   555.9    4.6      51.016
2014    9       22     1   5    6.53   556.0    4.6      50.996
2014    9       22     1  10    6.53   556.0    4.6      50.976
2014    9       22     1  15    6.52   556.0    4.6      50.954
2014    9       22     1  21    6.52   556.0    4.6      50.932
2014    9       22     1  26    6.52   556.1    4.6      50.908
2014    9       22     1  32    6.51   556.1    4.6      50.885
2014    9       22     1  37    6.51   556.1    4.6      50.860
2014    9       22     1  42    6.51   556.1    4.6      50.835
2014    9       22     1  48    6.50   556.1    4.6      50.809
2014    9       22     1  53    6.50   556.1    4.6      50.784
2014    9       22     1  59    6.50   556.1    4.6      50.757
2014    9       22     2   4    6.49   556.1    4.6      50.731
2014    9       22     2  10    6.49   556.2    4.6      50.704
2014    9       22     2  15    6.48   556.2    4.6      50.676
2014    9       22     2  20    6.48   556.2    4.6      50.649
2014    9       22     2  26    6.48   556.2    4.6      50.621
2014    9       22     2  31    6.47   556.2    4.6      50.593
2014    9       22     2  37    6.47   556.2    4.6      50.565
2014    9       22     2  42    6.47   556.2    4.6      50.536
2014    9       22     2  47    6.46   556.2    4.6      50.508
2014    9       22     2  53    6.46   556.2    4.6      50.479
2014    9       22     2  58    6.46   556.2    4.6      50.450
2014    9       22     3   4    6.45   556.2    4.5      50.421
2014    9       22     3   9    6.45   556.2    4.5      50.392
2014    9       22     3  14    6.45   556.2    4.5      50.362
2014    9       22     3  20    6.44   556.2    4.5      50.333
2014    9       22     3  25    6.44   556.2    4.5      50.303
2014    9       22     3  31    6.44   556.2    4.5      50.274
2014    9       22     3  36    6.43   556.2    4.5      50.244
2014    9       22     3  41    6.43   556.2    4.5      50.215
2014    9       22     3  47    6.43   556.2    4.5      50.185
2014    9       22     3  52    6.43   556.2    4.5      50.156
2014    9       22     3  58    6.42   556.2    4.5      50.126
2014    9       22     4   3    6.42   556.2    4.5      50.097
2014    9       22     4   8    6.42   556.2    4.5      50.068
2014    9       22     4  14    6.41   556.2    4.5      50.038
2014    9       22     4  19    6.41   556.2    4.5      50.009
2014    9       22     4  25    6.41   556.2    4.5      49.981
2014    9       22     4  30    6.40   556.2    4.5      49.952
2014    9       22     4  36    6.40   556.1    4.5      49.924
2014    9       22     4  41    6.40   556.1    4.5      49.895
2014    9       22     4  46    6.40   556.1    4.5      49.868
2014    9       22     4  52    6.39   556.1    4.5      49.840
2014    9       22     4  57    6.39   556.1    4.5      49.813
2014    9       22     5   3    6.39   556.1    4.5      49.786
2014    9       22     5   8    6.38   556.1    4.5      49.760
2014    9       22     5  13    6.38   556.1    4.5      49.734
2014    9       22     5  19    6.38   556.1    4.5      49.709
2014    9       22     5  24    6.38   556.1    4.5      49.684
2014    9       22     5  30    6.37   556.0    4.5      49.659
2014    9       22     5  35    6.37   556.0    4.5      49.635
2014    9       22     5  40    6.37   556.0    4.4      49.611
2014    9       22     5  46    6.37   556.0    4.4      49.588
2014    9       22     5  51    6.36   556.0    4.4      49.565
2014    9       22     5  57    6.36   556.0    4.4      49.543
2014    9       22     6   2    6.36   556.0    4.4      49.521
2014    9       22     6   7    6.36   556.0    4.4      49.499
2014    9       22     6  13    6.35   556.0    4.4      49.478
2014    9       22     6  18    6.35   555.9    4.4      49.458
2014    9       22     6  24    6.35   555.9    4.4      49.437
2014    9       22     6  29    6.35   555.9    4.4      49.417
2014    9       22     6  34    6.35   555.9    4.4      49.397
2014    9       22     6  40    6.34   555.9    4.4      49.378
2014    9       22     6  45    6.34   555.9    4.4      49.359
2014    9       22     6  51    6.34   555.9    4.4      49.340
2014    9       22     6  56    6.34   555.9    4.4      49.321
2014    9       22     7   1    6.33   555.8    4.4      49.303
2014    9       22     7   7    6.33   555.8    4.4      49.285
2014    9       22     7  12    6.33   555.8    4.4      49.266
2014    9       22     7  18    6.33   555.8    4.4      49.248
2014    9       22     7  23    6.33   555.8    4.4      49.231
2014    9       22     7  29    6.32   555.8    4.4      49.213
2014    9       22     7  34    6.32   555.8    4.4      49.195
2014    9       22     7  39    6.32   555.7    4.4      49.178
2014    9       22     7  45    6.32   555.7    4.4      49.160
2014    9       22     7  50    6.32   555.7    4.4      49.143
2014    9       22     7  56    6.32   555.7    4.4      49.126
2014    9       22     8   1    6.31   555.7    4.4      49.109
2014    9       22     8   6    6.31   555.7    4.4      49.092
2014    9       22     8  12    6.31   555.6    4.4      49.075
2014    9       22     8  17    6.31   555.6    4.4      49.059
2014    9       22     8  23    6.31   555.6    4.4      49.042
2014    9       22     8  28    6.30   555.6    4.4      49.026
2014    9       22     8  33    6.30   555.6    4.4      49.010
2014    9       22     8  39    6.30   555.6    4.4      48.995
2014    9       22     8  44    6.30   555.5    4.4      48.979
2014    9       22     8  50    6.30   555.5    4.4      48.964
2014    9       22     8  55    6.30   555.5    4.4      48.949
2014    9       22     9   0    6.29   555.5    4.4      48.934
2014    9       22     9   6    6.29   555.5    4.4      48.920
2014    9       22     9  11    6.29   555.4    4.4      48.906
2014    9       22     9  17    6.29   555.4    4.4      48.892
2014    9       22     9  22    6.29   555.4    4.4      48.878
2014    9       22     9  28    6.28   555.4    4.4      48.865
2014    9       22     9  33    6.28   555.4    4.4      48.852
2014    9       22     9  38    6.28   555.4    4.4      48.840
2014    9       22     9  44    6.28   555.3    4.4      48.828
2014    9       22     9  49    6.28   555.3    4.4      48.817
2014    9       22     9  55    6.28   555.3    4.4      48.806
2014    9       22    10   0    6.27   555.3    4.4      48.795
2014    9       22    10   5    6.27   555.3    4.4      48.784
2014    9       22    10  11    6.27   555.2    4.4      48.775
2014    9       22    10  16    6.27   555.2    4.4      48.766
2014    9       22    10  22    6.27   555.2    4.4      48.757
2014    9       22    10  27    6.27   555.2    4.4      48.749
2014    9       22    10  32    6.26   555.1    4.4      48.740
2014    9       22    10  38    6.26   555.1    4.4      48.732
2014    9       22    10  43    6.26   555.1    4.4      48.722
2014    9       22    10  49    6.26   555.1    4.4      48.713
2014    9       22    10  54    6.26   555.0    4.4      48.703
2014    9       22    10  59    6.26   555.0    4.4      48.693
2014    9       22    11   5    6.26   555.0    4.4      48.682
2014    9       22    11  10    6.25   555.0    4.4      48.671
2014    9       22    11  16    6.25   554.9    4.4      48.659
2014    9       22    11  21    6.25   554.9    4.4      48.647
2014    9       22    11  26    6.25   554.9    4.4      48.635
2014    9       22    11  32    6.25   554.9    4.4      48.623
2014    9       22    11  37    6.25   554.8    4.4      48.610
2014    9       22    11  43    6.24   554.8    4.4      48.597
2014    9       22    11  48    6.24   554.8    4.4      48.583
2014    9       22    11  54    6.24   554.7    4.4      48.569
2014    9       22    11  59    6.24   554.7    4.4      48.555
2014    9       22    12   4    6.24   554.7    4.4      48.541
2014    9       22    12  10    6.24   554.7    4.4      48.526
2014    9       22    12  15    6.24   554.6    4.4      48.511
2014    9       22    12  21    6.23   554.6    4.4      48.496
2014    9       22    12  26    6.23   554.6    4.4      48.481
2014    9       22    12  31    6.23   554.5    4.4      48.466
2014    9       22    12  37    6.23   554.5    4.4      48.450
2014    9       22    12  42    6.23   554.5    4.4      48.434
2014    9       22    12  48    6.23   554.4    4.4      48.418
2014    9       22    12  53    6.23   554.4    4.4      48.402
2014    9       22    12  58    6.23   554.4    4.4      48.385
2014    9       22    13   4    6.23   554.4    4.4      48.368
2014    9       22    13   9    6.22   554.3    4.4      48.352
2014    9       22    13  15    6.22   554.3    4.4      48.335
2014    9       22    13  20    6.22   554.3    4.4      48.317
2014    9       22    13  25    6.22   554.2    4.4      48.300
2014    9       22    13  31    6.22   554.2    4.4      48.283
2014    9       22    13  36    6.22   554.2    4.4      48.265
2014    9       22    13  42    6.22   554.1    4.4      48.247
2014    9       22    13  47    6.22   554.1    4.4      48.229
2014    9       22    13  52    6.22   554.1    4.4      48.211
2014    9       22    13  58    6.21   554.0    4.4      48.193
2014    9       22    14   3    6.21   554.0    4.4      48.175
2014    9       22    14   9    6.21   554.0    4.4      48.157
2014    9       22    14  14    6.21   554.0    4.4      48.138
2014    9       22    14  20    6.21   553.9    4.3      48.120
2014    9       22    14  25    6.21   553.9    4.3      48.102
2014    9       22    14  30    6.21   553.9    4.3      48.083
2014    9       22    14  36    6.21   553.8    4.3      48.065
2014    9       22    14  41    6.21   553.8    4.3      48.047
2014    9       22    14  47    6.21   553.8    4.3      48.029
2014    9       22    14  52    6.21   553.7    4.3      48.011
2014    9       22    14  57    6.21   553.7    4.3      47.994
2014    9       22    15   3    6.21   553.7    4.3      47.977
2014    9       22    15   8    6.20   553.6    4.3      47.960
2014    9       22    15  14    6.20   553.6    4.3      47.943
2014    9       22    15  19    6.20   553.6    4.3      47.927
2014    9       22    15  24    6.20   553.6    4.3      47.911
2014    9       22    15  30    6.20   553.5    4.3      47.896
2014    9       22    15  35    6.20   553.5    4.3      47.882
2014    9       22    15  41    6.20   553.5    4.3      47.868
2014    9       22    15  46    6.20   553.4    4.3      47.855
2014    9       22    15  51    6.20   553.4    4.3      47.842
2014    9       22    15  57    6.20   553.4    4.3      47.830
2014    9       22    16   2    6.20   553.4    4.3      47.819
2014    9       22    16   8    6.20   553.3    4.3      47.808
2014    9       22    16  13    6.20   553.3    4.3      47.799
2014    9       22    16  18    6.19   553.3    4.3      47.790
2014    9       22    16  24    6.19   553.3    4.3      47.782
2014    9       22    16  29    6.19   553.2    4.3      47.774
2014    9       22    16  35    6.19   553.2    4.3      47.768
2014    9       22    16  40    6.19   553.2    4.3      47.762
2014    9       22    16  46    6.19   553.2    4.3      47.757
2014    9       22    16  51    6.19   553.1    4.3      47.753
2014    9       22    16  56    6.19   553.1    4.3      47.749
2014    9       22    17   2    6.19   553.1    4.3      47.747
2014    9       22    17   7    6.19   553.1    4.3      47.745
2014    9       22    17  13    6.19   553.1    4.3      47.744
2014    9       22    17  18    6.19   553.0    4.3      47.743
2014    9       22    17  23    6.19   553.0    4.3      47.743
2014    9       22    17  29    6.19   553.0    4.3      47.745
2014    9       22    17  34    6.18   553.0    4.3      47.747
2014    9       22    17  40    6.18   552.9    4.4      47.750
2014    9       22    17  45    6.18   552.9    4.4      47.753
2014    9       22    17  50    6.18   552.9    4.4      47.757
2014    9       22    17  56    6.18   552.9    4.4      47.760
2014    9       22    18   1    6.18   552.9    4.4      47.763
2014    9       22    18   7    6.18   552.8    4.4      47.766
2014    9       22    18  12    6.18   552.8    4.4      47.768
2014    9       22    18  17    6.18   552.8    4.4      47.770
2014    9       22    18  23    6.18   552.7    4.4      47.772
2014    9       22    18  28    6.18   552.7    4.4      47.774
2014    9       22    18  34    6.18   552.7    4.4      47.775
2014    9       22    18  39    6.18   552.7    4.4      47.776
2014    9       22    18  44    6.18   552.6    4.4      47.776
2014    9       22    18  50    6.17   552.6    4.4      47.776
2014    9       22    18  55    6.17   552.6    4.4      47.776
2014    9       22    19   1    6.17   552.6    4.4      47.775
2014    9       22    19   6    6.17   552.5    4.4      47.773
2014    9       22    19  11    6.17   552.5    4.4      47.771
2014    9       22    19  17    6.17   552.5    4.4      47.769
2014    9       22    19  22    6.17   552.4    4.4      47.766
2014    9       22    19  28    6.17   552.4    4.4      47.763
2014    9       22    19  33    6.17   552.4    4.4      47.759
2014    9       22    19  39    6.17   552.4    4.4      47.755
2014    9       22    19  44    6.17   552.3    4.4      47.751
2014    9       22    19  49    6.17   552.3    4.4      47.746
2014    9       22    19  55    6.17   552.3    4.4      47.741
2014    9       22    20   0    6.17   552.2    4.4      47.735
2014    9       22    20   6    6.17   552.2    4.4      47.729
2014    9       22    20  11    6.17   552.2    4.4      47.722
2014    9       22    20  16    6.17   552.2    4.4      47.716
2014    9       22    20  22    6.17   552.1    4.4      47.709
2014    9       22    20  27    6.17   552.1    4.4      47.701
2014    9       22    20  33    6.17   552.1    4.4      47.694
2014    9       22    20  38    6.17   552.1    4.4      47.685
2014    9       22    20  43    6.17   552.0    4.4      47.677
2014    9       22    20  49    6.17   552.0    4.4      47.669
2014    9       22    20  54    6.16   552.0    4.4      47.660
2014    9       22    21   0    6.16   552.0    4.4      47.651
2014    9       22    21   5    6.16   551.9    4.4      47.641
2014    9       22    21  10    6.16   551.9    4.4      47.632
2014    9       22    21  16    6.16   551.9    4.4      47.622
2014    9       22    21  21    6.16   551.8    4.4      47.613
2014    9       22    21  27    6.16   551.8    4.4      47.603
2014    9       22    21  32    6.16   551.8    4.4      47.593
2014    9       22    21  37    6.16   551.8    4.4      47.583
2014    9       22    21  43    6.16   551.7    4.4      47.573
2014    9       22    21  48    6.16   551.7    4.3      47.563
2014    9       22    21  54    6.16   551.7    4.3      47.553
2014    9       22    21  59    6.16   551.7    4.3      47.543
2014    9       22    22   4    6.16   551.6    4.3      47.533
2014    9       22    22  10    6.16   551.6    4.3      47.523
2014    9       22    22  15    6.16   551.6    4.3      47.514
2014    9       22    22  21    6.16   551.6    4.3      47.504
2014    9       22    22  26    6.16   551.5    4.3      47.495
2014    9       22    22  32    6.16   551.5    4.3      47.486
2014    9       22    22  37    6.16   551.5    4.3      47.477
2014    9       22    22  42    6.16   551.5    4.3      47.468
2014    9       22    22  48    6.16   551.5    4.3      47.460
2014    9       22    22  53    6.16   551.4    4.3      47.452
2014    9       22    22  59    6.16   551.4    4.3      47.444
2014    9       22    23   4    6.16   551.4    4.3      47.436
2014    9       22    23   9    6.16   551.4    4.3      47.429
2014    9       22    23  15    6.16   551.3    4.3      47.422
2014    9       22    23  20    6.16   551.3    4.3      47.416
2014    9       22    23  26    6.16   551.3    4.3      47.409
2014    9       22    23  31    6.16   551.3    4.3      47.404
2014    9       22    23  36    6.16   551.2    4.3      47.398
2014    9       22    23  42    6.16   551.2    4.3      47.393
2014    9       22    23  47    6.16   551.2    4.3      47.388
2014    9       22    23  53    6.16   551.2    4.3      47.383
2014    9       22    23  58    6.16   551.2    4.3      47.379
2014    9       23     0   3    6.16   551.1    4.3      47.375
2014    9       23     0   9    6.16   551.1    4.3      47.371
2014    9       23     0  14    6.16   551.1    4.3      47.368
2014    9       23     0  20    6.16   551.1    4.3      47.365
2014    9       23     0  25    6.16   551.0    4.3      47.363
2014    9       23     0  31    6.15   551.0    4.3      47.360
2014    9       23     0  36    6.15   551.0    4.3      47.358
2014    9       23     0  41    6.15   551.0    4.3      47.357
2014    9       23     0  47    6.15   551.0    4.3      47.355
2014    9       23     0  52    6.15   550.9    4.3      47.354
2014    9       23     0  58    6.15   550.9    4.3      47.353
2014    9       23     1   3    6.15   550.9    4.3      47.352
2014    9       23     1   8    6.15   550.9    4.3      47.352
2014    9       23     1  14    6.15   550.9    4.3      47.352
2014    9       23     1  19    6.15   550.8    4.3      47.352
2014    9       23     1  25    6.15   550.8    4.3      47.352
2014    9       23     1  30    6.15   550.8    4.3      47.352
2014    9       23     1  35    6.15   550.8    4.3      47.352
2014    9       23     1  41    6.15   550.8    4.3      47.353
2014    9       23     1  46    6.15   550.7    4.3      47.353
2014    9       23     1  52    6.15   550.7    4.3      47.354
2014    9       23     1  57    6.15   550.7    4.3      47.355
2014    9       23     2   2    6.15   550.7    4.3      47.355
2014    9       23     2   8    6.15   550.7    4.3      47.356
2014    9       23     2  13    6.15   550.6    4.4      47.356
2014    9       23     2  19    6.15   550.6    4.4      47.356
2014    9       23     2  24    6.15   550.6    4.4      47.355
2014    9       23     2  30    6.15   550.6    4.4      47.355
2014    9       23     2  35    6.15   550.5    4.4      47.354
2014    9       23     2  40    6.15   550.5    4.4      47.352
2014    9       23     2  46    6.15   550.5    4.4      47.351
2014    9       23     2  51    6.15   550.5    4.4      47.349
2014    9       23     2  57    6.15   550.5    4.4      47.347
2014    9       23     3   2    6.15   550.4    4.4      47.344
2014    9       23     3   7    6.15   550.4    4.4      47.342
2014    9       23     3  13    6.15   550.4    4.4      47.339
2014    9       23     3  18    6.15   550.4    4.4      47.336
2014    9       23     3  24    6.15   550.3    4.4      47.333
2014    9       23     3  29    6.15   550.3    4.4      47.330
2014    9       23     3  34    6.15   550.3    4.4      47.327
2014    9       23     3  40    6.15   550.3    4.4      47.324
2014    9       23     3  45    6.15   550.2    4.4      47.320
2014    9       23     3  51    6.15   550.2    4.4      47.317
2014    9       23     3  56    6.15   550.2    4.4      47.313
2014    9       23     4   2    6.15   550.2    4.4      47.310
2014    9       23     4   7    6.15   550.1    4.4      47.306
2014    9       23     4  12    6.15   550.1    4.4      47.303
2014    9       23     4  18    6.15   550.1    4.4      47.300
2014    9       23     4  23    6.15   550.1    4.4      47.297
2014    9       23     4  29    6.15   550.0    4.4      47.294
2014    9       23     4  34    6.15   550.0    4.4      47.291
2014    9       23     4  39    6.15   550.0    4.4      47.289
2014    9       23     4  45    6.15   550.0    4.4      47.287
2014    9       23     4  50    6.15   549.9    4.4      47.286
2014    9       23     4  56    6.15   549.9    4.4      47.285
2014    9       23     5   1    6.15   549.9    4.4      47.284
2014    9       23     5   6    6.15   549.9    4.4      47.284
2014    9       23     5  12    6.15   549.8    4.4      47.285
2014    9       23     5  17    6.15   549.8    4.4      47.288
2014    9       23     5  23    6.15   549.8    4.4      47.291
2014    9       23     5  28    6.15   549.8    4.4      47.295
2014    9       23     5  34    6.16   549.8    4.4      47.300
2014    9       23     5  39    6.16   549.7    4.4      47.305
2014    9       23     5  44    6.16   549.7    4.4      47.313
2014    9       23     5  50    6.16   549.7    4.4      47.321
2014    9       23     5  55    6.16   549.7    4.4      47.330
2014    9       23     6   1    6.16   549.7    4.4      47.340
2014    9       23     6   6    6.16   549.7    4.4      47.352
2014    9       23     6  11    6.16   549.7    4.4      47.364
2014    9       23     6  17    6.16   549.6    4.4      47.374
2014    9       23     6  22    6.16   549.6    4.4      47.385
2014    9       23     6  28    6.16   549.6    4.4      47.395
2014    9       23     6  33    6.16   549.6    4.4      47.404
2014    9       23     6  38    6.16   549.6    4.4      47.413
2014    9       23     6  44    6.16   549.6    4.4      47.421
2014    9       23     6  49    6.16   549.6    4.4      47.428
2014    9       23     6  55    6.16   549.6    4.4      47.435
2014    9       23     7   0    6.16   549.6    4.4      47.442
2014    9       23     7   6    6.16   549.6    4.4      47.448
2014    9       23     7  11    6.16   549.6    4.4      47.454
2014    9       23     7  16    6.16   549.6    4.4      47.459
2014    9       23     7  22    6.16   549.6    4.4      47.464
2014    9       23     7  27    6.16   549.6    4.4      47.468
2014    9       23     7  33    6.16   549.6    4.4      47.471
2014    9       23     7  38    6.16   549.6    4.4      47.474
2014    9       23     7  43    6.16   549.5    4.4      47.476
2014    9       23     7  49    6.16   549.5    4.4      47.477
2014    9       23     7  54    6.16   549.5    4.4      47.478
2014    9       23     8   0    6.16   549.5    4.4      47.479
2014    9       23     8   5    6.16   549.5    4.4      47.479
2014    9       23     8  10    6.16   549.5    4.4      47.479
2014    9       23     8  16    6.16   549.5    4.4      47.478
2014    9       23     8  21    6.16   549.5    4.4      47.477
2014    9       23     8  27    6.16   549.5    4.4      47.475
2014    9       23     8  32    6.16   549.5    4.4      47.473
2014    9       23     8  38    6.16   549.5    4.4      47.471
2014    9       23     8  43    6.17   549.5    4.4      47.468
2014    9       23     8  48    6.17   549.5    4.4      47.465
2014    9       23     8  54    6.17   549.5    4.4      47.462
2014    9       23     8  59    6.17   549.5    4.4      47.458
2014    9       23     9   5    6.17   549.5    4.4      47.455
2014    9       23     9  10    6.17   549.5    4.4      47.451
2014    9       23     9  15    6.17   549.5    4.4      47.447
2014    9       23     9  21    6.17   549.4    4.4      47.443
2014    9       23     9  26    6.17   549.4    4.4      47.439
2014    9       23     9  32    6.17   549.4    4.4      47.435
2014    9       23     9  37    6.17   549.4    4.4      47.430
2014    9       23     9  42    6.17   549.4    4.4      47.426
2014    9       23     9  48    6.17   549.4    4.4      47.421
2014    9       23     9  53    6.17   549.4    4.4      47.417
2014    9       23     9  59    6.17   549.4    4.4      47.412
2014    9       23    10   4    6.17   549.4    4.4      47.407
2014    9       23    10  10    6.17   549.4    4.4      47.403
2014    9       23    10  15    6.17   549.4    4.4      47.397
2014    9       23    10  20    6.17   549.4    4.4      47.392
2014    9       23    10  26    6.17   549.4    4.4      47.387
2014    9       23    10  31    6.17   549.4    4.4      47.381
2014    9       23    10  37    6.17   549.3    4.4      47.376
2014    9       23    10  42    6.17   549.3    4.4      47.370
2014    9       23    10  47    6.17   549.3    4.4      47.365
2014    9       23    10  53    6.17   549.3    4.4      47.360
2014    9       23    10  58    6.17   549.3    4.4      47.355
2014    9       23    11   4    6.17   549.3    4.4      47.350
2014    9       23    11   9    6.17   549.3    4.4      47.345
2014    9       23    11  14    6.17   549.3    4.4      47.341
2014    9       23    11  20    6.18   549.2    4.4      47.337
2014    9       23    11  25    6.18   549.2    4.4      47.334
2014    9       23    11  31    6.18   549.2    4.4      47.331
2014    9       23    11  36    6.18   549.2    4.4      47.328
2014    9       23    11  42    6.18   549.2    4.4      47.326
2014    9       23    11  47    6.18   549.2    4.4      47.325
2014    9       23    11  52    6.18   549.1    4.4      47.325
2014    9       23    11  58    6.18   549.1    4.4      47.325
2014    9       23    12   3    6.18   549.1    4.4      47.327
2014    9       23    12   9    6.18   549.1    4.4      47.329
2014    9       23    12  14    6.18   549.1    4.4      47.332
2014    9       23    12  19    6.18   549.1    4.4      47.337
2014    9       23    12  25    6.18   549.0    4.4      47.342
2014    9       23    12  30    6.18   549.0    4.4      47.350
2014    9       23    12  36    6.18   549.0    4.4      47.359
2014    9       23    12  41    6.18   549.0    4.4      47.369
2014    9       23    12  46    6.18   549.0    4.4      47.382
2014    9       23    12  52    6.19   549.0    4.4      47.396
2014    9       23    12  57    6.19   549.0    4.4      47.412
2014    9       23    13   3    6.19   548.9    4.4      47.430
2014    9       23    13   8    6.19   548.9    4.4      47.450
2014    9       23    13  14    6.19   548.9    4.4      47.473
2014    9       23    13  19    6.19   548.9    4.4      47.497
2014    9       23    13  24    6.19   548.9    4.4      47.522
2014    9       23    13  30    6.19   548.9    4.4      47.549
2014    9       23    13  35    6.19   548.9    4.4      47.575
2014    9       23    13  41    6.19   548.9    4.4      47.601
2014    9       23    13  46    6.20   548.9    4.4      47.625
2014    9       23    13  51    6.20   548.9    4.4      47.649
2014    9       23    13  57    6.20   549.0    4.4      47.672
2014    9       23    14   2    6.20   549.0    4.4      47.693
2014    9       23    14   8    6.20   549.0    4.4      47.714
2014    9       23    14  13    6.20   549.0    4.4      47.733
2014    9       23    14  18    6.20   549.0    4.4      47.751
2014    9       23    14  24    6.20   549.0    4.4      47.768
2014    9       23    14  29    6.20   549.0    4.4      47.783
2014    9       23    14  35    6.20   549.0    4.4      47.798
2014    9       23    14  40    6.20   549.0    4.4      47.811
2014    9       23    14  46    6.21   549.0    4.4      47.824
2014    9       23    14  51    6.21   549.0    4.4      47.835
2014    9       23    14  56    6.21   549.0    4.4      47.846
2014    9       23    15   2    6.21   549.0    4.4      47.855
2014    9       23    15   7    6.21   549.1    4.4      47.864
2014    9       23    15  13    6.21   549.1    4.4      47.872
2014    9       23    15  18    6.21   549.1    4.4      47.880
2014    9       23    15  23    6.21   549.1    4.4      47.886
2014    9       23    15  29    6.21   549.1    4.4      47.892
2014    9       23    15  34    6.21   549.1    4.4      47.898
2014    9       23    15  40    6.21   549.1    4.4      47.902
2014    9       23    15  45    6.21   549.1    4.4      47.907
2014    9       23    15  50    6.21   549.1    4.4      47.910
2014    9       23    15  56    6.22   549.2    4.4      47.913
2014    9       23    16   1    6.22   549.2    4.4      47.916
2014    9       23    16   7    6.22   549.2    4.4      47.919
2014    9       23    16  12    6.22   549.2    4.4      47.920
2014    9       23    16  18    6.22   549.2    4.4      47.922
2014    9       23    16  23    6.22   549.2    4.4      47.923
2014    9       23    16  28    6.22   549.2    4.4      47.924
2014    9       23    16  34    6.22   549.2    4.4      47.924
2014    9       23    16  39    6.22   549.2    4.4      47.924
2014    9       23    16  45    6.22   549.2    4.4      47.924
2014    9       23    16  50    6.22   549.3    4.4      47.924
2014    9       23    16  55    6.22   549.3    4.4      47.923
2014    9       23    17   1    6.23   549.3    4.4      47.922
2014    9       23    17   6    6.23   549.3    4.4      47.921
2014    9       23    17  12    6.23   549.3    4.4      47.920
2014    9       23    17  17    6.23   549.3    4.4      47.919
2014    9       23    17  22    6.23   549.3    4.4      47.917
2014    9       23    17  28    6.23   549.3    4.4      47.916
2014    9       23    17  33    6.23   549.3    4.4      47.914
2014    9       23    17  39    6.23   549.3    4.4      47.913
2014    9       23    17  44    6.23   549.3    4.4      47.912
2014    9       23    17  50    6.23   549.3    4.4      47.911
2014    9       23    17  55    6.23   549.3    4.4      47.910
2014    9       23    18   0    6.23   549.3    4.4      47.910
2014    9       23    18   6    6.24   549.3    4.4      47.910
2014    9       23    18  11    6.24   549.4    4.4      47.910
2014    9       23    18  17    6.24   549.4    4.4      47.911
2014    9       23    18  22    6.24   549.4    4.4      47.913
2014    9       23    18  27    6.24   549.4    4.4      47.915
2014    9       23    18  33    6.24   549.4    4.4      47.918
2014    9       23    18  38    6.24   549.4    4.4      47.922
2014    9       23    18  44    6.24   549.4    4.4      47.926
2014    9       23    18  49    6.24   549.4    4.4      47.932
2014    9       23    18  54    6.24   549.4    4.4      47.939
2014    9       23    19   0    6.25   549.4    4.4      47.948
2014    9       23    19   5    6.25   549.4    4.4      47.957
2014    9       23    19  11    6.25   549.4    4.4      47.968
2014    9       23    19  16    6.25   549.4    4.4      47.981
2014    9       23    19  22    6.25   549.4    4.4      47.995
2014    9       23    19  27    6.25   549.4    4.4      48.011
2014    9       23    19  32    6.25   549.4    4.4      48.028
2014    9       23    19  38    6.25   549.5    4.4      48.047
2014    9       23    19  43    6.26   549.5    4.4      48.069
2014    9       23    19  49    6.26   549.5    4.4      48.092
2014    9       23    19  54    6.26   549.5    4.4      48.117
2014    9       23    19  59    6.26   549.5    4.4      48.142
2014    9       23    20   5    6.26   549.6    4.4      48.169
2014    9       23    20  10    6.26   549.6    4.4      48.195
2014    9       23    20  16    6.26   549.6    4.4      48.221
2014    9       23    20  21    6.27   549.6    4.4      48.248
2014    9       23    20  27    6.27   549.7    4.4      48.275
2014    9       23    20  32    6.27   549.7    4.4      48.302
2014    9       23    20  37    6.27   549.7    4.4      48.331
2014    9       23    20  43    6.27   549.7    4.4      48.359
2014    9       23    20  48    6.27   549.8    4.4      48.387
2014    9       23    20  54    6.27   549.8    4.4      48.415
2014    9       23    20  59    6.28   549.8    4.4      48.443
2014    9       23    21   4    6.28   549.9    4.4      48.470
2014    9       23    21  10    6.28   549.9    4.4      48.496
2014    9       23    21  15    6.28   549.9    4.4      48.522
2014    9       23    21  21    6.28   549.9    4.4      48.547
2014    9       23    21  26    6.28   550.0    4.4      48.572
2014    9       23    21  31    6.28   550.0    4.4      48.596
2014    9       23    21  37    6.29   550.0    4.4      48.620
2014    9       23    21  42    6.29   550.1    4.4      48.643
2014    9       23    21  48    6.29   550.1    4.4      48.666
2014    9       23    21  53    6.29   550.1    4.4      48.688
2014    9       23    21  59    6.29   550.2    4.4      48.709
2014    9       23    22   4    6.29   550.2    4.4      48.729
2014    9       23    22   9    6.29   550.3    4.4      48.749
2014    9       23    22  15    6.29   550.3    4.4      48.768
2014    9       23    22  20    6.30   550.3    4.4      48.787
2014    9       23    22  26    6.30   550.4    4.4      48.806
2014    9       23    22  31    6.30   550.4    4.4      48.823
2014    9       23    22  36    6.30   550.4    4.4      48.841
2014    9       23    22  42    6.30   550.5    4.4      48.858
2014    9       23    22  47    6.30   550.5    4.4      48.875
2014    9       23    22  53    6.30   550.6    4.4      48.892
2014    9       23    22  58    6.31   550.6    4.4      48.908
2014    9       23    23   3    6.31   550.6    4.4      48.925
2014    9       23    23   9    6.31   550.7    4.4      48.941
2014    9       23    23  14    6.31   550.7    4.4      48.958
2014    9       23    23  20    6.31   550.8    4.4      48.974
2014    9       23    23  25    6.31   550.8    4.4      48.990
2014    9       23    23  31    6.32   550.9    4.4      49.006
2014    9       23    23  36    6.32   550.9    4.4      49.023
2014    9       23    23  41    6.32   551.0    4.4      49.039
2014    9       23    23  47    6.32   551.0    4.4      49.055
2014    9       23    23  52    6.32   551.0    4.4      49.072
2014    9       23    23  58    6.32   551.1    4.4      49.088
2014    9       24     0   3    6.32   551.1    4.4      49.105
2014    9       24     0   8    6.33   551.2    4.4      49.122
2014    9       24     0  14    6.33   551.2    4.4      49.139
2014    9       24     0  19    6.33   551.3    4.4      49.156
2014    9       24     0  25    6.33   551.3    4.4      49.174
2014    9       24     0  30    6.33   551.4    4.4      49.191
2014    9       24     0  35    6.33   551.4    4.4      49.209
2014    9       24     0  41    6.33   551.5    4.4      49.228
2014    9       24     0  46    6.34   551.6    4.4      49.246
2014    9       24     0  52    6.34   551.6    4.4      49.265
2014    9       24     0  57    6.34   551.7    4.4      49.285
2014    9       24     1   3    6.34   551.7    4.4      49.305
2014    9       24     1   8    6.34   551.8    4.4      49.325
2014    9       24     1  13    6.34   551.8    4.4      49.346
2014    9       24     1  19    6.35   551.9    4.4      49.368
2014    9       24     1  24    6.35   552.0    4.4      49.390
2014    9       24     1  30    6.35   552.0    4.4      49.413
2014    9       24     1  35    6.35   552.1    4.4      49.437
2014    9       24     1  40    6.35   552.1    4.4      49.461
2014    9       24     1  46    6.35   552.2    4.4      49.486
2014    9       24     1  51    6.36   552.3    4.4      49.513
2014    9       24     1  57    6.36   552.3    4.4      49.540
2014    9       24     2   2    6.36   552.4    4.5      49.568
2014    9       24     2   7    6.36   552.4    4.5      49.596
2014    9       24     2  13    6.36   552.5    4.5      49.627
2014    9       24     2  18    6.36   552.6    4.5      49.658
2014    9       24     2  24    6.37   552.6    4.5      49.692
2014    9       24     2  29    6.37   552.7    4.5      49.727
2014    9       24     2  35    6.37   552.8    4.5      49.763
2014    9       24     2  40    6.37   552.8    4.5      49.800
2014    9       24     2  45    6.37   552.9    4.5      49.840
2014    9       24     2  51    6.37   553.0    4.5      49.880
2014    9       24     2  56    6.38   553.1    4.5      49.923
2014    9       24     3   2    6.38   553.1    4.5      49.966
2014    9       24     3   7    6.38   553.2    4.5      50.011
2014    9       24     3  12    6.38   553.3    4.5      50.057
2014    9       24     3  18    6.38   553.4    4.5      50.103
2014    9       24     3  23    6.39   553.5    4.5      50.148
2014    9       24     3  29    6.39   553.5    4.5      50.192
2014    9       24     3  34    6.39   553.6    4.5      50.234
2014    9       24     3  40    6.39   553.7    4.5      50.276
2014    9       24     3  45    6.39   553.8    4.5      50.315
2014    9       24     3  50    6.40   553.9    4.5      50.354
2014    9       24     3  56    6.40   554.0    4.5      50.391
2014    9       24     4   1    6.40   554.0    4.5      50.427
2014    9       24     4   7    6.40   554.1    4.5      50.462
2014    9       24     4  12    6.40   554.2    4.5      50.496
2014    9       24     4  17    6.40   554.3    4.5      50.529
2014    9       24     4  23    6.41   554.4    4.5      50.561
2014    9       24     4  28    6.41   554.5    4.5      50.592
2014    9       24     4  34    6.41   554.6    4.5      50.623
2014    9       24     4  39    6.41   554.6    4.5      50.653
2014    9       24     4  44    6.41   554.7    4.5      50.682
2014    9       24     4  50    6.42   554.8    4.5      50.710
2014    9       24     4  55    6.42   554.9    4.5      50.738
2014    9       24     5   1    6.42   555.0    4.5      50.766
2014    9       24     5   6    6.42   555.1    4.5      50.793
2014    9       24     5  11    6.42   555.2    4.5      50.819
2014    9       24     5  17    6.42   555.2    4.5      50.846
2014    9       24     5  22    6.43   555.3    4.5      50.872
2014    9       24     5  28    6.43   555.4    4.5      50.897
2014    9       24     5  33    6.43   555.5    4.5      50.923
2014    9       24     5  39    6.43   555.6    4.5      50.948
2014    9       24     5  44    6.43   555.7    4.5      50.973
2014    9       24     5  49    6.44   555.8    4.5      50.998
2014    9       24     5  55    6.44   555.9    4.5      51.023
2014    9       24     6   0    6.44   556.0    4.5      51.048
2014    9       24     6   6    6.44   556.1    4.5      51.073
2014    9       24     6  11    6.44   556.1    4.5      51.098
2014    9       24     6  16    6.44   556.2    4.5      51.124
2014    9       24     6  22    6.45   556.3    4.5      51.150
2014    9       24     6  27    6.45   556.4    4.5      51.177
2014    9       24     6  33    6.45   556.5    4.5      51.204
2014    9       24     6  38    6.45   556.6    4.5      51.232
2014    9       24     6  43    6.46   556.7    4.5      51.260
2014    9       24     6  49    6.46   556.8    4.5      51.290
2014    9       24     6  54    6.46   556.9    4.5      51.320
2014    9       24     7   0    6.46   557.0    4.5      51.351
2014    9       24     7   5    6.46   557.1    4.5      51.382
2014    9       24     7  11    6.47   557.3    4.5      51.415
2014    9       24     7  16    6.47   557.4    4.5      51.449
2014    9       24     7  21    6.47   557.5    4.5      51.484
2014    9       24     7  27    6.47   557.6    4.5      51.520
2014    9       24     7  32    6.47   557.7    4.5      51.557
2014    9       24     7  38    6.48   557.8    4.5      51.594
2014    9       24     7  43    6.48   558.0    4.5      51.633
2014    9       24     7  48    6.48   558.1    4.5      51.673
2014    9       24     7  54    6.48   558.2    4.5      51.714
2014    9       24     7  59    6.48   558.3    4.5      51.756
2014    9       24     8   5    6.49   558.5    4.5      51.798
2014    9       24     8  10    6.49   558.6    4.5      51.842
2014    9       24     8  15    6.49   558.7    4.5      51.886
2014    9       24     8  21    6.49   558.9    4.5      51.931
2014    9       24     8  26    6.49   559.0    4.5      51.976
2014    9       24     8  32    6.49   559.2    4.5      52.022
2014    9       24     8  37    6.50   559.3    4.5      52.068
2014    9       24     8  43    6.50   559.5    4.5      52.114
2014    9       24     8  48    6.50   559.6    4.5      52.161
2014    9       24     8  53    6.50   559.7    4.5      52.208
2014    9       24     8  59    6.50   559.9    4.5      52.256
2014    9       24     9   4    6.51   560.0    4.5      52.304
2014    9       24     9  10    6.51   560.2    4.5      52.353
2014    9       24     9  15    6.51   560.3    4.5      52.402
2014    9       24     9  20    6.51   560.5    4.5      52.451
2014    9       24     9  26    6.51   560.6    4.5      52.502
2014    9       24     9  31    6.52   560.8    4.5      52.553
2014    9       24     9  37    6.52   560.9    4.5      52.606
2014    9       24     9  42    6.52   561.0    4.5      52.660
2014    9       24     9  47    6.52   561.2    4.5      52.716
2014    9       24     9  53    6.52   561.4    4.5      52.774
2014    9       24     9  58    6.53   561.5    4.5      52.833
2014    9       24    10   4    6.53   561.7    4.5      52.893
2014    9       24    10   9    6.53   561.8    4.5      52.956
2014    9       24    10  14    6.53   562.0    4.5      53.020
2014    9       24    10  20    6.53   562.2    4.5      53.087
2014    9       24    10  25    6.54   562.3    4.5      53.156
2014    9       24    10  31    6.54   562.5    4.5      53.226
2014    9       24    10  36    6.54   562.7    4.5      53.297
2014    9       24    10  42    6.54   562.9    4.5      53.367
2014    9       24    10  47    6.54   563.1    4.5      53.435
2014    9       24    10  52    6.55   563.3    4.5      53.500
2014    9       24    10  58    6.55   563.5    4.5      53.563
2014    9       24    11   3    6.55   563.7    4.5      53.623
2014    9       24    11   9    6.55   563.9    4.5      53.682
2014    9       24    11  14    6.55   564.0    4.5      53.738
2014    9       24    11  19    6.56   564.2    4.5      53.792
2014    9       24    11  25    6.56   564.4    4.5      53.844
2014    9       24    11  30    6.56   564.6    4.5      53.894
2014    9       24    11  36    6.56   564.8    4.5      53.942
2014    9       24    11  41    6.56   565.0    4.5      53.989
2014    9       24    11  46    6.56   565.2    4.5      54.035
2014    9       24    11  52    6.56   565.4    4.5      54.079
2014    9       24    11  57    6.57   565.6    4.5      54.122
2014    9       24    12   3    6.57   565.8    4.5      54.164
2014    9       24    12   8    6.57   565.9    4.5      54.205
2014    9       24    12  14    6.57   566.1    4.5      54.245
2014    9       24    12  19    6.57   566.3    4.5      54.285
2014    9       24    12  24    6.57   566.5    4.5      54.323
2014    9       24    12  30    6.57   566.7    4.5      54.361
2014    9       24    12  35    6.58   566.9    4.5      54.398
2014    9       24    12  41    6.58   567.1    4.5      54.434
2014    9       24    12  46    6.58   567.3    4.5      54.471
2014    9       24    12  51    6.58   567.4    4.5      54.506
2014    9       24    12  57    6.58   567.6    4.5      54.542
2014    9       24    13   2    6.58   567.8    4.5      54.577
2014    9       24    13   8    6.58   568.0    4.5      54.612
2014    9       24    13  13    6.59   568.2    4.5      54.646
2014    9       24    13  18    6.59   568.4    4.5      54.681
2014    9       24    13  24    6.59   568.6    4.5      54.716
2014    9       24    13  29    6.59   568.7    4.5      54.751
2014    9       24    13  35    6.59   568.9    4.5      54.787
2014    9       24    13  40    6.59   569.1    4.5      54.823
2014    9       24    13  45    6.59   569.3    4.5      54.860
2014    9       24    13  51    6.60   569.5    4.5      54.898
2014    9       24    13  56    6.60   569.7    4.5      54.937
2014    9       24    14   2    6.60   569.9    4.5      54.977
2014    9       24    14   7    6.60   570.1    4.4      55.019
2014    9       24    14  13    6.60   570.3    4.4      55.062
2014    9       24    14  18    6.61   570.5    4.4      55.106
2014    9       24    14  23    6.61   570.7    4.4      55.152
2014    9       24    14  29    6.61   570.9    4.4      55.200
2014    9       24    14  34    6.61   571.1    4.4      55.251
2014    9       24    14  40    6.61   571.3    4.4      55.302
2014    9       24    14  45    6.62   571.5    4.4      55.355
2014    9       24    14  50    6.62   571.8    4.4      55.409
2014    9       24    14  56    6.62   572.0    4.4      55.463
2014    9       24    15   1    6.62   572.2    4.4      55.516
2014    9       24    15   7    6.62   572.5    4.4      55.570
2014    9       24    15  12    6.62   572.7    4.4      55.622
2014    9       24    15  17    6.62   573.0    4.4      55.675
2014    9       24    15  23    6.63   573.2    4.4      55.726
2014    9       24    15  28    6.63   573.5    4.4      55.777
2014    9       24    15  34    6.63   573.7    4.4      55.828
2014    9       24    15  39    6.63   574.0    4.4      55.878
2014    9       24    15  44    6.63   574.2    4.4      55.926
2014    9       24    15  50    6.63   574.5    4.4      55.974
2014    9       24    15  55    6.63   574.8    4.4      56.022
2014    9       24    16   1    6.64   575.0    4.4      56.069
2014    9       24    16   6    6.64   575.3    4.4      56.115
2014    9       24    16  12    6.64   575.5    4.4      56.161
2014    9       24    16  17    6.64   575.8    4.4      56.207
2014    9       24    16  22    6.64   576.1    4.4      56.252
2014    9       24    16  28    6.64   576.3    4.4      56.297
2014    9       24    16  33    6.64   576.6    4.4      56.342
2014    9       24    16  39    6.64   576.9    4.4      56.387
2014    9       24    16  44    6.64   577.1    4.4      56.432
2014    9       24    16  49    6.65   577.4    4.4      56.477
2014    9       24    16  55    6.65   577.6    4.4      56.523
2014    9       24    17   0    6.65   577.9    4.4      56.569
2014    9       24    17   6    6.65   578.2    4.4      56.616
2014    9       24    17  11    6.65   578.4    4.4      56.663
2014    9       24    17  16    6.65   578.7    4.4      56.712
2014    9       24    17  22    6.65   579.0    4.4      56.761
2014    9       24    17  27    6.65   579.2    4.4      56.813
2014    9       24    17  33    6.65   579.5    4.4      56.865
2014    9       24    17  38    6.66   579.8    4.4      56.918
2014    9       24    17  44    6.66   580.1    4.4      56.974
2014    9       24    17  49    6.66   580.4    4.4      57.031
2014    9       24    17  54    6.66   580.6    4.4      57.092
2014    9       24    18   0    6.66   580.9    4.4      57.154
2014    9       24    18   5    6.66   581.2    4.4      57.219
2014    9       24    18  11    6.66   581.6    4.4      57.285
2014    9       24    18  16    6.66   581.9    4.4      57.352
2014    9       24    18  21    6.66   582.2    4.4      57.419
2014    9       24    18  27    6.66   582.5    4.4      57.484
2014    9       24    18  32    6.66   582.8    4.4      57.549
2014    9       24    18  38    6.66   583.1    4.4      57.613
2014    9       24    18  43    6.67   583.4    4.4      57.677
2014    9       24    18  48    6.67   583.7    4.4      57.740
2014    9       24    18  54    6.67   584.0    4.4      57.803
2014    9       24    18  59    6.67   584.4    4.4      57.866
2014    9       24    19   5    6.67   584.7    4.3      57.928
2014    9       24    19  10    6.67   585.0    4.3      57.990
2014    9       24    19  15    6.67   585.3    4.3      58.051
2014    9       24    19  21    6.67   585.6    4.3      58.112
2014    9       24    19  26    6.67   585.9    4.3      58.173
2014    9       24    19  32    6.67   586.2    4.3      58.233
2014    9       24    19  37    6.67   586.5    4.3      58.293
2014    9       24    19  43    6.67   586.9    4.3      58.352
2014    9       24    19  48    6.67   587.2    4.3      58.409
2014    9       24    19  53    6.67   587.5    4.3      58.466
2014    9       24    19  59    6.67   587.8    4.3      58.521
2014    9       24    20   4    6.67   588.1    4.3      58.575
2014    9       24    20  10    6.66   588.4    4.3      58.627
2014    9       24    20  15    6.66   588.7    4.3      58.678
2014    9       24    20  20    6.66   589.0    4.3      58.728
2014    9       24    20  26    6.66   589.4    4.3      58.777
2014    9       24    20  31    6.66   589.7    4.3      58.824
2014    9       24    20  37    6.66   590.0    4.3      58.871
2014    9       24    20  42    6.66   590.3    4.3      58.917
2014    9       24    20  47    6.66   590.6    4.3      58.961
2014    9       24    20  53    6.66   590.9    4.3      59.005
2014    9       24    20  58    6.66   591.2    4.3      59.048
2014    9       24    21   4    6.66   591.5    4.2      59.091
2014    9       24    21   9    6.66   591.8    4.2      59.133
2014    9       24    21  14    6.66   592.1    4.2      59.174
2014    9       24    21  20    6.66   592.4    4.2      59.215
2014    9       24    21  25    6.66   592.7    4.2      59.255
2014    9       24    21  31    6.66   593.0    4.2      59.296
2014    9       24    21  36    6.66   593.3    4.2      59.336
2014    9       24    21  41    6.66   593.6    4.2      59.377
2014    9       24    21  47    6.66   593.9    4.2      59.418
2014    9       24    21  52    6.66   594.2    4.2      59.459
2014    9       24    21  58    6.66   594.5    4.2      59.500
2014    9       24    22   3    6.66   594.8    4.2      59.542
2014    9       24    22   9    6.66   595.1    4.2      59.584
2014    9       24    22  14    6.65   595.4    4.2      59.627
2014    9       24    22  19    6.65   595.7    4.2      59.671
2014    9       24    22  25    6.65   596.0    4.2      59.714
2014    9       24    22  30    6.65   596.3    4.2      59.758
2014    9       24    22  36    6.65   596.7    4.2      59.803
2014    9       24    22  41    6.65   597.0    4.2      59.847
2014    9       24    22  46    6.65   597.3    4.2      59.890
2014    9       24    22  52    6.65   597.6    4.2      59.932
2014    9       24    22  57    6.65   598.0    4.1      59.972
2014    9       24    23   3    6.65   598.3    4.1      60.012
2014    9       24    23   8    6.65   598.6    4.1      60.051
2014    9       24    23  13    6.64   599.0    4.1      60.089
2014    9       24    23  19    6.64   599.3    4.1      60.126
2014    9       24    23  24    6.64   599.6    4.1      60.163
2014    9       24    23  30    6.64   600.0    4.1      60.198
2014    9       24    23  35    6.64   600.3    4.1      60.233
2014    9       24    23  40    6.64   600.6    4.1      60.268
2014    9       24    23  46    6.63   600.9    4.1      60.302
2014    9       24    23  51    6.63   601.3    4.1      60.336
2014    9       24    23  57    6.63   601.6    4.1      60.369
2014    9       25     0   2    6.63   601.9    4.1      60.402
2014    9       25     0   8    6.63   602.3    4.1      60.435
2014    9       25     0  13    6.63   602.6    4.1      60.467
2014    9       25     0  18    6.62   602.9    4.1      60.499
2014    9       25     0  24    6.62   603.3    4.1      60.530
2014    9       25     0  29    6.62   603.6    4.0      60.561
2014    9       25     0  35    6.62   603.9    4.0      60.592
2014    9       25     0  40    6.61   604.2    4.0      60.622
2014    9       25     0  45    6.61   604.6    4.0      60.653
2014    9       25     0  51    6.61   604.9    4.0      60.683
2014    9       25     0  56    6.61   605.2    4.0      60.713
2014    9       25     1   2    6.61   605.5    4.0      60.742
2014    9       25     1   7    6.60   605.8    4.0      60.772
2014    9       25     1  12    6.60   606.2    4.0      60.801
2014    9       25     1  18    6.60   606.5    4.0      60.831
2014    9       25     1  23    6.60   606.8    4.0      60.859
2014    9       25     1  29    6.59   607.1    4.0      60.888
2014    9       25     1  34    6.59   607.4    4.0      60.917
2014    9       25     1  39    6.59   607.7    4.0      60.946
2014    9       25     1  45    6.58   608.0    4.0      60.975
2014    9       25     1  50    6.58   608.3    4.0      61.003
2014    9       25     1  56    6.58   608.6    3.9      61.032
2014    9       25     2   1    6.58   608.9    3.9      61.060
2014    9       25     2   7    6.57   609.2    3.9      61.089
2014    9       25     2  12    6.57   609.5    3.9      61.117
2014    9       25     2  17    6.57   609.8    3.9      61.146
2014    9       25     2  23    6.56   610.1    3.9      61.175
2014    9       25     2  28    6.56   610.4    3.9      61.203
2014    9       25     2  34    6.56   610.7    3.9      61.231
2014    9       25     2  39    6.56   610.9    3.9      61.259
2014    9       25     2  44    6.55   611.2    3.9      61.286
2014    9       25     2  50    6.55   611.5    3.9      61.313
2014    9       25     2  55    6.55   611.8    3.9      61.340
2014    9       25     3   1    6.54   612.1    3.9      61.366
2014    9       25     3   6    6.54   612.3    3.9      61.391
2014    9       25     3  11    6.54   612.6    3.9      61.416
2014    9       25     3  17    6.53   612.9    3.9      61.440
2014    9       25     3  22    6.53   613.1    3.8      61.462
2014    9       25     3  28    6.53   613.4    3.8      61.484
2014    9       25     3  33    6.53   613.7    3.8      61.505
2014    9       25     3  38    6.52   613.9    3.8      61.524
2014    9       25     3  44    6.52   614.2    3.8      61.542
2014    9       25     3  49    6.52   614.5    3.8      61.559
2014    9       25     3  55    6.51   614.7    3.8      61.575
2014    9       25     4   0    6.51   615.0    3.8      61.590
2014    9       25     4   5    6.51   615.2    3.8      61.604
2014    9       25     4  11    6.50   615.5    3.8      61.617
2014    9       25     4  16    6.50   615.7    3.8      61.630
2014    9       25     4  22    6.50   616.0    3.8      61.642
2014    9       25     4  27    6.49   616.2    3.8      61.653
2014    9       25     4  33    6.49   616.5    3.8      61.663
2014    9       25     4  38    6.49   616.7    3.8      61.672
2014    9       25     4  43    6.48   617.0    3.7      61.681
2014    9       25     4  49    6.48   617.2    3.7      61.690
2014    9       25     4  54    6.48   617.4    3.7      61.698
2014    9       25     5   0    6.48   617.7    3.7      61.705
2014    9       25     5   5    6.47   617.9    3.7      61.712
2014    9       25     5  10    6.47   618.2    3.7      61.718
2014    9       25     5  16    6.47   618.4    3.7      61.724
2014    9       25     5  21    6.46   618.6    3.7      61.730
2014    9       25     5  27    6.46   618.9    3.7      61.735
2014    9       25     5  32    6.46   619.1    3.7      61.740
2014    9       25     5  37    6.45   619.3    3.7      61.745
2014    9       25     5  43    6.45   619.5    3.7      61.750
2014    9       25     5  48    6.45   619.8    3.7      61.755
2014    9       25     5  54    6.44   620.0    3.7      61.759
2014    9       25     5  59    6.44   620.2    3.7      61.764
2014    9       25     6   4    6.44   620.4    3.7      61.768
2014    9       25     6  10    6.43   620.6    3.6      61.773
2014    9       25     6  15    6.43   620.9    3.6      61.777
2014    9       25     6  21    6.42   621.1    3.6      61.781
2014    9       25     6  26    6.42   621.3    3.6      61.785
2014    9       25     6  32    6.42   621.5    3.6      61.790
2014    9       25     6  37    6.41   621.7    3.6      61.794
2014    9       25     6  42    6.41   621.9    3.6      61.798
2014    9       25     6  48    6.41   622.1    3.6      61.802
2014    9       25     6  53    6.40   622.3    3.6      61.806
2014    9       25     6  59    6.40   622.5    3.6      61.810
2014    9       25     7   4    6.40   622.8    3.6      61.814
2014    9       25     7   9    6.39   622.9    3.6      61.817
2014    9       25     7  15    6.39   623.1    3.6      61.821
2014    9       25     7  20    6.38   623.3    3.6      61.824
2014    9       25     7  26    6.38   623.5    3.6      61.827
2014    9       25     7  31    6.38   623.7    3.6      61.830
2014    9       25     7  36    6.37   623.9    3.6      61.833
2014    9       25     7  42    6.37   624.0    3.6      61.836
2014    9       25     7  47    6.37   624.2    3.6      61.839
2014    9       25     7  53    6.36   624.4    3.6      61.842
2014    9       25     7  58    6.36   624.6    3.5      61.845
2014    9       25     8   3    6.35   624.7    3.5      61.848
2014    9       25     8   9    6.35   624.9    3.5      61.851
2014    9       25     8  14    6.35   625.1    3.5      61.853
2014    9       25     8  20    6.34   625.3    3.5      61.856
2014    9       25     8  25    6.34   625.4    3.5      61.858
2014    9       25     8  30    6.34   625.6    3.5      61.859
2014    9       25     8  36    6.33   625.8    3.5      61.859
2014    9       25     8  41    6.33   625.9    3.5      61.859
2014    9       25     8  47    6.33   626.1    3.5      61.858
2014    9       25     8  52    6.32   626.3    3.5      61.855
2014    9       25     8  58    6.32   626.5    3.5      61.851
2014    9       25     9   3    6.31   626.6    3.5      61.846
2014    9       25     9   8    6.31   626.8    3.5      61.840
2014    9       25     9  14    6.31   627.0    3.5      61.834
2014    9       25     9  19    6.30   627.1    3.5      61.826
2014    9       25     9  25    6.30   627.3    3.5      61.818
2014    9       25     9  30    6.30   627.4    3.5      61.809
2014    9       25     9  35    6.29   627.6    3.5      61.800
2014    9       25     9  41    6.29   627.8    3.5      61.790
2014    9       25     9  46    6.28   627.9    3.5      61.779
2014    9       25     9  52    6.28   628.1    3.5      61.768
2014    9       25     9  57    6.28   628.2    3.4      61.756
2014    9       25    10   2    6.27   628.4    3.4      61.744
2014    9       25    10   8    6.27   628.5    3.4      61.732
2014    9       25    10  13    6.27   628.7    3.4      61.719
2014    9       25    10  19    6.26   628.8    3.4      61.706
2014    9       25    10  24    6.26   629.0    3.4      61.692
2014    9       25    10  29    6.25   629.1    3.4      61.678
2014    9       25    10  35    6.25   629.2    3.4      61.665
2014    9       25    10  40    6.25   629.4    3.4      61.651
2014    9       25    10  46    6.24   629.5    3.4      61.637
2014    9       25    10  51    6.24   629.6    3.4      61.623
2014    9       25    10  56    6.23   629.8    3.4      61.608
2014    9       25    11   2    6.23   629.9    3.4      61.594
2014    9       25    11   7    6.23   630.0    3.4      61.579
2014    9       25    11  13    6.22   630.1    3.4      61.565
2014    9       25    11  18    6.22   630.2    3.4      61.551
2014    9       25    11  24    6.22   630.3    3.4      61.536
2014    9       25    11  29    6.21   630.4    3.4      61.522
2014    9       25    11  34    6.21   630.5    3.4      61.508
2014    9       25    11  40    6.20   630.6    3.4      61.494
2014    9       25    11  45    6.20   630.7    3.4      61.480
2014    9       25    11  51    6.20   630.8    3.4      61.467
2014    9       25    11  56    6.19   630.9    3.4      61.453
2014    9       25    12   1    6.19   631.0    3.3      61.440
2014    9       25    12   7    6.19   631.1    3.3      61.428
2014    9       25    12  12    6.18   631.2    3.3      61.415
2014    9       25    12  18    6.18   631.2    3.3      61.403
2014    9       25    12  23    6.17   631.3    3.3      61.391
2014    9       25    12  28    6.17   631.4    3.3      61.380
2014    9       25    12  34    6.17   631.4    3.3      61.369
2014    9       25    12  39    6.16   631.5    3.3      61.358
2014    9       25    12  45    6.16   631.6    3.3      61.348
2014    9       25    12  50    6.16   631.6    3.3      61.339
2014    9       25    12  55    6.15   631.7    3.3      61.331
2014    9       25    13   1    6.15   631.8    3.3      61.323
2014    9       25    13   6    6.15   631.8    3.3      61.315
2014    9       25    13  12    6.14   631.9    3.3      61.309
2014    9       25    13  17    6.14   631.9    3.3      61.303
2014    9       25    13  22    6.14   632.0    3.3      61.297
2014    9       25    13  28    6.13   632.0    3.3      61.293
2014    9       25    13  33    6.13   632.1    3.3      61.289
2014    9       25    13  39    6.13   632.1    3.3      61.285
2014    9       25    13  44    6.13   632.2    3.3      61.282
2014    9       25    13  50    6.12   632.2    3.3      61.280
2014    9       25    13  55    6.12   632.3    3.3      61.278
2014    9       25    14   0    6.12   632.3    3.3      61.277
2014    9       25    14   6    6.11   632.3    3.3      61.276
2014    9       25    14  11    6.11   632.4    3.3      61.276
2014    9       25    14  17    6.11   632.4    3.3      61.276
2014    9       25    14  22    6.10   632.4    3.3      61.276
2014    9       25    14  27    6.10   632.5    3.3      61.277
2014    9       25    14  33    6.10   632.5    3.3      61.278
2014    9       25    14  38    6.10   632.5    3.3      61.280
2014    9       25    14  44    6.09   632.6    3.3      61.282
2014    9       25    14  49    6.09   632.6    3.3      61.283
2014    9       25    14  54    6.09   632.6    3.3      61.285
2014    9       25    15   0    6.08   632.6    3.3      61.288
2014    9       25    15   5    6.08   632.7    3.3      61.290
2014    9       25    15  11    6.08   632.7    3.3      61.292
2014    9       25    15  16    6.08   632.7    3.3      61.295
2014    9       25    15  21    6.07   632.8    3.3      61.297
2014    9       25    15  27    6.07   632.8    3.3      61.299
2014    9       25    15  32    6.07   632.8    3.3      61.301
2014    9       25    15  38    6.07   632.8    3.3      61.303
2014    9       25    15  43    6.06   632.9    3.3      61.304
2014    9       25    15  49    6.06   632.9    3.3      61.305
2014    9       25    15  54    6.06   632.9    3.3      61.306
2014    9       25    15  59    6.06   633.0    3.3      61.307
2014    9       25    16   5    6.05   633.0    3.3      61.307
2014    9       25    16  10    6.05   633.0    3.3      61.308
2014    9       25    16  16    6.05   633.1    3.3      61.308
2014    9       25    16  21    6.05   633.1    3.3      61.308
2014    9       25    16  26    6.04   633.2    3.3      61.309
2014    9       25    16  32    6.04   633.2    3.3      61.309
2014    9       25    16  37    6.04   633.2    3.3      61.309
2014    9       25    16  43    6.04   633.3    3.2      61.308
2014    9       25    16  48    6.04   633.3    3.2      61.308
2014    9       25    16  53    6.03   633.4    3.2      61.308
2014    9       25    16  59    6.03   633.4    3.2      61.307
2014    9       25    17   4    6.03   633.4    3.2      61.307
2014    9       25    17  10    6.03   633.5    3.2      61.306
2014    9       25    17  15    6.02   633.5    3.2      61.306
2014    9       25    17  20    6.02   633.6    3.2      61.305
2014    9       25    17  26    6.02   633.6    3.2      61.304
2014    9       25    17  31    6.01   633.6    3.2      61.302
2014    9       25    17  37    6.01   633.7    3.2      61.301
2014    9       25    17  42    6.01   633.7    3.2      61.299
2014    9       25    17  47    6.01   633.8    3.2      61.297
2014    9       25    17  53    6.00   633.8    3.2      61.294
2014    9       25    17  58    6.00   633.8    3.2      61.291
2014    9       25    18   4    6.00   633.9    3.2      61.288
2014    9       25    18   9    6.00   633.9    3.2      61.284
2014    9       25    18  14    5.99   633.9    3.2      61.280
2014    9       25    18  20    5.99   634.0    3.2      61.276
2014    9       25    18  25    5.99   634.0    3.2      61.271
2014    9       25    18  31    5.99   634.0    3.2      61.266
2014    9       25    18  36    5.98   634.0    3.2      61.261
2014    9       25    18  42    5.98   634.1    3.2      61.255
2014    9       25    18  47    5.98   634.1    3.2      61.248
2014    9       25    18  52    5.98   634.1    3.2      61.242
2014    9       25    18  58    5.97   634.1    3.2      61.235
2014    9       25    19   3    5.97   634.2    3.2      61.228
2014    9       25    19   9    5.97   634.2    3.2      61.220
2014    9       25    19  14    5.97   634.2    3.2      61.212
2014    9       25    19  19    5.97   634.2    3.2      61.204
2014    9       25    19  25    5.96   634.2    3.2      61.196
2014    9       25    19  30    5.96   634.3    3.2      61.188
2014    9       25    19  36    5.96   634.3    3.2      61.179
2014    9       25    19  41    5.96   634.3    3.2      61.170
2014    9       25    19  46    5.95   634.3    3.2      61.162
2014    9       25    19  52    5.95   634.3    3.2      61.153
2014    9       25    19  57    5.95   634.3    3.2      61.144
2014    9       25    20   3    5.95   634.3    3.2      61.135
2014    9       25    20   8    5.94   634.4    3.2      61.126
2014    9       25    20  13    5.94   634.4    3.2      61.117
2014    9       25    20  19    5.94   634.4    3.2      61.108
2014    9       25    20  24    5.94   634.4    3.2      61.099
2014    9       25    20  30    5.94   634.4    3.2      61.090
2014    9       25    20  35    5.93   634.4    3.2      61.081
2014    9       25    20  40    5.93   634.4    3.2      61.071
2014    9       25    20  46    5.93   634.4    3.2      61.062
2014    9       25    20  51    5.93   634.4    3.2      61.053
2014    9       25    20  57    5.93   634.4    3.2      61.043
2014    9       25    21   2    5.92   634.4    3.2      61.034
2014    9       25    21   8    5.92   634.5    3.2      61.025
2014    9       25    21  13    5.92   634.5    3.2      61.016
2014    9       25    21  18    5.92   634.5    3.2      61.007
2014    9       25    21  24    5.92   634.5    3.2      60.998
2014    9       25    21  29    5.91   634.5    3.2      60.989
2014    9       25    21  35    5.91   634.5    3.2      60.980
2014    9       25    21  40    5.91   634.5    3.2      60.971
2014    9       25    21  45    5.91   634.5    3.2      60.962
2014    9       25    21  51    5.91   634.5    3.2      60.953
2014    9       25    21  56    5.90   634.5    3.2      60.945
2014    9       25    22   2    5.90   634.5    3.2      60.936
2014    9       25    22   7    5.90   634.5    3.2      60.928
2014    9       25    22  12    5.90   634.5    3.2      60.920
2014    9       25    22  18    5.90   634.5    3.2      60.912
2014    9       25    22  23    5.90   634.5    3.2      60.905
2014    9       25    22  29    5.89   634.5    3.2      60.897
2014    9       25    22  34    5.89   634.5    3.2      60.890
2014    9       25    22  39    5.89   634.5    3.2      60.883
2014    9       25    22  45    5.89   634.5    3.2      60.877
2014    9       25    22  50    5.89   634.5    3.2      60.871
2014    9       25    22  56    5.89   634.5    3.2      60.865
2014    9       25    23   1    5.88   634.4    3.2      60.859
2014    9       25    23   6    5.88   634.4    3.2      60.854
2014    9       25    23  12    5.88   634.4    3.2      60.849
2014    9       25    23  17    5.88   634.4    3.2      60.844
2014    9       25    23  23    5.88   634.4    3.2      60.840
2014    9       25    23  28    5.87   634.4    3.2      60.835
2014    9       25    23  34    5.87   634.4    3.2      60.832
2014    9       25    23  39    5.87   634.4    3.2      60.828
2014    9       25    23  44    5.87   634.4    3.2      60.825
2014    9       25    23  50    5.87   634.4    3.2      60.822
2014    9       25    23  55    5.87   634.4    3.2      60.819
2014    9       26     0   1    5.86   634.4    3.2      60.816
2014    9       26     0   6    5.86   634.4    3.2      60.813
2014    9       26     0  11    5.86   634.4    3.2      60.811
2014    9       26     0  17    5.86   634.4    3.2      60.809
2014    9       26     0  22    5.86   634.4    3.2      60.807
2014    9       26     0  28    5.85   634.4    3.2      60.805
2014    9       26     0  33    5.85   634.4    3.2      60.803
2014    9       26     0  38    5.85   634.4    3.2      60.800
2014    9       26     0  44    5.85   634.4    3.2      60.798
2014    9       26     0  49    5.85   634.4    3.2      60.796
2014    9       26     0  55    5.85   634.4    3.2      60.794
2014    9       26     1   0    5.84   634.4    3.2      60.792
2014    9       26     1   5    5.84   634.4    3.2      60.789
2014    9       26     1  11    5.84   634.4    3.1      60.786
2014    9       26     1  16    5.84   634.4    3.1      60.784
2014    9       26     1  22    5.84   634.4    3.1      60.780
2014    9       26     1  27    5.83   634.3    3.1      60.777
2014    9       26     1  32    5.83   634.3    3.1      60.773
2014    9       26     1  38    5.83   634.3    3.1      60.769
2014    9       26     1  43    5.83   634.3    3.1      60.765
2014    9       26     1  49    5.83   634.3    3.1      60.761
2014    9       26     1  54    5.83   634.3    3.1      60.756
2014    9       26     1  59    5.82   634.3    3.1      60.752
2014    9       26     2   5    5.82   634.3    3.1      60.747
2014    9       26     2  10    5.82   634.2    3.1      60.742
2014    9       26     2  16    5.82   634.2    3.1      60.737
2014    9       26     2  21    5.82   634.2    3.1      60.732
2014    9       26     2  27    5.82   634.2    3.1      60.727
2014    9       26     2  32    5.81   634.2    3.1      60.721
2014    9       26     2  37    5.81   634.1    3.1      60.716
2014    9       26     2  43    5.81   634.1    3.1      60.712
2014    9       26     2  48    5.81   634.1    3.1      60.707
2014    9       26     2  54    5.81   634.1    3.1      60.702
2014    9       26     2  59    5.81   634.1    3.1      60.698
2014    9       26     3   4    5.80   634.0    3.1      60.694
2014    9       26     3  10    5.80   634.0    3.1      60.690
2014    9       26     3  15    5.80   634.0    3.1      60.686
2014    9       26     3  21    5.80   634.0    3.1      60.683
2014    9       26     3  26    5.80   634.0    3.1      60.680
2014    9       26     3  31    5.80   633.9    3.1      60.677
2014    9       26     3  37    5.79   633.9    3.1      60.674
2014    9       26     3  42    5.79   633.9    3.1      60.671
2014    9       26     3  48    5.79   633.9    3.1      60.669
2014    9       26     3  53    5.79   633.9    3.1      60.666
2014    9       26     3  58    5.79   633.8    3.1      60.663
2014    9       26     4   4    5.79   633.8    3.1      60.660
2014    9       26     4   9    5.78   633.8    3.1      60.657
2014    9       26     4  15    5.78   633.8    3.1      60.654
2014    9       26     4  20    5.78   633.7    3.1      60.651
2014    9       26     4  25    5.78   633.7    3.1      60.648
2014    9       26     4  31    5.78   633.7    3.1      60.644
2014    9       26     4  36    5.78   633.7    3.1      60.639
2014    9       26     4  42    5.78   633.6    3.1      60.634
2014    9       26     4  47    5.77   633.6    3.1      60.629
2014    9       26     4  52    5.77   633.6    3.1      60.624
2014    9       26     4  58    5.77   633.6    3.1      60.617
2014    9       26     5   3    5.77   633.5    3.1      60.611
2014    9       26     5   9    5.77   633.5    3.1      60.604
2014    9       26     5  14    5.77   633.5    3.1      60.596
2014    9       26     5  20    5.76   633.4    3.1      60.589
2014    9       26     5  25    5.76   633.4    3.1      60.580
2014    9       26     5  30    5.76   633.4    3.1      60.571
2014    9       26     5  36    5.76   633.4    3.1      60.562
2014    9       26     5  41    5.76   633.3    3.1      60.553
2014    9       26     5  47    5.76   633.3    3.1      60.542
2014    9       26     5  52    5.75   633.3    3.1      60.532
2014    9       26     5  57    5.75   633.2    3.1      60.521
2014    9       26     6   3    5.75   633.2    3.1      60.510
2014    9       26     6   8    5.75   633.2    3.1      60.499
2014    9       26     6  14    5.75   633.1    3.1      60.487
2014    9       26     6  19    5.75   633.1    3.1      60.475
2014    9       26     6  24    5.75   633.1    3.1      60.463
2014    9       26     6  30    5.74   633.0    3.1      60.451
2014    9       26     6  35    5.74   633.0    3.1      60.438
2014    9       26     6  41    5.74   633.0    3.1      60.426
2014    9       26     6  46    5.74   632.9    3.1      60.413
2014    9       26     6  51    5.74   632.9    3.1      60.400
2014    9       26     6  57    5.74   632.9    3.1      60.388
2014    9       26     7   2    5.73   632.8    3.1      60.375
2014    9       26     7   8    5.73   632.8    3.1      60.362
2014    9       26     7  13    5.73   632.8    3.1      60.349
2014    9       26     7  18    5.73   632.7    3.1      60.336
2014    9       26     7  24    5.73   632.7    3.1      60.324
2014    9       26     7  29    5.73   632.6    3.1      60.311
2014    9       26     7  35    5.72   632.6    3.1      60.298
2014    9       26     7  40    5.72   632.5    3.1      60.286
2014    9       26     7  46    5.72   632.5    3.1      60.274
2014    9       26     7  51    5.72   632.5    3.1      60.262
2014    9       26     7  56    5.72   632.4    3.1      60.250
2014    9       26     8   2    5.72   632.4    3.1      60.238
2014    9       26     8   7    5.71   632.3    3.1      60.227
2014    9       26     8  13    5.71   632.3    3.1      60.215
2014    9       26     8  18    5.71   632.2    3.1      60.204
2014    9       26     8  23    5.71   632.2    3.1      60.194
2014    9       26     8  29    5.71   632.1    3.1      60.183
2014    9       26     8  34    5.71   632.1    3.1      60.172
2014    9       26     8  40    5.70   632.0    3.1      60.163
2014    9       26     8  45    5.70   632.0    3.1      60.153
2014    9       26     8  50    5.70   632.0    3.1      60.143
2014    9       26     8  56    5.70   631.9    3.1      60.134
2014    9       26     9   1    5.70   631.9    3.1      60.125
2014    9       26     9   7    5.70   631.8    3.1      60.116
2014    9       26     9  12    5.70   631.8    3.1      60.108
2014    9       26     9  17    5.69   631.7    3.1      60.099
2014    9       26     9  23    5.69   631.7    3.1      60.092
2014    9       26     9  28    5.69   631.6    3.1      60.084
2014    9       26     9  34    5.69   631.6    3.1      60.077
2014    9       26     9  39    5.69   631.5    3.1      60.070
2014    9       26     9  44    5.69   631.5    3.1      60.063
2014    9       26     9  50    5.68   631.4    3.1      60.057
2014    9       26     9  55    5.68   631.4    3.1      60.050
2014    9       26    10   1    5.68   631.3    3.1      60.044
2014    9       26    10   6    5.68   631.3    3.1      60.039
2014    9       26    10  11    5.68   631.2    3.1      60.033
2014    9       26    10  17    5.68   631.2    3.1      60.028
2014    9       26    10  22    5.67   631.1    3.1      60.023
2014    9       26    10  28    5.67   631.1    3.1      60.018
2014    9       26    10  33    5.67   631.0    3.1      60.013
2014    9       26    10  39    5.67   631.0    3.1      60.008
2014    9       26    10  44    5.67   630.9    3.1      60.003
2014    9       26    10  49    5.67   630.9    3.1      59.998
2014    9       26    10  55    5.66   630.8    3.1      59.993
2014    9       26    11   0    5.66   630.8    3.1      59.988
2014    9       26    11   6    5.66   630.7    3.1      59.983
2014    9       26    11  11    5.66   630.6    3.1      59.978
2014    9       26    11  16    5.66   630.6    3.1      59.973
2014    9       26    11  22    5.66   630.5    3.1      59.967
2014    9       26    11  27    5.66   630.5    3.1      59.962
2014    9       26    11  33    5.65   630.4    3.1      59.956
2014    9       26    11  38    5.65   630.3    3.1      59.950
2014    9       26    11  43    5.65   630.3    3.1      59.944
2014    9       26    11  49    5.65   630.2    3.1      59.938
2014    9       26    11  54    5.65   630.2    3.1      59.931
2014    9       26    12   0    5.65   630.1    3.1      59.925
2014    9       26    12   5    5.64   630.0    3.1      59.918
2014    9       26    12  10    5.64   630.0    3.1      59.911
2014    9       26    12  16    5.64   629.9    3.1      59.903
2014    9       26    12  21    5.64   629.8    3.1      59.895
2014    9       26    12  27    5.64   629.8    3.1      59.887
2014    9       26    12  32    5.64   629.7    3.1      59.879
2014    9       26    12  37    5.63   629.6    3.1      59.870
2014    9       26    12  43    5.63   629.6    3.1      59.861
2014    9       26    12  48    5.63   629.5    3.1      59.852
2014    9       26    12  54    5.63   629.4    3.1      59.842
2014    9       26    12  59    5.63   629.4    3.1      59.831
2014    9       26    13   5    5.63   629.3    3.1      59.821
2014    9       26    13  10    5.62   629.2    3.1      59.809
2014    9       26    13  15    5.62   629.1    3.1      59.797
2014    9       26    13  21    5.62   629.1    3.1      59.785
2014    9       26    13  26    5.62   629.0    3.1      59.772
2014    9       26    13  32    5.62   628.9    3.1      59.759
2014    9       26    13  37    5.62   628.8    3.1      59.745
2014    9       26    13  42    5.61   628.8    3.1      59.731
2014    9       26    13  48    5.61   628.7    3.1      59.716
2014    9       26    13  53    5.61   628.6    3.1      59.701
2014    9       26    13  59    5.61   628.5    3.1      59.686
2014    9       26    14   4    5.61   628.5    3.1      59.670
2014    9       26    14   9    5.61   628.4    3.1      59.653
2014    9       26    14  15    5.60   628.3    3.1      59.637
2014    9       26    14  20    5.60   628.2    3.1      59.620
2014    9       26    14  26    5.60   628.1    3.1      59.602
2014    9       26    14  31    5.60   628.0    3.1      59.584
2014    9       26    14  36    5.60   628.0    3.1      59.566
2014    9       26    14  42    5.60   627.9    3.1      59.548
2014    9       26    14  47    5.59   627.8    3.1      59.529
2014    9       26    14  53    5.59   627.7    3.1      59.510
2014    9       26    14  58    5.59   627.6    3.1      59.491
2014    9       26    15   3    5.59   627.5    3.1      59.472
2014    9       26    15   9    5.59   627.4    3.1      59.453
2014    9       26    15  14    5.59   627.3    3.1      59.434
2014    9       26    15  20    5.58   627.3    3.1      59.414
2014    9       26    15  25    5.58   627.2    3.1      59.395
2014    9       26    15  30    5.58   627.1    3.1      59.376
2014    9       26    15  36    5.58   627.0    3.1      59.357
2014    9       26    15  41    5.58   626.9    3.1      59.338
2014    9       26    15  47    5.57   626.8    3.1      59.319
2014    9       26    15  52    5.57   626.7    3.1      59.301
2014    9       26    15  58    5.57   626.6    3.1      59.283
2014    9       26    16   3    5.57   626.5    3.1      59.265
2014    9       26    16   8    5.57   626.4    3.1      59.248
2014    9       26    16  14    5.57   626.3    3.1      59.231
2014    9       26    16  19    5.56   626.2    3.1      59.215
2014    9       26    16  25    5.56   626.1    3.1      59.198
2014    9       26    16  30    5.56   626.1    3.1      59.182
2014    9       26    16  35    5.56   626.0    3.1      59.167
2014    9       26    16  41    5.56   625.9    3.1      59.152
2014    9       26    16  46    5.56   625.8    3.1      59.137
2014    9       26    16  52    5.55   625.7    3.1      59.122
2014    9       26    16  57    5.55   625.6    3.1      59.108
2014    9       26    17   2    5.55   625.5    3.1      59.094
2014    9       26    17   8    5.55   625.4    3.1      59.080
2014    9       26    17  13    5.55   625.3    3.1      59.066
2014    9       26    17  19    5.55   625.2    3.1      59.053
2014    9       26    17  24    5.54   625.1    3.1      59.039
2014    9       26    17  29    5.54   625.0    3.1      59.026
2014    9       26    17  35    5.54   625.0    3.1      59.012
2014    9       26    17  40    5.54   624.9    3.1      58.999
2014    9       26    17  46    5.54   624.8    3.1      58.985
2014    9       26    17  51    5.54   624.7    3.1      58.971
2014    9       26    17  56    5.53   624.6    3.1      58.957
2014    9       26    18   2    5.53   624.5    3.1      58.943
2014    9       26    18   7    5.53   624.4    3.1      58.929
2014    9       26    18  13    5.53   624.3    3.1      58.915
2014    9       26    18  18    5.53   624.2    3.1      58.900
2014    9       26    18  23    5.53   624.1    3.1      58.885
2014    9       26    18  29    5.52   624.0    3.1      58.870
2014    9       26    18  34    5.52   623.9    3.1      58.855
2014    9       26    18  40    5.52   623.8    3.1      58.839
2014    9       26    18  45    5.52   623.7    3.1      58.824
2014    9       26    18  51    5.52   623.6    3.1      58.808
2014    9       26    18  56    5.51   623.5    3.1      58.793
2014    9       26    19   1    5.51   623.4    3.1      58.777
2014    9       26    19   7    5.51   623.3    3.1      58.762
2014    9       26    19  12    5.51   623.1    3.1      58.747
2014    9       26    19  18    5.51   623.0    3.1      58.731
2014    9       26    19  23    5.51   622.9    3.1      58.717
2014    9       26    19  28    5.50   622.8    3.1      58.702
2014    9       26    19  34    5.50   622.7    3.1      58.687
2014    9       26    19  39    5.50   622.6    3.1      58.673
2014    9       26    19  45    5.50   622.5    3.1      58.659
2014    9       26    19  50    5.50   622.4    3.1      58.645
2014    9       26    19  55    5.50   622.3    3.1      58.632
2014    9       26    20   1    5.49   622.1    3.1      58.618
2014    9       26    20   6    5.49   622.0    3.1      58.605
2014    9       26    20  12    5.49   621.9    3.1      58.592
2014    9       26    20  17    5.49   621.8    3.1      58.579
2014    9       26    20  22    5.49   621.7    3.1      58.567
2014    9       26    20  28    5.49   621.6    3.1      58.554
2014    9       26    20  33    5.48   621.5    3.1      58.541
2014    9       26    20  39    5.48   621.3    3.1      58.529
2014    9       26    20  44    5.48   621.2    3.1      58.516
2014    9       26    20  49    5.48   621.1    3.1      58.503
2014    9       26    20  55    5.48   621.0    3.1      58.490
2014    9       26    21   0    5.48   620.9    3.1      58.477
2014    9       26    21   6    5.47   620.7    3.1      58.463
2014    9       26    21  11    5.47   620.6    3.1      58.450
2014    9       26    21  17    5.47   620.5    3.1      58.436
2014    9       26    21  22    5.47   620.4    3.1      58.421
2014    9       26    21  27    5.47   620.2    3.1      58.407
2014    9       26    21  33    5.46   620.1    3.1      58.392
2014    9       26    21  38    5.46   620.0    3.1      58.377
2014    9       26    21  44    5.46   619.9    3.1      58.361
2014    9       26    21  49    5.46   619.7    3.1      58.346
2014    9       26    21  54    5.46   619.6    3.1      58.330
2014    9       26    22   0    5.46   619.5    3.1      58.314
2014    9       26    22   5    5.45   619.4    3.1      58.297
2014    9       26    22  11    5.45   619.2    3.1      58.281
2014    9       26    22  16    5.45   619.1    3.1      58.263
2014    9       26    22  21    5.45   619.0    3.1      58.246
2014    9       26    22  27    5.45   618.9    3.1      58.228
2014    9       26    22  32    5.45   618.7    3.1      58.210
2014    9       26    22  38    5.44   618.6    3.1      58.191
2014    9       26    22  43    5.44   618.5    3.1      58.173
2014    9       26    22  48    5.44   618.4    3.1      58.154
2014    9       26    22  54    5.44   618.2    3.1      58.135
2014    9       26    22  59    5.44   618.1    3.1      58.116
2014    9       26    23   5    5.44   618.0    3.1      58.097
2014    9       26    23  10    5.43   617.9    3.1      58.078
2014    9       26    23  15    5.43   617.7    3.1      58.059
2014    9       26    23  21    5.43   617.6    3.1      58.040
2014    9       26    23  26    5.43   617.5    3.1      58.020
2014    9       26    23  32    5.43   617.4    3.1      58.002
2014    9       26    23  37    5.42   617.2    3.1      57.983
2014    9       26    23  42    5.42   617.1    3.1      57.964
2014    9       26    23  48    5.42   617.0    3.1      57.945
2014    9       26    23  53    5.42   616.8    3.1      57.927
2014    9       26    23  59    5.42   616.7    3.1      57.908
2014    9       27     0   4    5.42   616.6    3.1      57.890
2014    9       27     0   9    5.41   616.5    3.1      57.872
2014    9       27     0  15    5.41   616.3    3.1      57.854
2014    9       27     0  20    5.41   616.2    3.1      57.837
2014    9       27     0  26    5.41   616.1    3.1      57.819
2014    9       27     0  31    5.41   615.9    3.1      57.802
2014    9       27     0  37    5.41   615.8    3.1      57.785
2014    9       27     0  42    5.40   615.7    3.1      57.768
2014    9       27     0  47    5.40   615.6    3.1      57.751
2014    9       27     0  53    5.40   615.4    3.1      57.735
2014    9       27     0  58    5.40   615.3    3.1      57.718
2014    9       27     1   4    5.40   615.2    3.1      57.702
2014    9       27     1   9    5.40   615.0    3.1      57.685
2014    9       27     1  14    5.39   614.9    3.1      57.669
2014    9       27     1  20    5.39   614.8    3.1      57.652
2014    9       27     1  25    5.39   614.6    3.1      57.635
2014    9       27     1  31    5.39   614.5    3.1      57.618
2014    9       27     1  36    5.39   614.4    3.1      57.601
2014    9       27     1  41    5.38   614.3    3.1      57.584
2014    9       27     1  47    5.38   614.1    3.1      57.566
2014    9       27     1  52    5.38   614.0    3.1      57.548
2014    9       27     1  58    5.38   613.9    3.1      57.530
2014    9       27     2   3    5.38   613.7    3.1      57.512
2014    9       27     2   8    5.38   613.6    3.1      57.493
2014    9       27     2  14    5.37   613.5    3.1      57.474
2014    9       27     2  19    5.37   613.3    3.1      57.455
2014    9       27     2  25    5.37   613.2    3.1      57.435
2014    9       27     2  30    5.37   613.0    3.1      57.415
2014    9       27     2  35    5.37   612.9    3.1      57.395
2014    9       27     2  41    5.37   612.8    3.1      57.375
2014    9       27     2  46    5.36   612.6    3.1      57.355
2014    9       27     2  52    5.36   612.5    3.1      57.334
2014    9       27     2  57    5.36   612.3    3.1      57.314
2014    9       27     3   2    5.36   612.2    3.1      57.293
2014    9       27     3   8    5.36   612.1    3.1      57.273
2014    9       27     3  13    5.35   611.9    3.1      57.252
2014    9       27     3  19    5.35   611.8    3.1      57.232
2014    9       27     3  24    5.35   611.6    3.1      57.212
2014    9       27     3  30    5.35   611.5    3.1      57.192
2014    9       27     3  35    5.35   611.4    3.1      57.172
2014    9       27     3  40    5.35   611.2    3.1      57.151
2014    9       27     3  46    5.34   611.1    3.1      57.131
2014    9       27     3  51    5.34   610.9    3.1      57.112
2014    9       27     3  57    5.34   610.8    3.1      57.092
2014    9       27     4   2    5.34   610.6    3.1      57.072
2014    9       27     4   7    5.34   610.5    3.1      57.053
2014    9       27     4  13    5.34   610.3    3.1      57.033
2014    9       27     4  18    5.33   610.2    3.1      57.014
2014    9       27     4  24    5.33   610.0    3.1      56.995
2014    9       27     4  29    5.33   609.9    3.1      56.977
2014    9       27     4  34    5.33   609.7    3.1      56.958
2014    9       27     4  40    5.33   609.6    3.1      56.940
2014    9       27     4  45    5.33   609.4    3.1      56.922
2014    9       27     4  51    5.32   609.3    3.1      56.904
2014    9       27     4  56    5.32   609.1    3.1      56.887
2014    9       27     5   1    5.32   609.0    3.1      56.870
2014    9       27     5   7    5.32   608.8    3.1      56.853
2014    9       27     5  12    5.32   608.7    3.1      56.837
2014    9       27     5  18    5.32   608.5    3.1      56.821
2014    9       27     5  23    5.31   608.4    3.1      56.805
2014    9       27     5  28    5.31   608.2    3.1      56.790
2014    9       27     5  34    5.31   608.1    3.1      56.775
2014    9       27     5  39    5.31   607.9    3.1      56.760
2014    9       27     5  45    5.31   607.8    3.1      56.745
2014    9       27     5  50    5.31   607.6    3.1      56.731
2014    9       27     5  56    5.30   607.4    3.1      56.716
2014    9       27     6   1    5.30   607.3    3.1      56.702
2014    9       27     6   6    5.30   607.1    3.1      56.687
2014    9       27     6  12    5.30   607.0    3.1      56.672
2014    9       27     6  17    5.30   606.8    3.1      56.658
2014    9       27     6  23    5.30   606.7    3.1      56.643
2014    9       27     6  28    5.29   606.5    3.1      56.628
2014    9       27     6  33    5.29   606.4    3.1      56.613
2014    9       27     6  39    5.29   606.2    3.1      56.598
2014    9       27     6  44    5.29   606.1    3.1      56.582
2014    9       27     6  50    5.29   605.9    3.1      56.566
2014    9       27     6  55    5.29   605.8    3.1      56.550
2014    9       27     7   0    5.28   605.6    3.1      56.534
2014    9       27     7   6    5.28   605.4    3.1      56.518
2014    9       27     7  11    5.28   605.3    3.1      56.501
2014    9       27     7  17    5.28   605.1    3.1      56.485
2014    9       27     7  22    5.28   605.0    3.1      56.468
2014    9       27     7  27    5.28   604.8    3.1      56.451
2014    9       27     7  33    5.27   604.7    3.1      56.434
2014    9       27     7  38    5.27   604.5    3.1      56.417
2014    9       27     7  44    5.27   604.3    3.1      56.400
2014    9       27     7  49    5.27   604.2    3.1      56.383
2014    9       27     7  54    5.27   604.0    3.1      56.366
2014    9       27     8   0    5.27   603.9    3.1      56.350
2014    9       27     8   5    5.27   603.7    3.1      56.333
2014    9       27     8  11    5.26   603.6    3.1      56.316
2014    9       27     8  16    5.26   603.4    3.1      56.300
2014    9       27     8  21    5.26   603.2    3.1      56.284
2014    9       27     8  27    5.26   603.1    3.1      56.267
2014    9       27     8  32    5.26   602.9    3.1      56.251
2014    9       27     8  38    5.26   602.8    3.1      56.236
2014    9       27     8  43    5.25   602.6    3.1      56.220
2014    9       27     8  48    5.25   602.5    3.1      56.205
2014    9       27     8  54    5.25   602.3    3.1      56.189
2014    9       27     8  59    5.25   602.2    3.1      56.174
2014    9       27     9   5    5.25   602.0    3.1      56.159
2014    9       27     9  10    5.25   601.8    3.1      56.144
2014    9       27     9  16    5.25   601.7    3.1      56.128
2014    9       27     9  21    5.24   601.5    3.1      56.113
2014    9       27     9  26    5.24   601.4    3.1      56.098
2014    9       27     9  32    5.24   601.2    3.1      56.083
2014    9       27     9  37    5.24   601.1    3.1      56.068
2014    9       27     9  43    5.24   600.9    3.1      56.053
2014    9       27     9  48    5.24   600.8    3.1      56.038
2014    9       27     9  53    5.23   600.6    3.1      56.023
2014    9       27     9  59    5.23   600.5    3.1      56.008
2014    9       27    10   4    5.23   600.3    3.1      55.992
2014    9       27    10  10    5.23   600.2    3.1      55.976
2014    9       27    10  15    5.23   600.0    3.1      55.961
2014    9       27    10  20    5.23   599.9    3.1      55.944
2014    9       27    10  26    5.23   599.7    3.1      55.928
2014    9       27    10  31    5.22   599.6    3.1      55.911
2014    9       27    10  37    5.22   599.4    3.1      55.895
2014    9       27    10  42    5.22   599.2    3.1      55.877
2014    9       27    10  47    5.22   599.1    3.1      55.860
2014    9       27    10  53    5.22   598.9    3.1      55.842
2014    9       27    10  58    5.22   598.8    3.1      55.824
2014    9       27    11   4    5.22   598.6    3.1      55.805
2014    9       27    11   9    5.21   598.5    3.1      55.786
2014    9       27    11  14    5.21   598.3    3.1      55.767
2014    9       27    11  20    5.21   598.2    3.1      55.748
2014    9       27    11  25    5.21   598.0    3.1      55.728
2014    9       27    11  31    5.21   597.8    3.1      55.708
2014    9       27    11  36    5.21   597.7    3.1      55.688
2014    9       27    11  42    5.20   597.5    3.1      55.668
2014    9       27    11  47    5.20   597.4    3.1      55.648
2014    9       27    11  52    5.20   597.2    3.1      55.627
2014    9       27    11  58    5.20   597.1    3.1      55.607
2014    9       27    12   3    5.20   596.9    3.1      55.587
2014    9       27    12   9    5.20   596.7    3.1      55.567
2014    9       27    12  14    5.19   596.6    3.1      55.547
2014    9       27    12  19    5.19   596.4    3.1      55.527
2014    9       27    12  25    5.19   596.3    3.1      55.507
2014    9       27    12  30    5.19   596.1    3.1      55.488
2014    9       27    12  36    5.19   595.9    3.1      55.468
2014    9       27    12  41    5.19   595.8    3.1      55.449
2014    9       27    12  46    5.19   595.6    3.1      55.431
2014    9       27    12  52    5.18   595.4    3.1      55.413
2014    9       27    12  57    5.18   595.3    3.1      55.395
2014    9       27    13   3    5.18   595.1    3.1      55.377
2014    9       27    13   8    5.18   594.9    3.1      55.360
2014    9       27    13  13    5.18   594.8    3.1      55.343
2014    9       27    13  19    5.18   594.6    3.1      55.327
2014    9       27    13  24    5.18   594.4    3.2      55.311
2014    9       27    13  30    5.17   594.3    3.2      55.295
2014    9       27    13  35    5.17   594.1    3.2      55.280
2014    9       27    13  40    5.17   593.9    3.2      55.266
2014    9       27    13  46    5.17   593.7    3.2      55.252
2014    9       27    13  51    5.17   593.6    3.2      55.238
2014    9       27    13  57    5.17   593.4    3.2      55.224
2014    9       27    14   2    5.17   593.2    3.2      55.211
2014    9       27    14   7    5.16   593.1    3.2      55.199
2014    9       27    14  13    5.16   592.9    3.2      55.186
2014    9       27    14  18    5.16   592.7    3.2      55.174
2014    9       27    14  24    5.16   592.5    3.2      55.163
2014    9       27    14  29    5.16   592.4    3.2      55.151
2014    9       27    14  35    5.16   592.2    3.2      55.140
2014    9       27    14  40    5.16   592.0    3.2      55.129
2014    9       27    14  45    5.16   591.8    3.2      55.118
2014    9       27    14  51    5.15   591.7    3.2      55.107
2014    9       27    14  56    5.15   591.5    3.2      55.096
2014    9       27    15   2    5.15   591.3    3.2      55.085
2014    9       27    15   7    5.15   591.2    3.2      55.075
2014    9       27    15  12    5.15   591.0    3.2      55.064
2014    9       27    15  18    5.15   590.8    3.2      55.053
2014    9       27    15  23    5.15   590.7    3.2      55.043
2014    9       27    15  29    5.15   590.5    3.2      55.032
2014    9       27    15  34    5.14   590.3    3.2      55.021
2014    9       27    15  39    5.14   590.1    3.2      55.010
2014    9       27    15  45    5.14   590.0    3.2      54.999
2014    9       27    15  50    5.14   589.8    3.2      54.988
2014    9       27    15  56    5.14   589.6    3.2      54.976
2014    9       27    16   1    5.14   589.5    3.2      54.964
2014    9       27    16   6    5.14   589.3    3.2      54.952
2014    9       27    16  12    5.14   589.1    3.2      54.940
2014    9       27    16  17    5.13   589.0    3.2      54.928
2014    9       27    16  23    5.13   588.8    3.2      54.916
2014    9       27    16  28    5.13   588.6    3.2      54.903
2014    9       27    16  33    5.13   588.5    3.2      54.891
2014    9       27    16  39    5.13   588.3    3.2      54.879
2014    9       27    16  44    5.13   588.2    3.2      54.867
2014    9       27    16  50    5.13   588.0    3.2      54.854
2014    9       27    16  55    5.13   587.8    3.2      54.842
2014    9       27    17   0    5.12   587.7    3.2      54.830
2014    9       27    17   6    5.12   587.5    3.2      54.817
2014    9       27    17  11    5.12   587.3    3.2      54.805
2014    9       27    17  17    5.12   587.2    3.2      54.792
2014    9       27    17  22    5.12   587.0    3.2      54.780
2014    9       27    17  28    5.12   586.9    3.2      54.768
2014    9       27    17  33    5.12   586.7    3.2      54.755
2014    9       27    17  38    5.12   586.5    3.2      54.742
2014    9       27    17  44    5.11   586.4    3.2      54.730
2014    9       27    17  49    5.11   586.2    3.2      54.717
2014    9       27    17  55    5.11   586.1    3.2      54.704
2014    9       27    18   0    5.11   585.9    3.2      54.690
2014    9       27    18   5    5.11   585.7    3.2      54.677
2014    9       27    18  11    5.11   585.6    3.2      54.664
2014    9       27    18  16    5.11   585.4    3.2      54.650
2014    9       27    18  22    5.11   585.2    3.2      54.637
2014    9       27    18  27    5.10   585.1    3.2      54.623
2014    9       27    18  32    5.10   584.9    3.2      54.610
2014    9       27    18  38    5.10   584.7    3.2      54.596
2014    9       27    18  43    5.10   584.6    3.2      54.582
2014    9       27    18  49    5.10   584.4    3.2      54.568
2014    9       27    18  54    5.10   584.2    3.2      54.554
2014    9       27    18  59    5.10   584.1    3.2      54.541
2014    9       27    19   5    5.10   583.9    3.2      54.527
2014    9       27    19  10    5.09   583.8    3.2      54.513
2014    9       27    19  16    5.09   583.6    3.2      54.499
2014    9       27    19  21    5.09   583.4    3.2      54.485
2014    9       27    19  26    5.09   583.3    3.2      54.471
2014    9       27    19  32    5.09   583.1    3.2      54.457
2014    9       27    19  37    5.09   582.9    3.2      54.443
2014    9       27    19  43    5.09   582.8    3.2      54.429
2014    9       27    19  48    5.09   582.6    3.2      54.415
2014    9       27    19  53    5.08   582.4    3.2      54.401
2014    9       27    19  59    5.08   582.3    3.2      54.387
2014    9       27    20   4    5.08   582.1    3.2      54.373
2014    9       27    20  10    5.08   581.9    3.2      54.359
2014    9       27    20  15    5.08   581.8    3.2      54.345
2014    9       27    20  21    5.08   581.6    3.2      54.331
2014    9       27    20  26    5.08   581.4    3.2      54.317
2014    9       27    20  31    5.08   581.3    3.2      54.303
2014    9       27    20  37    5.07   581.1    3.2      54.289
2014    9       27    20  42    5.07   580.9    3.2      54.275
2014    9       27    20  48    5.07   580.8    3.2      54.262
2014    9       27    20  53    5.07   580.6    3.2      54.249
2014    9       27    20  58    5.07   580.4    3.2      54.236
2014    9       27    21   4    5.07   580.3    3.2      54.223
2014    9       27    21   9    5.07   580.1    3.2      54.210
2014    9       27    21  15    5.07   579.9    3.2      54.198
2014    9       27    21  20    5.07   579.8    3.2      54.186
2014    9       27    21  25    5.06   579.6    3.2      54.175
2014    9       27    21  31    5.06   579.4    3.2      54.163
2014    9       27    21  36    5.06   579.3    3.2      54.152
2014    9       27    21  42    5.06   579.1    3.2      54.141
2014    9       27    21  47    5.06   578.9    3.2      54.131
2014    9       27    21  52    5.06   578.8    3.2      54.121
2014    9       27    21  58    5.06   578.6    3.2      54.111
2014    9       27    22   3    5.06   578.4    3.2      54.101
2014    9       27    22   9    5.06   578.3    3.2      54.091
2014    9       27    22  14    5.06   578.1    3.3      54.081
2014    9       27    22  19    5.05   577.9    3.3      54.072
2014    9       27    22  25    5.05   577.8    3.3      54.063
2014    9       27    22  30    5.05   577.6    3.3      54.054
2014    9       27    22  36    5.05   577.4    3.3      54.045
2014    9       27    22  41    5.05   577.3    3.3      54.037
2014    9       27    22  46    5.05   577.1    3.3      54.028
2014    9       27    22  52    5.05   576.9    3.3      54.020
2014    9       27    22  57    5.05   576.8    3.3      54.011
2014    9       27    23   3    5.05   576.6    3.3      54.002
2014    9       27    23   8    5.05   576.5    3.3      53.993
2014    9       27    23  14    5.04   576.3    3.3      53.984
2014    9       27    23  19    5.04   576.1    3.3      53.975
2014    9       27    23  24    5.04   576.0    3.3      53.966
2014    9       27    23  30    5.04   575.8    3.3      53.957
2014    9       27    23  35    5.04   575.7    3.3      53.948
2014    9       27    23  41    5.04   575.5    3.3      53.939
2014    9       27    23  46    5.04   575.3    3.3      53.930
2014    9       27    23  51    5.04   575.2    3.3      53.921
2014    9       27    23  57    5.04   575.0    3.3      53.912
2014    9       28     0   2    5.04   574.9    3.3      53.902
2014    9       28     0   8    5.04   574.7    3.3      53.893
2014    9       28     0  13    5.03   574.5    3.3      53.883
2014    9       28     0  18    5.03   574.4    3.3      53.873
2014    9       28     0  24    5.03   574.2    3.3      53.864
2014    9       28     0  29    5.03   574.1    3.3      53.853
2014    9       28     0  35    5.03   573.9    3.3      53.843
2014    9       28     0  40    5.03   573.7    3.3      53.833
2014    9       28     0  45    5.03   573.6    3.3      53.822
2014    9       28     0  51    5.03   573.4    3.3      53.812
2014    9       28     0  56    5.03   573.3    3.3      53.801
2014    9       28     1   2    5.03   573.1    3.3      53.790
2014    9       28     1   7    5.02   572.9    3.3      53.779
2014    9       28     1  12    5.02   572.8    3.3      53.768
2014    9       28     1  18    5.02   572.6    3.3      53.756
2014    9       28     1  23    5.02   572.5    3.3      53.745
2014    9       28     1  29    5.02   572.3    3.3      53.734
2014    9       28     1  34    5.02   572.1    3.3      53.722
2014    9       28     1  39    5.02   572.0    3.3      53.711
2014    9       28     1  45    5.02   571.8    3.3      53.699
2014    9       28     1  50    5.02   571.7    3.3      53.688
2014    9       28     1  56    5.02   571.5    3.3      53.677
2014    9       28     2   1    5.01   571.3    3.3      53.665
2014    9       28     2   7    5.01   571.2    3.3      53.654
2014    9       28     2  12    5.01   571.0    3.3      53.643
2014    9       28     2  17    5.01   570.9    3.3      53.632
2014    9       28     2  23    5.01   570.7    3.3      53.621
2014    9       28     2  28    5.01   570.5    3.3      53.611
2014    9       28     2  34    5.01   570.4    3.3      53.600
2014    9       28     2  39    5.01   570.2    3.3      53.590
2014    9       28     2  44    5.01   570.1    3.3      53.579
2014    9       28     2  50    5.01   569.9    3.3      53.569
2014    9       28     2  55    5.01   569.7    3.3      53.559
2014    9       28     3   1    5.01   569.6    3.3      53.548
2014    9       28     3   6    5.00   569.4    3.3      53.538
2014    9       28     3  11    5.00   569.3    3.3      53.528
2014    9       28     3  17    5.00   569.1    3.3      53.517
2014    9       28     3  22    5.00   568.9    3.3      53.507
2014    9       28     3  28    5.00   568.8    3.3      53.496
2014    9       28     3  33    5.00   568.6    3.3      53.486
2014    9       28     3  38    5.00   568.5    3.3      53.475
2014    9       28     3  44    5.00   568.3    3.3      53.464
2014    9       28     3  49    5.00   568.1    3.3      53.453
2014    9       28     3  55    5.00   568.0    3.3      53.442
2014    9       28     4   0    5.00   567.8    3.3      53.431
2014    9       28     4   5    4.99   567.7    3.3      53.420
2014    9       28     4  11    4.99   567.5    3.3      53.408
2014    9       28     4  16    4.99   567.3    3.3      53.396
2014    9       28     4  22    4.99   567.2    3.3      53.384
2014    9       28     4  27    4.99   567.0    3.3      53.372
2014    9       28     4  33    4.99   566.9    3.3      53.359
2014    9       28     4  38    4.99   566.7    3.3      53.347
2014    9       28     4  43    4.99   566.6    3.3      53.334
2014    9       28     4  49    4.99   566.4    3.3      53.321
2014    9       28     4  54    4.99   566.2    3.3      53.307
2014    9       28     5   0    4.99   566.1    3.3      53.294
2014    9       28     5   5    4.99   565.9    3.3      53.281
2014    9       28     5  10    4.98   565.8    3.3      53.267
2014    9       28     5  16    4.98   565.6    3.3      53.253
2014    9       28     5  21    4.98   565.4    3.3      53.239
2014    9       28     5  27    4.98   565.3    3.3      53.225
2014    9       28     5  32    4.98   565.1    3.3      53.211
2014    9       28     5  37    4.98   565.0    3.3      53.197
2014    9       28     5  43    4.98   564.8    3.3      53.182
2014    9       28     5  48    4.98   564.6    3.3      53.169
2014    9       28     5  54    4.98   564.5    3.3      53.154
2014    9       28     5  59    4.98   564.3    3.3      53.141
2014    9       28     6   4    4.98   564.2    3.4      53.127
2014    9       28     6  10    4.98   564.0    3.4      53.113
2014    9       28     6  15    4.97   563.8    3.4      53.099
2014    9       28     6  21    4.97   563.7    3.4      53.086
2014    9       28     6  26    4.97   563.5    3.4      53.073
2014    9       28     6  31    4.97   563.4    3.4      53.060
2014    9       28     6  37    4.97   563.2    3.4      53.047
2014    9       28     6  42    4.97   563.1    3.4      53.034
2014    9       28     6  48    4.97   562.9    3.4      53.022
2014    9       28     6  53    4.97   562.7    3.4      53.010
2014    9       28     6  58    4.97   562.6    3.4      52.998
2014    9       28     7   4    4.97   562.4    3.4      52.986
2014    9       28     7   9    4.97   562.3    3.4      52.974
2014    9       28     7  15    4.97   562.1    3.4      52.963
2014    9       28     7  20    4.97   562.0    3.4      52.952
2014    9       28     7  26    4.97   561.8    3.4      52.941
2014    9       28     7  31    4.96   561.7    3.4      52.930
2014    9       28     7  36    4.96   561.5    3.4      52.919
2014    9       28     7  42    4.96   561.4    3.4      52.908
2014    9       28     7  47    4.96   561.2    3.4      52.897
2014    9       28     7  53    4.96   561.1    3.4      52.887
2014    9       28     7  58    4.96   560.9    3.4      52.876
2014    9       28     8   3    4.96   560.8    3.4      52.865
2014    9       28     8   9    4.96   560.6    3.4      52.855
2014    9       28     8  14    4.96   560.5    3.4      52.844
2014    9       28     8  20    4.96   560.3    3.4      52.834
2014    9       28     8  25    4.96   560.2    3.4      52.823
2014    9       28     8  30    4.96   560.0    3.4      52.813
2014    9       28     8  36    4.96   559.9    3.4      52.802
2014    9       28     8  41    4.96   559.7    3.4      52.791
2014    9       28     8  47    4.96   559.6    3.4      52.781
2014    9       28     8  52    4.96   559.4    3.4      52.770
2014    9       28     8  57    4.95   559.3    3.4      52.759
2014    9       28     9   3    4.95   559.1    3.4      52.748
2014    9       28     9   8    4.95   559.0    3.4      52.737
2014    9       28     9  14    4.95   558.8    3.4      52.725
2014    9       28     9  19    4.95   558.7    3.4      52.714
2014    9       28     9  24    4.95   558.5    3.4      52.703
2014    9       28     9  30    4.95   558.4    3.4      52.691
2014    9       28     9  35    4.95   558.2    3.4      52.680
2014    9       28     9  41    4.95   558.1    3.4      52.668
2014    9       28     9  46    4.95   557.9    3.4      52.656
2014    9       28     9  51    4.95   557.8    3.4      52.644
2014    9       28     9  57    4.95   557.6    3.4      52.632
2014    9       28    10   2    4.95   557.5    3.4      52.619
2014    9       28    10   8    4.94   557.3    3.4      52.607
2014    9       28    10  13    4.94   557.2    3.4      52.594
2014    9       28    10  19    4.94   557.0    3.4      52.581
2014    9       28    10  24    4.94   556.9    3.4      52.568
2014    9       28    10  29    4.94   556.7    3.4      52.555
2014    9       28    10  35    4.94   556.6    3.4      52.542
2014    9       28    10  40    4.94   556.4    3.4      52.529
2014    9       28    10  46    4.94   556.3    3.4      52.516
2014    9       28    10  51    4.94   556.1    3.4      52.503
2014    9       28    10  56    4.94   555.9    3.4      52.490
2014    9       28    11   2    4.94   555.8    3.4      52.477
2014    9       28    11   7    4.94   555.6    3.4      52.464
2014    9       28    11  13    4.94   555.5    3.4      52.450
2014    9       28    11  18    4.94   555.3    3.4      52.438
2014    9       28    11  23    4.93   555.2    3.4      52.425
2014    9       28    11  29    4.93   555.0    3.4      52.412
2014    9       28    11  34    4.93   554.9    3.4      52.399
2014    9       28    11  40    4.93   554.7    3.4      52.386
2014    9       28    11  45    4.93   554.6    3.4      52.374
2014    9       28    11  50    4.93   554.4    3.4      52.361
2014    9       28    11  56    4.93   554.3    3.4      52.349
2014    9       28    12   1    4.93   554.1    3.4      52.336
2014    9       28    12   7    4.93   554.0    3.4      52.324
2014    9       28    12  12    4.93   553.8    3.4      52.311
2014    9       28    12  17    4.93   553.6    3.4      52.299
2014    9       28    12  23    4.93   553.5    3.4      52.286
2014    9       28    12  28    4.93   553.3    3.4      52.273
2014    9       28    12  34    4.93   553.2    3.4      52.261
2014    9       28    12  39    4.92   553.0    3.4      52.248
2014    9       28    12  44    4.92   552.9    3.4      52.234
2014    9       28    12  50    4.92   552.7    3.4      52.221
2014    9       28    12  55    4.92   552.5    3.4      52.207
2014    9       28    13   1    4.92   552.4    3.4      52.192
2014    9       28    13   6    4.92   552.2    3.4      52.178
2014    9       28    13  12    4.92   552.1    3.4      52.162
2014    9       28    13  17    4.92   551.9    3.4      52.147
2014    9       28    13  22    4.92   551.8    3.4      52.131
2014    9       28    13  28    4.92   551.6    3.4      52.115
2014    9       28    13  33    4.92   551.4    3.4      52.098
2014    9       28    13  39    4.92   551.3    3.4      52.082
2014    9       28    13  44    4.92   551.1    3.5      52.065
2014    9       28    13  49    4.92   551.0    3.5      52.047
2014    9       28    13  55    4.92   550.8    3.5      52.030
2014    9       28    14   0    4.92   550.7    3.5      52.012
2014    9       28    14   6    4.92   550.5    3.5      51.995
2014    9       28    14  11    4.91   550.4    3.5      51.977
2014    9       28    14  16    4.91   550.2    3.5      51.959
2014    9       28    14  22    4.91   550.1    3.5      51.941
2014    9       28    14  27    4.91   549.9    3.5      51.923
2014    9       28    14  33    4.91   549.7    3.5      51.904
2014    9       28    14  38    4.91   549.6    3.5      51.886
2014    9       28    14  43    4.91   549.4    3.5      51.868
2014    9       28    14  49    4.91   549.3    3.5      51.850
2014    9       28    14  54    4.91   549.1    3.5      51.832
2014    9       28    15   0    4.91   549.0    3.5      51.814
2014    9       28    15   5    4.91   548.8    3.5      51.796
2014    9       28    15  10    4.91   548.7    3.5      51.778
2014    9       28    15  16    4.91   548.5    3.5      51.760
2014    9       28    15  21    4.91   548.4    3.5      51.742
2014    9       28    15  27    4.91   548.2    3.5      51.724
2014    9       28    15  32    4.91   548.1    3.5      51.706
2014    9       28    15  38    4.91   547.9    3.5      51.689
2014    9       28    15  43    4.91   547.8    3.5      51.671
2014    9       28    15  48    4.91   547.7    3.5      51.654
2014    9       28    15  54    4.90   547.5    3.5      51.636
2014    9       28    15  59    4.90   547.4    3.5      51.619
2014    9       28    16   5    4.90   547.2    3.5      51.602
2014    9       28    16  10    4.90   547.1    3.5      51.585
2014    9       28    16  15    4.90   546.9    3.5      51.569
2014    9       28    16  21    4.90   546.8    3.5      51.552
2014    9       28    16  26    4.90   546.6    3.5      51.536
2014    9       28    16  32    4.90   546.5    3.5      51.519
2014    9       28    16  37    4.90   546.3    3.5      51.503
2014    9       28    16  42    4.90   546.2    3.5      51.488
2014    9       28    16  48    4.90   546.0    3.5      51.472
2014    9       28    16  53    4.90   545.9    3.5      51.457
2014    9       28    16  59    4.90   545.7    3.5      51.441
2014    9       28    17   4    4.90   545.6    3.5      51.426
2014    9       28    17   9    4.90   545.4    3.5      51.412
2014    9       28    17  15    4.90   545.3    3.5      51.397
2014    9       28    17  20    4.90   545.1    3.5      51.383
2014    9       28    17  26    4.89   545.0    3.5      51.368
2014    9       28    17  31    4.89   544.8    3.5      51.354
2014    9       28    17  36    4.89   544.7    3.5      51.340
2014    9       28    17  42    4.89   544.5    3.5      51.326
2014    9       28    17  47    4.89   544.4    3.5      51.312
2014    9       28    17  53    4.89   544.2    3.5      51.298
2014    9       28    17  58    4.89   544.1    3.5      51.284
2014    9       28    18   3    4.89   543.9    3.5      51.270
2014    9       28    18   9    4.89   543.8    3.5      51.257
2014    9       28    18  14    4.89   543.6    3.5      51.243
2014    9       28    18  20    4.89   543.5    3.5      51.229
2014    9       28    18  25    4.89   543.3    3.5      51.215
2014    9       28    18  31    4.89   543.2    3.5      51.201
2014    9       28    18  36    4.89   543.0    3.5      51.187
2014    9       28    18  41    4.89   542.9    3.5      51.173
2014    9       28    18  47    4.89   542.7    3.5      51.159
2014    9       28    18  52    4.89   542.6    3.5      51.145
2014    9       28    18  58    4.89   542.4    3.5      51.131
2014    9       28    19   3    4.88   542.3    3.5      51.117
2014    9       28    19   8    4.88   542.1    3.5      51.102
2014    9       28    19  14    4.88   542.0    3.5      51.088
2014    9       28    19  19    4.88   541.8    3.5      51.074
2014    9       28    19  25    4.88   541.6    3.5      51.060
2014    9       28    19  30    4.88   541.5    3.5      51.046
2014    9       28    19  35    4.88   541.3    3.5      51.032
2014    9       28    19  41    4.88   541.2    3.5      51.019
2014    9       28    19  46    4.88   541.0    3.5      51.005
2014    9       28    19  52    4.88   540.9    3.5      50.992
2014    9       28    19  57    4.88   540.7    3.5      50.978
2014    9       28    20   2    4.88   540.6    3.5      50.965
2014    9       28    20   8    4.88   540.4    3.5      50.952
2014    9       28    20  13    4.88   540.3    3.5      50.939
2014    9       28    20  19    4.88   540.1    3.5      50.925
2014    9       28    20  24    4.88   539.9    3.6      50.912
2014    9       28    20  29    4.88   539.8    3.6      50.898
2014    9       28    20  35    4.88   539.6    3.6      50.884
2014    9       28    20  40    4.88   539.5    3.6      50.870
2014    9       28    20  46    4.88   539.3    3.6      50.854
2014    9       28    20  51    4.87   539.2    3.6      50.838
2014    9       28    20  56    4.87   539.0    3.6      50.822
2014    9       28    21   2    4.87   538.9    3.6      50.804
2014    9       28    21   7    4.87   538.7    3.6      50.787
2014    9       28    21  13    4.87   538.6    3.6      50.769
2014    9       28    21  18    4.87   538.4    3.6      50.750
2014    9       28    21  24    4.87   538.3    3.6      50.730
2014    9       28    21  29    4.87   538.1    3.6      50.711
2014    9       28    21  34    4.87   538.0    3.6      50.690
2014    9       28    21  40    4.87   537.8    3.6      50.669
2014    9       28    21  45    4.87   537.6    3.6      50.648
2014    9       28    21  51    4.87   537.5    3.6      50.627
2014    9       28    21  56    4.87   537.3    3.6      50.605
2014    9       28    22   1    4.87   537.2    3.6      50.583
2014    9       28    22   7    4.87   537.0    3.6      50.560
2014    9       28    22  12    4.87   536.9    3.6      50.538
2014    9       28    22  18    4.87   536.7    3.6      50.514
2014    9       28    22  23    4.87   536.6    3.6      50.491
2014    9       28    22  28    4.87   536.4    3.6      50.468
2014    9       28    22  34    4.87   536.3    3.6      50.444
2014    9       28    22  39    4.87   536.1    3.6      50.420
2014    9       28    22  45    4.87   536.0    3.6      50.395
2014    9       28    22  50    4.86   535.8    3.6      50.371
2014    9       28    22  55    4.86   535.7    3.6      50.347
2014    9       28    23   1    4.86   535.5    3.6      50.322
2014    9       28    23   6    4.86   535.4    3.6      50.298
2014    9       28    23  12    4.86   535.2    3.6      50.273
2014    9       28    23  17    4.86   535.1    3.6      50.249
2014    9       28    23  22    4.86   534.9    3.6      50.224
2014    9       28    23  28    4.86   534.8    3.6      50.199
2014    9       28    23  33    4.86   534.6    3.6      50.175
2014    9       28    23  39    4.86   534.5    3.6      50.150
2014    9       28    23  44    4.86   534.3    3.6      50.126
2014    9       28    23  50    4.86   534.2    3.6      50.102
2014    9       28    23  55    4.86   534.0    3.6      50.078
2014    9       29     0   0    4.86   533.8    3.6      50.054
2014    9       29     0   6    4.86   533.7    3.6      50.030
2014    9       29     0  11    4.86   533.5    3.6      50.007
2014    9       29     0  17    4.86   533.4    3.6      49.984
2014    9       29     0  22    4.86   533.2    3.6      49.961
2014    9       29     0  27    4.86   533.1    3.6      49.939
2014    9       29     0  33    4.86   532.9    3.6      49.918
2014    9       29     0  38    4.85   532.8    3.6      49.896
2014    9       29     0  44    4.85   532.6    3.6      49.876
2014    9       29     0  49    4.85   532.5    3.6      49.855
2014    9       29     0  54    4.85   532.3    3.6      49.836
2014    9       29     1   0    4.85   532.1    3.6      49.816
2014    9       29     1   5    4.85   532.0    3.6      49.797
2014    9       29     1  11    4.85   531.8    3.6      49.779
2014    9       29     1  16    4.85   531.7    3.6      49.761
2014    9       29     1  21    4.85   531.5    3.6      49.744
2014    9       29     1  27    4.85   531.4    3.6      49.727
2014    9       29     1  32    4.85   531.2    3.6      49.710
2014    9       29     1  38    4.85   531.1    3.6      49.693
2014    9       29     1  43    4.85   530.9    3.6      49.677
2014    9       29     1  48    4.85   530.7    3.6      49.661
2014    9       29     1  54    4.85   530.6    3.6      49.645
2014    9       29     1  59    4.85   530.4    3.6      49.629
2014    9       29     2   5    4.85   530.3    3.6      49.614
2014    9       29     2  10    4.85   530.1    3.6      49.598
2014    9       29     2  15    4.85   530.0    3.6      49.582
2014    9       29     2  21    4.85   529.8    3.6      49.566
2014    9       29     2  26    4.85   529.7    3.6      49.551
2014    9       29     2  32    4.85   529.5    3.6      49.535
2014    9       29     2  37    4.85   529.4    3.6      49.519
2014    9       29     2  43    4.85   529.2    3.6      49.503
2014    9       29     2  48    4.84   529.0    3.6      49.486
2014    9       29     2  53    4.84   528.9    3.6      49.470
2014    9       29     2  59    4.84   528.7    3.6      49.454
2014    9       29     3   4    4.84   528.6    3.6      49.437
2014    9       29     3  10    4.84   528.4    3.7      49.420
2014    9       29     3  15    4.84   528.3    3.7      49.404
2014    9       29     3  20    4.84   528.1    3.7      49.387
2014    9       29     3  26    4.84   528.0    3.7      49.370
2014    9       29     3  31    4.84   527.8    3.7      49.353
2014    9       29     3  37    4.84   527.6    3.7      49.336
2014    9       29     3  42    4.84   527.5    3.7      49.319
2014    9       29     3  47    4.84   527.3    3.7      49.302
2014    9       29     3  53    4.84   527.2    3.7      49.285
2014    9       29     3  58    4.84   527.0    3.7      49.268
2014    9       29     4   4    4.84   526.9    3.7      49.251
2014    9       29     4   9    4.84   526.7    3.7      49.234
2014    9       29     4  14    4.84   526.5    3.7      49.217
2014    9       29     4  20    4.84   526.4    3.7      49.199
2014    9       29     4  25    4.84   526.2    3.7      49.182
2014    9       29     4  31    4.84   526.1    3.7      49.164
2014    9       29     4  36    4.84   525.9    3.7      49.145
2014    9       29     4  41    4.84   525.8    3.7      49.127
2014    9       29     4  47    4.84   525.6    3.7      49.109
2014    9       29     4  52    4.84   525.4    3.7      49.090
2014    9       29     4  58    4.84   525.3    3.7      49.071
2014    9       29     5   3    4.84   525.1    3.7      49.051
2014    9       29     5   8    4.84   525.0    3.7      49.032
2014    9       29     5  14    4.84   524.8    3.7      49.012
2014    9       29     5  19    4.84   524.6    3.7      48.992
2014    9       29     5  25    4.84   524.5    3.7      48.971
2014    9       29     5  30    4.83   524.3    3.7      48.950
2014    9       29     5  36    4.83   524.2    3.7      48.929
2014    9       29     5  41    4.83   524.0    3.7      48.907
2014    9       29     5  46    4.83   523.9    3.7      48.885
2014    9       29     5  52    4.83   523.7    3.7      48.862
2014    9       29     5  57    4.83   523.5    3.7      48.839
2014    9       29     6   3    4.83   523.4    3.7      48.815
2014    9       29     6   8    4.83   523.2    3.7      48.791
2014    9       29     6  13    4.83   523.1    3.7      48.766
2014    9       29     6  19    4.83   522.9    3.7      48.741
2014    9       29     6  24    4.83   522.8    3.7      48.716
2014    9       29     6  30    4.83   522.6    3.7      48.691
2014    9       29     6  35    4.83   522.4    3.7      48.665
2014    9       29     6  40    4.83   522.3    3.7      48.639
2014    9       29     6  46    4.83   522.1    3.7      48.612
2014    9       29     6  51    4.83   522.0    3.7      48.586
2014    9       29     6  57    4.83   521.8    3.7      48.559
2014    9       29     7   2    4.83   521.7    3.7      48.532
2014    9       29     7   7    4.83   521.5    3.7      48.505
2014    9       29     7  13    4.83   521.3    3.7      48.477
2014    9       29     7  18    4.83   521.2    3.7      48.450
2014    9       29     7  24    4.83   521.0    3.7      48.422
2014    9       29     7  29    4.83   520.9    3.7      48.395
2014    9       29     7  34    4.83   520.7    3.7      48.367
2014    9       29     7  40    4.83   520.6    3.7      48.339
2014    9       29     7  45    4.83   520.4    3.7      48.311
2014    9       29     7  51    4.82   520.2    3.7      48.284
2014    9       29     7  56    4.82   520.1    3.7      48.256
2014    9       29     8   2    4.82   519.9    3.7      48.228
2014    9       29     8   7    4.82   519.8    3.7      48.200
2014    9       29     8  12    4.82   519.6    3.7      48.172
2014    9       29     8  18    4.82   519.4    3.7      48.145
2014    9       29     8  23    4.82   519.3    3.7      48.117
2014    9       29     8  29    4.82   519.1    3.7      48.090
2014    9       29     8  34    4.82   518.9    3.7      48.063
2014    9       29     8  39    4.82   518.8    3.7      48.037
2014    9       29     8  45    4.82   518.6    3.7      48.011
2014    9       29     8  50    4.82   518.4    3.7      47.984
2014    9       29     8  56    4.82   518.3    3.7      47.959
2014    9       29     9   1    4.82   518.1    3.7      47.934
2014    9       29     9   6    4.82   517.9    3.7      47.909
2014    9       29     9  12    4.82   517.8    3.7      47.885
2014    9       29     9  17    4.82   517.6    3.7      47.861
2014    9       29     9  23    4.82   517.4    3.7      47.837
2014    9       29     9  28    4.82   517.3    3.7      47.814
2014    9       29     9  33    4.82   517.1    3.7      47.792
2014    9       29     9  39    4.82   516.9    3.7      47.770
2014    9       29     9  44    4.82   516.8    3.7      47.748
2014    9       29     9  50    4.82   516.6    3.8      47.727
2014    9       29     9  55    4.82   516.4    3.8      47.706
2014    9       29    10   0    4.82   516.3    3.8      47.685
2014    9       29    10   6    4.82   516.1    3.8      47.665
2014    9       29    10  11    4.82   516.0    3.8      47.645
2014    9       29    10  17    4.82   515.8    3.8      47.625
2014    9       29    10  22    4.82   515.6    3.8      47.606
2014    9       29    10  27    4.82   515.5    3.8      47.587
2014    9       29    10  33    4.82   515.3    3.8      47.568
2014    9       29    10  38    4.82   515.1    3.8      47.548
2014    9       29    10  44    4.82   515.0    3.8      47.529
2014    9       29    10  49    4.82   514.8    3.8      47.510
2014    9       29    10  55    4.82   514.7    3.8      47.491
2014    9       29    11   0    4.82   514.5    3.8      47.472
2014    9       29    11   5    4.82   514.3    3.8      47.453
2014    9       29    11  11    4.82   514.2    3.8      47.433
2014    9       29    11  16    4.81   514.0    3.8      47.413
2014    9       29    11  22    4.81   513.8    3.8      47.393
2014    9       29    11  27    4.81   513.7    3.8      47.373
2014    9       29    11  32    4.81   513.5    3.8      47.353
2014    9       29    11  38    4.81   513.3    3.8      47.333
2014    9       29    11  43    4.81   513.2    3.8      47.312
2014    9       29    11  49    4.81   513.0    3.8      47.292
2014    9       29    11  54    4.81   512.8    3.8      47.271
2014    9       29    11  59    4.81   512.7    3.8      47.251
2014    9       29    12   5    4.81   512.5    3.8      47.230
2014    9       29    12  10    4.81   512.3    3.8      47.209
2014    9       29    12  16    4.81   512.2    3.8      47.188
2014    9       29    12  21    4.81   512.0    3.8      47.168
2014    9       29    12  26    4.81   511.8    3.8      47.147
2014    9       29    12  32    4.81   511.7    3.8      47.126
2014    9       29    12  37    4.81   511.5    3.8      47.105
2014    9       29    12  43    4.81   511.3    3.8      47.084
2014    9       29    12  48    4.81   511.2    3.8      47.063
2014    9       29    12  53    4.81   511.0    3.8      47.042
2014    9       29    12  59    4.81   510.8    3.8      47.021
2014    9       29    13   4    4.81   510.7    3.8      46.999
2014    9       29    13  10    4.81   510.5    3.8      46.978
2014    9       29    13  15    4.81   510.3    3.8      46.956
2014    9       29    13  21    4.81   510.1    3.8      46.933
2014    9       29    13  26    4.81   510.0    3.8      46.910
2014    9       29    13  31    4.81   509.8    3.8      46.887
2014    9       29    13  37    4.81   509.6    3.8      46.863
2014    9       29    13  42    4.81   509.5    3.8      46.839
2014    9       29    13  48    4.81   509.3    3.8      46.815
2014    9       29    13  53    4.81   509.1    3.8      46.791
2014    9       29    13  58    4.81   509.0    3.9      46.766
2014    9       29    14   4    4.81   508.8    3.9      46.741
2014    9       29    14   9    4.81   508.6    3.9      46.715
2014    9       29    14  15    4.81   508.5    3.9      46.689
2014    9       29    14  20    4.81   508.3    3.9      46.663
2014    9       29    14  25    4.81   508.1    3.9      46.637
2014    9       29    14  31    4.81   508.0    3.9      46.611
2014    9       29    14  36    4.81   507.8    3.9      46.584
2014    9       29    14  42    4.81   507.6    3.9      46.557
2014    9       29    14  47    4.81   507.5    3.9      46.530
2014    9       29    14  52    4.81   507.3    3.9      46.502
2014    9       29    14  58    4.81   507.1    3.9      46.475
2014    9       29    15   3    4.81   507.0    3.9      46.447
2014    9       29    15   9    4.81   506.8    3.9      46.419
2014    9       29    15  14    4.81   506.6    3.9      46.391
2014    9       29    15  19    4.81   506.4    3.9      46.363
2014    9       29    15  25    4.81   506.3    3.9      46.334
2014    9       29    15  30    4.81   506.1    3.9      46.306
2014    9       29    15  36    4.81   505.9    3.9      46.278
2014    9       29    15  41    4.81   505.8    3.9      46.249
2014    9       29    15  47    4.81   505.6    3.9      46.221
2014    9       29    15  52    4.81   505.4    3.9      46.192
2014    9       29    15  57    4.81   505.2    3.9      46.163
2014    9       29    16   3    4.81   505.1    3.9      46.135
2014    9       29    16   8    4.81   504.9    3.9      46.107
2014    9       29    16  14    4.81   504.7    3.9      46.078
2014    9       29    16  19    4.81   504.5    3.9      46.050
2014    9       29    16  24    4.81   504.4    3.9      46.022
2014    9       29    16  30    4.81   504.2    3.9      45.994
2014    9       29    16  35    4.81   504.0    3.9      45.967
2014    9       29    16  41    4.81   503.8    3.9      45.939
2014    9       29    16  46    4.81   503.7    3.9      45.912
2014    9       29    16  51    4.81   503.5    3.9      45.885
2014    9       29    16  57    4.81   503.3    3.9      45.858
2014    9       29    17   2    4.81   503.1    3.9      45.831
2014    9       29    17   8    4.81   503.0    3.9      45.805
2014    9       29    17  13    4.81   502.8    3.9      45.779
2014    9       29    17  18    4.81   502.6    3.9      45.753
2014    9       29    17  24    4.81   502.4    3.9      45.728
2014    9       29    17  29    4.81   502.3    3.9      45.703
2014    9       29    17  35    4.81   502.1    3.9      45.678
2014    9       29    17  40    4.81   501.9    3.9      45.653
2014    9       29    17  45    4.81   501.8    3.9      45.628
2014    9       29    17  51    4.81   501.6    3.9      45.604
2014    9       29    17  56    4.81   501.4    3.9      45.580
2014    9       29    18   2    4.81   501.2    3.9      45.556
2014    9       29    18   7    4.81   501.1    4.0      45.532
2014    9       29    18  12    4.81   500.9    4.0      45.508
2014    9       29    18  18    4.81   500.7    4.0      45.484
2014    9       29    18  23    4.81   500.6    4.0      45.460
2014    9       29    18  29    4.81   500.4    4.0      45.436
2014    9       29    18  34    4.81   500.2    4.0      45.412
2014    9       29    18  40    4.81   500.0    4.0      45.388
2014    9       29    18  45    4.81   499.9    4.0      45.364
2014    9       29    18  50    4.81   499.7    4.0      45.340
2014    9       29    18  56    4.81   499.5    4.0      45.315
2014    9       29    19   1    4.81   499.3    4.0      45.291
2014    9       29    19   7    4.81   499.2    4.0      45.267
2014    9       29    19  12    4.81   499.0    4.0      45.242
2014    9       29    19  17    4.81   498.8    4.0      45.218
2014    9       29    19  23    4.81   498.6    4.0      45.193
2014    9       29    19  28    4.81   498.4    4.0      45.168
2014    9       29    19  34    4.81   498.3    4.0      45.143
2014    9       29    19  39    4.81   498.1    4.0      45.118
2014    9       29    19  44    4.81   497.9    4.0      45.094
2014    9       29    19  50    4.81   497.7    4.0      45.069
2014    9       29    19  55    4.81   497.6    4.0      45.044
2014    9       29    20   1    4.81   497.4    4.0      45.019
2014    9       29    20   6    4.81   497.2    4.0      44.994
2014    9       29    20  11    4.81   497.0    4.0      44.968
2014    9       29    20  17    4.81   496.9    4.0      44.943
2014    9       29    20  22    4.81   496.7    4.0      44.918
2014    9       29    20  28    4.81   496.5    4.0      44.892
2014    9       29    20  33    4.81   496.3    4.0      44.867
2014    9       29    20  38    4.81   496.1    4.0      44.841
2014    9       29    20  44    4.81   496.0    4.0      44.816
2014    9       29    20  49    4.82   495.8    4.0      44.790
2014    9       29    20  55    4.82   495.6    4.0      44.764
2014    9       29    21   0    4.82   495.4    4.0      44.738
2014    9       29    21   5    4.82   495.2    4.0      44.712
2014    9       29    21  11    4.82   495.1    4.0      44.685
2014    9       29    21  16    4.82   494.9    4.0      44.659
2014    9       29    21  22    4.82   494.7    4.0      44.632
2014    9       29    21  27    4.82   494.5    4.0      44.606
2014    9       29    21  33    4.82   494.3    4.1      44.579
2014    9       29    21  38    4.82   494.2    4.1      44.552
2014    9       29    21  43    4.82   494.0    4.1      44.525
2014    9       29    21  49    4.82   493.8    4.1      44.498
2014    9       29    21  54    4.82   493.6    4.1      44.471
2014    9       29    22   0    4.82   493.4    4.1      44.443
2014    9       29    22   5    4.82   493.3    4.1      44.416
2014    9       29    22  10    4.82   493.1    4.1      44.389
2014    9       29    22  16    4.82   492.9    4.1      44.361
2014    9       29    22  21    4.82   492.7    4.1      44.334
2014    9       29    22  27    4.82   492.5    4.1      44.307
2014    9       29    22  32    4.82   492.4    4.1      44.279
2014    9       29    22  37    4.82   492.2    4.1      44.252
2014    9       29    22  43    4.82   492.0    4.1      44.225
2014    9       29    22  48    4.82   491.8    4.1      44.197
2014    9       29    22  54    4.82   491.6    4.1      44.170
2014    9       29    22  59    4.82   491.5    4.1      44.143
2014    9       29    23   4    4.83   491.3    4.1      44.116
2014    9       29    23  10    4.83   491.1    4.1      44.089
2014    9       29    23  15    4.83   490.9    4.1      44.062
2014    9       29    23  21    4.83   490.7    4.1      44.035
2014    9       29    23  26    4.83   490.6    4.1      44.008
2014    9       29    23  31    4.83   490.4    4.1      43.980
2014    9       29    23  37    4.83   490.2    4.1      43.954
2014    9       29    23  42    4.83   490.0    4.1      43.927
2014    9       29    23  48    4.83   489.8    4.1      43.900
2014    9       29    23  53    4.83   489.7    4.1      43.873
2014    9       29    23  59    4.83   489.5    4.1      43.846
2014    9       30     0   4    4.83   489.3    4.1      43.819
2014    9       30     0   9    4.83   489.1    4.1      43.792
2014    9       30     0  15    4.83   488.9    4.1      43.766
2014    9       30     0  20    4.83   488.8    4.1      43.739
2014    9       30     0  26    4.83   488.6    4.1      43.712
2014    9       30     0  31    4.83   488.4    4.2      43.686
2014    9       30     0  36    4.84   488.2    4.2      43.659
2014    9       30     0  42    4.84   488.0    4.2      43.632
2014    9       30     0  47    4.84   487.9    4.2      43.605
2014    9       30     0  53    4.84   487.7    4.2      43.579
2014    9       30     0  58    4.84   487.5    4.2      43.552
2014    9       30     1   3    4.84   487.3    4.2      43.526
2014    9       30     1   9    4.84   487.1    4.2      43.499
2014    9       30     1  14    4.84   487.0    4.2      43.472
2014    9       30     1  20    4.84   486.8    4.2      43.446
2014    9       30     1  25    4.84   486.6    4.2      43.419
2014    9       30     1  30    4.84   486.4    4.2      43.393
2014    9       30     1  36    4.84   486.3    4.2      43.366
2014    9       30     1  41    4.84   486.1    4.2      43.339
2014    9       30     1  47    4.84   485.9    4.2      43.313
2014    9       30     1  52    4.85   485.7    4.2      43.286
2014    9       30     1  57    4.85   485.5    4.2      43.259
2014    9       30     2   3    4.85   485.3    4.2      43.232
2014    9       30     2   8    4.85   485.2    4.2      43.206
2014    9       30     2  14    4.85   485.0    4.2      43.179
2014    9       30     2  19    4.85   484.8    4.2      43.152
2014    9       30     2  24    4.85   484.6    4.2      43.125
2014    9       30     2  30    4.85   484.4    4.2      43.098
2014    9       30     2  35    4.85   484.3    4.2      43.071
2014    9       30     2  41    4.85   484.1    4.2      43.044
2014    9       30     2  46    4.85   483.9    4.2      43.017
2014    9       30     2  52    4.85   483.7    4.2      42.990
2014    9       30     2  57    4.86   483.5    4.3      42.963
2014    9       30     3   2    4.86   483.4    4.3      42.936
2014    9       30     3   8    4.86   483.2    4.3      42.909
2014    9       30     3  13    4.86   483.0    4.3      42.882
2014    9       30     3  19    4.86   482.8    4.3      42.855
2014    9       30     3  24    4.86   482.6    4.3      42.828
2014    9       30     3  29    4.86   482.5    4.3      42.801
2014    9       30     3  35    4.86   482.3    4.3      42.774
2014    9       30     3  40    4.86   482.1    4.3      42.748
2014    9       30     3  46    4.86   481.9    4.3      42.721
2014    9       30     3  51    4.86   481.7    4.3      42.694
2014    9       30     3  56    4.87   481.5    4.3      42.667
2014    9       30     4   2    4.87   481.4    4.3      42.641
2014    9       30     4   7    4.87   481.2    4.3      42.615
2014    9       30     4  13    4.87   481.0    4.3      42.589
2014    9       30     4  18    4.87   480.8    4.3      42.563
2014    9       30     4  23    4.87   480.6    4.3      42.537
2014    9       30     4  29    4.87   480.5    4.3      42.511
2014    9       30     4  34    4.87   480.3    4.3      42.485
2014    9       30     4  40    4.88   480.1    4.3      42.460
2014    9       30     4  45    4.88   479.9    4.3      42.435
2014    9       30     4  50    4.88   479.7    4.3      42.410
2014    9       30     4  56    4.88   479.6    4.3      42.385
2014    9       30     5   1    4.88   479.4    4.3      42.361
2014    9       30     5   7    4.88   479.2    4.3      42.336
2014    9       30     5  12    4.88   479.0    4.4      42.312
2014    9       30     5  18    4.88   478.9    4.4      42.288
2014    9       30     5  23    4.89   478.7    4.4      42.264
2014    9       30     5  28    4.89   478.5    4.4      42.240
2014    9       30     5  34    4.89   478.3    4.4      42.216
2014    9       30     5  39    4.89   478.2    4.4      42.192
2014    9       30     5  45    4.89   478.0    4.4      42.169
2014    9       30     5  50    4.89   477.8    4.4      42.145
2014    9       30     5  55    4.90   477.7    4.4      42.122
2014    9       30     6   1    4.90   477.5    4.4      42.098
2014    9       30     6   6    4.90   477.3    4.4      42.075
2014    9       30     6  12    4.90   477.1    4.4      42.051
2014    9       30     6  17    4.90   477.0    4.4      42.028
2014    9       30     6  22    4.90   476.8    4.4      42.005
2014    9       30     6  28    4.90   476.6    4.4      41.981
2014    9       30     6  33    4.91   476.5    4.4      41.958
2014    9       30     6  39    4.91   476.3    4.4      41.934
2014    9       30     6  44    4.91   476.1    4.4      41.911
2014    9       30     6  49    4.91   476.0    4.4      41.887
2014    9       30     6  55    4.91   475.8    4.4      41.864
2014    9       30     7   0    4.91   475.6    4.4      41.840
2014    9       30     7   6    4.92   475.5    4.4      41.816
2014    9       30     7  11    4.92   475.3    4.5      41.793
2014    9       30     7  16    4.92   475.1    4.5      41.769
2014    9       30     7  22    4.92   475.0    4.5      41.745
2014    9       30     7  27    4.92   474.8    4.5      41.722
2014    9       30     7  33    4.92   474.6    4.5      41.698
2014    9       30     7  38    4.93   474.5    4.5      41.674
2014    9       30     7  44    4.93   474.3    4.5      41.651
2014    9       30     7  49    4.93   474.1    4.5      41.627
2014    9       30     7  54    4.93   474.0    4.5      41.603
2014    9       30     8   0    4.93   473.8    4.5      41.580
2014    9       30     8   5    4.93   473.7    4.5      41.556
2014    9       30     8  11    4.94   473.5    4.5      41.533
2014    9       30     8  16    4.94   473.3    4.5      41.510
2014    9       30     8  21    4.94   473.2    4.5      41.486
2014    9       30     8  27    4.94   473.0    4.5      41.463
2014    9       30     8  32    4.94   472.8    4.5      41.441
2014    9       30     8  38    4.94   472.7    4.5      41.418
2014    9       30     8  43    4.95   472.5    4.5      41.395
2014    9       30     8  48    4.95   472.4    4.5      41.373
2014    9       30     8  54    4.95   472.2    4.5      41.351
2014    9       30     8  59    4.95   472.0    4.6      41.329
2014    9       30     9   5    4.95   471.9    4.6      41.307
2014    9       30     9  10    4.95   471.7    4.6      41.286
2014    9       30     9  15    4.96   471.6    4.6      41.265
2014    9       30     9  21    4.96   471.4    4.6      41.244
2014    9       30     9  26    4.96   471.3    4.6      41.224
2014    9       30     9  32    4.96   471.1    4.6      41.203
2014    9       30     9  37    4.96   470.9    4.6      41.183
2014    9       30     9  42    4.97   470.8    4.6      41.164
2014    9       30     9  48    4.97   470.6    4.6      41.144
2014    9       30     9  53    4.97   470.5    4.6      41.125
2014    9       30     9  59    4.97   470.3    4.6      41.106
2014    9       30    10   4    4.97   470.2    4.6      41.087
2014    9       30    10   9    4.98   470.0    4.6      41.069
2014    9       30    10  15    4.98   469.9    4.6      41.051
2014    9       30    10  20    4.98   469.7    4.6      41.033
2014    9       30    10  26    4.98   469.6    4.6      41.015
2014    9       30    10  31    4.98   469.4    4.7      40.998
2014    9       30    10  37    4.99   469.3    4.7      40.980
2014    9       30    10  42    4.99   469.1    4.7      40.963
2014    9       30    10  47    4.99   469.0    4.7      40.946
2014    9       30    10  53    4.99   468.8    4.7      40.929
2014    9       30    10  58    5.00   468.7    4.7      40.913
2014    9       30    11   4    5.00   468.6    4.7      40.896
2014    9       30    11   9    5.00   468.4    4.7      40.880
2014    9       30    11  14    5.00   468.3    4.7      40.864
2014    9       30    11  20    5.00   468.1    4.7      40.848
2014    9       30    11  25    5.01   468.0    4.7      40.833
2014    9       30    11  31    5.01   467.8    4.7      40.818
2014    9       30    11  36    5.01   467.7    4.7      40.802
2014    9       30    11  41    5.01   467.6    4.7      40.787
2014    9       30    11  47    5.02   467.4    4.7      40.772
2014    9       30    11  52    5.02   467.3    4.7      40.758
2014    9       30    11  58    5.02   467.1    4.7      40.743
2014    9       30    12   3    5.02   467.0    4.8      40.728
2014    9       30    12   8    5.03   466.9    4.8      40.713
2014    9       30    12  14    5.03   466.7    4.8      40.699
2014    9       30    12  19    5.03   466.6    4.8      40.684
2014    9       30    12  25    5.03   466.5    4.8      40.669
2014    9       30    12  30    5.04   466.3    4.8      40.655
2014    9       30    12  35    5.04   466.2    4.8      40.641
2014    9       30    12  41    5.04   466.1    4.8      40.626
2014    9       30    12  46    5.04   465.9    4.8      40.612
2014    9       30    12  52    5.05   465.8    4.8      40.597
2014    9       30    12  57    5.05   465.7    4.8      40.583
2014    9       30    13   3    5.05   465.6    4.8      40.568
2014    9       30    13   8    5.05   465.4    4.8      40.554
2014    9       30    13  13    5.06   465.3    4.8      40.539
2014    9       30    13  19    5.06   465.2    4.8      40.525
2014    9       30    13  24    5.06   465.1    4.8      40.511
2014    9       30    13  30    5.06   464.9    4.8      40.496
2014    9       30    13  35    5.07   464.8    4.9      40.481
2014    9       30    13  40    5.07   464.7    4.9      40.467
2014    9       30    13  46    5.07   464.6    4.9      40.452
2014    9       30    13  51    5.07   464.5    4.9      40.437
2014    9       30    13  57    5.08   464.3    4.9      40.423
2014    9       30    14   2    5.08   464.2    4.9      40.408
2014    9       30    14   7    5.08   464.1    4.9      40.393
2014    9       30    14  13    5.08   464.0    4.9      40.378
2014    9       30    14  18    5.09   463.9    4.9      40.363
2014    9       30    14  24    5.09   463.8    4.9      40.348
2014    9       30    14  29    5.09   463.6    4.9      40.333
2014    9       30    14  34    5.09   463.5    4.9      40.318
2014    9       30    14  40    5.10   463.4    4.9      40.303
2014    9       30    14  45    5.10   463.3    4.9      40.288
2014    9       30    14  51    5.10   463.2    4.9      40.274
2014    9       30    14  56    5.11   463.1    4.9      40.259
2014    9       30    15   1    5.11   463.0    4.9      40.244
2014    9       30    15   7    5.11   462.9    5.0      40.229
2014    9       30    15  12    5.11   462.7    5.0      40.215
2014    9       30    15  18    5.12   462.6    5.0      40.200
2014    9       30    15  23    5.12   462.5    5.0      40.185
2014    9       30    15  28    5.12   462.4    5.0      40.171
2014    9       30    15  34    5.12   462.3    5.0      40.157
2014    9       30    15  39    5.13   462.2    5.0      40.143
2014    9       30    15  45    5.13   462.1    5.0      40.129
2014    9       30    15  50    5.13   462.0    5.0      40.116
2014    9       30    15  56    5.13   461.9    5.0      40.102
2014    9       30    16   1    5.14   461.8    5.0      40.090
2014    9       30    16   6    5.14   461.7    5.0      40.077
2014    9       30    16  12    5.14   461.6    5.0      40.065
2014    9       30    16  17    5.14   461.5    5.0      40.052
2014    9       30    16  23    5.15   461.4    5.0      40.041
2014    9       30    16  28    5.15   461.3    5.0      40.030
2014    9       30    16  33    5.15   461.2    5.0      40.019
2014    9       30    16  39    5.16   461.1    5.1      40.009
2014    9       30    16  44    5.16   461.0    5.1      39.999
2014    9       30    16  50    5.16   460.9    5.1      39.990
2014    9       30    16  55    5.16   460.8    5.1      39.981
2014    9       30    17   0    5.17   460.7    5.1      39.974
2014    9       30    17   6    5.17   460.6    5.1      39.966
2014    9       30    17  11    5.17   460.5    5.1      39.959
2014    9       30    17  17    5.17   460.5    5.1      39.952
2014    9       30    17  22    5.18   460.4    5.1      39.945
2014    9       30    17  27    5.18   460.3    5.1      39.939
2014    9       30    17  33    5.18   460.2    5.1      39.932
2014    9       30    17  38    5.18   460.1    5.1      39.926
2014    9       30    17  44    5.19   460.0    5.1      39.919
2014    9       30    17  49    5.19   459.9    5.1      39.913
2014    9       30    17  54    5.19   459.9    5.1      39.907
2014    9       30    18   0    5.20   459.8    5.1      39.900
2014    9       30    18   5    5.20   459.7    5.2      39.894
2014    9       30    18  11    5.20   459.6    5.2      39.887
2014    9       30    18  16    5.20   459.5    5.2      39.881
2014    9       30    18  22    5.21   459.5    5.2      39.874
2014    9       30    18  27    5.21   459.4    5.2      39.868
2014    9       30    18  32    5.21   459.3    5.2      39.862
2014    9       30    18  38    5.21   459.2    5.2      39.855
2014    9       30    18  43    5.22   459.1    5.2      39.849
2014    9       30    18  49    5.22   459.1    5.2      39.842
2014    9       30    18  54    5.22   459.0    5.2      39.836
2014    9       30    18  59    5.22   458.9    5.2      39.829
2014    9       30    19   5    5.23   458.8    5.2      39.822
2014    9       30    19  10    5.23   458.8    5.2      39.815
2014    9       30    19  16    5.23   458.7    5.2      39.808
2014    9       30    19  21    5.24   458.6    5.2      39.800
2014    9       30    19  26    5.24   458.5    5.2      39.793
2014    9       30    19  32    5.24   458.5    5.2      39.785
2014    9       30    19  37    5.24   458.4    5.2      39.777
2014    9       30    19  43    5.25   458.3    5.3      39.769
2014    9       30    19  48    5.25   458.2    5.3      39.761
2014    9       30    19  53    5.25   458.2    5.3      39.753
2014    9       30    19  59    5.25   458.1    5.3      39.745
2014    9       30    20   4    5.26   458.0    5.3      39.737
2014    9       30    20  10    5.26   458.0    5.3      39.728
2014    9       30    20  15    5.26   457.9    5.3      39.720
2014    9       30    20  20    5.26   457.8    5.3      39.711
2014    9       30    20  26    5.27   457.8    5.3      39.703
2014    9       30    20  31    5.27   457.7    5.3      39.694
2014    9       30    20  37    5.27   457.6    5.3      39.686
2014    9       30    20  42    5.28   457.6    5.3      39.678
2014    9       30    20  48    5.28   457.5    5.3      39.669
2014    9       30    20  53    5.28   457.4    5.3      39.661
2014    9       30    20  58    5.28   457.4    5.3      39.653
2014    9       30    21   4    5.29   457.3    5.3      39.644
2014    9       30    21   9    5.29   457.2    5.3      39.636
2014    9       30    21  15    5.29   457.2    5.3      39.628
2014    9       30    21  20    5.29   457.1    5.3      39.620
2014    9       30    21  25    5.30   457.0    5.3      39.613
2014    9       30    21  31    5.30   457.0    5.3      39.605
2014    9       30    21  36    5.30   456.9    5.4      39.598
2014    9       30    21  42    5.30   456.9    5.4      39.590
2014    9       30    21  47    5.31   456.8    5.4      39.583
2014    9       30    21  52    5.31   456.8    5.4      39.576
2014    9       30    21  58    5.31   456.7    5.4      39.569
2014    9       30    22   3    5.31   456.6    5.4      39.561
2014    9       30    22   9    5.32   456.6    5.4      39.554
2014    9       30    22  14    5.32   456.5    5.4      39.547
2014    9       30    22  19    5.32   456.5    5.4      39.540
2014    9       30    22  25    5.32   456.4    5.4      39.533
2014    9       30    22  30    5.33   456.4    5.4      39.526
2014    9       30    22  36    5.33   456.3    5.4      39.520
2014    9       30    22  41    5.33   456.3    5.4      39.513
2014    9       30    22  46    5.33   456.2    5.4      39.506
2014    9       30    22  52    5.34   456.2    5.4      39.500
2014    9       30    22  57    5.34   456.1    5.4      39.493
2014    9       30    23   3    5.34   456.1    5.4      39.486
2014    9       30    23   8    5.34   456.0    5.4      39.480
2014    9       30    23  13    5.35   456.0    5.4      39.474
2014    9       30    23  19    5.35   455.9    5.4      39.467
2014    9       30    23  24    5.35   455.9    5.4      39.461
2014    9       30    23  30    5.35   455.8    5.4      39.455
2014    9       30    23  35    5.36   455.8    5.5      39.449
2014    9       30    23  41    5.36   455.8    5.5      39.443
2014    9       30    23  46    5.36   455.7    5.5      39.437
2014    9       30    23  51    5.36   455.7    5.5      39.432
2014    9       30    23  57    5.37   455.6    5.5      39.426
2014   10        1     0   2    5.37   455.6    5.5      39.421
