year    month   day   hour  minute  B_enl V_enl   n_enl       T_enl
[year] [month] [day] [hour][minute] [nT]  [km/s]  [cm-3]      [kK]
2014    9       25     0   2    5.96   598.8    3.9      61.576
2014    9       25     0   8    5.96   599.0    3.9      61.577
2014    9       25     0  13    5.95   599.2    3.9      61.577
2014    9       25     0  19    5.95   599.4    3.9      61.577
2014    9       25     0  24    5.95   599.6    3.9      61.576
2014    9       25     0  30    5.94   599.8    3.9      61.575
2014    9       25     0  35    5.94   600.0    3.9      61.573
2014    9       25     0  41    5.94   600.1    3.9      61.572
2014    9       25     0  46    5.93   600.3    3.9      61.570
2014    9       25     0  52    5.93   600.5    3.9      61.567
2014    9       25     0  57    5.93   600.7    3.9      61.565
2014    9       25     1   2    5.92   600.9    3.8      61.562
2014    9       25     1   8    5.92   601.1    3.8      61.559
2014    9       25     1  13    5.92   601.3    3.8      61.556
2014    9       25     1  19    5.91   601.4    3.8      61.553
2014    9       25     1  24    5.91   601.6    3.8      61.550
2014    9       25     1  30    5.90   601.8    3.8      61.546
2014    9       25     1  35    5.90   602.0    3.8      61.543
2014    9       25     1  41    5.90   602.1    3.8      61.540
2014    9       25     1  46    5.89   602.3    3.8      61.536
2014    9       25     1  52    5.89   602.5    3.8      61.533
2014    9       25     1  57    5.88   602.6    3.8      61.530
2014    9       25     2   3    5.88   602.8    3.8      61.527
2014    9       25     2   8    5.88   603.0    3.8      61.525
2014    9       25     2  14    5.87   603.1    3.8      61.522
2014    9       25     2  19    5.87   603.3    3.8      61.519
2014    9       25     2  24    5.87   603.4    3.8      61.517
2014    9       25     2  30    5.86   603.6    3.8      61.515
2014    9       25     2  35    5.86   603.7    3.8      61.513
2014    9       25     2  41    5.85   603.9    3.8      61.511
2014    9       25     2  46    5.85   604.0    3.7      61.509
2014    9       25     2  52    5.85   604.2    3.7      61.508
2014    9       25     2  57    5.84   604.3    3.7      61.507
2014    9       25     3   3    5.84   604.4    3.7      61.505
2014    9       25     3   8    5.83   604.6    3.7      61.504
2014    9       25     3  14    5.83   604.7    3.7      61.503
2014    9       25     3  19    5.83   604.9    3.7      61.502
2014    9       25     3  25    5.82   605.0    3.7      61.502
2014    9       25     3  30    5.82   605.1    3.7      61.501
2014    9       25     3  36    5.82   605.3    3.7      61.500
2014    9       25     3  41    5.81   605.4    3.7      61.499
2014    9       25     3  46    5.81   605.5    3.7      61.498
2014    9       25     3  52    5.80   605.7    3.7      61.496
2014    9       25     3  57    5.80   605.8    3.7      61.495
2014    9       25     4   3    5.80   605.9    3.7      61.493
2014    9       25     4   8    5.79   606.0    3.7      61.490
2014    9       25     4  14    5.79   606.2    3.7      61.488
2014    9       25     4  19    5.79   606.3    3.7      61.485
2014    9       25     4  25    5.78   606.4    3.7      61.482
2014    9       25     4  30    5.78   606.5    3.7      61.478
2014    9       25     4  36    5.77   606.7    3.7      61.474
2014    9       25     4  41    5.77   606.8    3.7      61.470
2014    9       25     4  47    5.77   606.9    3.7      61.465
2014    9       25     4  52    5.76   607.0    3.7      61.460
2014    9       25     4  57    5.76   607.1    3.6      61.455
2014    9       25     5   3    5.76   607.2    3.6      61.449
2014    9       25     5   8    5.75   607.3    3.6      61.443
2014    9       25     5  14    5.75   607.4    3.6      61.436
2014    9       25     5  19    5.74   607.6    3.6      61.429
2014    9       25     5  25    5.74   607.7    3.6      61.421
2014    9       25     5  30    5.74   607.8    3.6      61.413
2014    9       25     5  36    5.73   607.9    3.6      61.404
2014    9       25     5  41    5.73   608.0    3.6      61.395
2014    9       25     5  47    5.73   608.1    3.6      61.386
2014    9       25     5  52    5.72   608.2    3.6      61.376
2014    9       25     5  58    5.72   608.3    3.6      61.365
2014    9       25     6   3    5.71   608.4    3.6      61.354
2014    9       25     6   9    5.71   608.5    3.6      61.342
2014    9       25     6  14    5.71   608.6    3.6      61.330
2014    9       25     6  19    5.70   608.6    3.6      61.318
2014    9       25     6  25    5.70   608.7    3.6      61.305
2014    9       25     6  30    5.69   608.8    3.6      61.291
2014    9       25     6  36    5.69   608.9    3.6      61.278
2014    9       25     6  41    5.69   609.0    3.6      61.263
2014    9       25     6  47    5.68   609.1    3.6      61.249
2014    9       25     6  52    5.68   609.1    3.6      61.234
2014    9       25     6  58    5.67   609.2    3.6      61.219
2014    9       25     7   3    5.67   609.3    3.6      61.203
2014    9       25     7   9    5.66   609.4    3.6      61.188
2014    9       25     7  14    5.66   609.4    3.5      61.171
2014    9       25     7  20    5.66   609.5    3.5      61.154
2014    9       25     7  25    5.65   609.6    3.5      61.137
2014    9       25     7  31    5.65   609.7    3.5      61.119
2014    9       25     7  36    5.64   609.7    3.5      61.101
2014    9       25     7  41    5.64   609.8    3.5      61.081
2014    9       25     7  47    5.64   609.9    3.5      61.061
2014    9       25     7  52    5.63   610.0    3.5      61.040
2014    9       25     7  58    5.63   610.0    3.5      61.018
2014    9       25     8   3    5.62   610.1    3.5      60.994
2014    9       25     8   9    5.62   610.2    3.5      60.970
2014    9       25     8  14    5.62   610.3    3.5      60.945
2014    9       25     8  20    5.61   610.3    3.5      60.919
2014    9       25     8  25    5.61   610.4    3.5      60.892
2014    9       25     8  31    5.60   610.5    3.5      60.865
2014    9       25     8  36    5.60   610.5    3.5      60.836
2014    9       25     8  42    5.59   610.6    3.5      60.807
2014    9       25     8  47    5.59   610.7    3.5      60.778
2014    9       25     8  53    5.59   610.7    3.5      60.748
2014    9       25     8  58    5.58   610.8    3.5      60.717
2014    9       25     9   3    5.58   610.9    3.5      60.686
2014    9       25     9   9    5.57   610.9    3.5      60.654
2014    9       25     9  14    5.57   611.0    3.5      60.622
2014    9       25     9  20    5.57   611.1    3.5      60.590
2014    9       25     9  25    5.56   611.1    3.5      60.557
2014    9       25     9  31    5.56   611.2    3.4      60.524
2014    9       25     9  36    5.55   611.2    3.4      60.490
2014    9       25     9  42    5.55   611.3    3.4      60.456
2014    9       25     9  47    5.54   611.3    3.4      60.423
2014    9       25     9  53    5.54   611.4    3.4      60.389
2014    9       25     9  58    5.54   611.4    3.4      60.355
2014    9       25    10   4    5.53   611.4    3.4      60.320
2014    9       25    10   9    5.53   611.5    3.4      60.286
2014    9       25    10  15    5.52   611.5    3.4      60.252
2014    9       25    10  20    5.52   611.6    3.4      60.218
2014    9       25    10  25    5.52   611.6    3.4      60.185
2014    9       25    10  31    5.51   611.6    3.4      60.151
2014    9       25    10  36    5.51   611.7    3.4      60.118
2014    9       25    10  42    5.50   611.7    3.4      60.085
2014    9       25    10  47    5.50   611.7    3.4      60.053
2014    9       25    10  53    5.50   611.8    3.4      60.020
2014    9       25    10  58    5.49   611.8    3.4      59.989
2014    9       25    11   4    5.49   611.8    3.4      59.957
2014    9       25    11   9    5.49   611.9    3.4      59.926
2014    9       25    11  15    5.48   611.9    3.4      59.896
2014    9       25    11  20    5.48   611.9    3.4      59.866
2014    9       25    11  26    5.47   611.9    3.4      59.837
2014    9       25    11  31    5.47   611.9    3.4      59.808
2014    9       25    11  36    5.47   612.0    3.4      59.780
2014    9       25    11  42    5.46   612.0    3.4      59.752
2014    9       25    11  47    5.46   612.0    3.4      59.725
2014    9       25    11  53    5.46   612.0    3.3      59.699
2014    9       25    11  58    5.45   612.0    3.3      59.674
2014    9       25    12   4    5.45   612.0    3.3      59.649
2014    9       25    12   9    5.45   612.1    3.3      59.625
2014    9       25    12  15    5.44   612.1    3.3      59.601
2014    9       25    12  20    5.44   612.1    3.3      59.579
2014    9       25    12  26    5.44   612.1    3.3      59.557
2014    9       25    12  31    5.43   612.1    3.3      59.536
2014    9       25    12  37    5.43   612.1    3.3      59.515
2014    9       25    12  42    5.42   612.1    3.3      59.495
2014    9       25    12  48    5.42   612.1    3.3      59.477
2014    9       25    12  53    5.42   612.1    3.3      59.458
2014    9       25    12  58    5.41   612.1    3.3      59.441
2014    9       25    13   4    5.41   612.1    3.3      59.424
2014    9       25    13   9    5.41   612.1    3.3      59.408
2014    9       25    13  15    5.40   612.1    3.3      59.393
2014    9       25    13  20    5.40   612.1    3.3      59.379
2014    9       25    13  26    5.40   612.1    3.3      59.365
2014    9       25    13  31    5.39   612.1    3.3      59.352
2014    9       25    13  37    5.39   612.1    3.3      59.340
2014    9       25    13  42    5.39   612.1    3.3      59.328
2014    9       25    13  48    5.38   612.1    3.3      59.317
2014    9       25    13  53    5.38   612.1    3.3      59.306
2014    9       25    13  59    5.38   612.1    3.3      59.296
2014    9       25    14   4    5.37   612.1    3.3      59.286
2014    9       25    14   9    5.37   612.0    3.3      59.277
2014    9       25    14  15    5.37   612.0    3.3      59.268
2014    9       25    14  20    5.36   612.0    3.3      59.258
2014    9       25    14  26    5.36   612.0    3.3      59.248
2014    9       25    14  31    5.36   612.0    3.3      59.238
2014    9       25    14  37    5.35   612.0    3.3      59.227
2014    9       25    14  42    5.35   612.0    3.3      59.215
2014    9       25    14  48    5.35   611.9    3.3      59.203
2014    9       25    14  53    5.34   611.9    3.3      59.190
2014    9       25    14  59    5.34   611.9    3.3      59.175
2014    9       25    15   4    5.34   611.9    3.3      59.158
2014    9       25    15  10    5.33   611.9    3.3      59.141
2014    9       25    15  15    5.33   611.9    3.3      59.122
2014    9       25    15  21    5.33   611.9    3.3      59.102
2014    9       25    15  26    5.33   611.9    3.3      59.081
2014    9       25    15  32    5.32   611.9    3.3      59.059
2014    9       25    15  37    5.32   611.9    3.3      59.036
2014    9       25    15  42    5.32   611.8    3.3      59.012
2014    9       25    15  48    5.31   611.8    3.3      58.987
2014    9       25    15  53    5.31   611.8    3.3      58.961
2014    9       25    15  59    5.31   611.8    3.3      58.934
2014    9       25    16   4    5.30   611.8    3.3      58.907
2014    9       25    16  10    5.30   611.8    3.3      58.879
2014    9       25    16  15    5.30   611.7    3.3      58.850
2014    9       25    16  21    5.29   611.7    3.3      58.820
2014    9       25    16  26    5.29   611.7    3.3      58.790
2014    9       25    16  32    5.29   611.7    3.3      58.759
2014    9       25    16  37    5.29   611.7    3.3      58.728
2014    9       25    16  43    5.28   611.6    3.3      58.696
2014    9       25    16  48    5.28   611.6    3.3      58.663
2014    9       25    16  54    5.28   611.6    3.2      58.630
2014    9       25    16  59    5.27   611.6    3.2      58.597
2014    9       25    17   4    5.27   611.5    3.2      58.563
2014    9       25    17  10    5.27   611.5    3.2      58.529
2014    9       25    17  15    5.26   611.5    3.2      58.495
2014    9       25    17  21    5.26   611.5    3.2      58.459
2014    9       25    17  26    5.26   611.4    3.2      58.424
2014    9       25    17  32    5.26   611.4    3.2      58.389
2014    9       25    17  37    5.25   611.4    3.2      58.353
2014    9       25    17  43    5.25   611.3    3.2      58.317
2014    9       25    17  48    5.25   611.3    3.2      58.281
2014    9       25    17  54    5.24   611.3    3.2      58.244
2014    9       25    17  59    5.24   611.2    3.2      58.208
2014    9       25    18   5    5.24   611.2    3.2      58.171
2014    9       25    18  10    5.23   611.2    3.2      58.135
2014    9       25    18  15    5.23   611.1    3.2      58.098
2014    9       25    18  21    5.23   611.1    3.2      58.062
2014    9       25    18  26    5.23   611.1    3.2      58.025
2014    9       25    18  32    5.22   611.0    3.2      57.989
2014    9       25    18  37    5.22   611.0    3.2      57.953
2014    9       25    18  43    5.22   611.0    3.2      57.918
2014    9       25    18  48    5.21   610.9    3.2      57.883
2014    9       25    18  54    5.21   610.9    3.2      57.849
2014    9       25    18  59    5.21   610.8    3.2      57.816
2014    9       25    19   5    5.21   610.8    3.2      57.783
2014    9       25    19  10    5.20   610.8    3.2      57.751
2014    9       25    19  16    5.20   610.7    3.2      57.721
2014    9       25    19  21    5.20   610.7    3.2      57.691
2014    9       25    19  27    5.20   610.6    3.2      57.662
2014    9       25    19  32    5.19   610.6    3.2      57.635
2014    9       25    19  37    5.19   610.6    3.2      57.608
2014    9       25    19  43    5.19   610.5    3.2      57.583
2014    9       25    19  48    5.18   610.5    3.2      57.560
2014    9       25    19  54    5.18   610.4    3.2      57.537
2014    9       25    19  59    5.18   610.4    3.2      57.516
2014    9       25    20   5    5.18   610.4    3.2      57.496
2014    9       25    20  10    5.17   610.3    3.2      57.478
2014    9       25    20  16    5.17   610.3    3.2      57.461
2014    9       25    20  21    5.17   610.3    3.2      57.445
2014    9       25    20  27    5.17   610.2    3.2      57.430
2014    9       25    20  32    5.16   610.2    3.2      57.416
2014    9       25    20  38    5.16   610.1    3.2      57.403
2014    9       25    20  43    5.16   610.1    3.2      57.392
2014    9       25    20  48    5.16   610.1    3.2      57.380
2014    9       25    20  54    5.15   610.0    3.2      57.370
2014    9       25    20  59    5.15   610.0    3.2      57.359
2014    9       25    21   5    5.15   610.0    3.2      57.350
2014    9       25    21  10    5.15   609.9    3.2      57.340
2014    9       25    21  16    5.14   609.9    3.2      57.331
2014    9       25    21  21    5.14   609.8    3.2      57.321
2014    9       25    21  27    5.14   609.8    3.2      57.311
2014    9       25    21  32    5.13   609.7    3.2      57.300
2014    9       25    21  38    5.13   609.7    3.2      57.289
2014    9       25    21  43    5.13   609.6    3.2      57.278
2014    9       25    21  49    5.13   609.6    3.2      57.266
2014    9       25    21  54    5.12   609.6    3.2      57.253
2014    9       25    22   0    5.12   609.5    3.2      57.240
2014    9       25    22   5    5.12   609.5    3.2      57.227
2014    9       25    22  10    5.12   609.4    3.2      57.213
2014    9       25    22  16    5.11   609.4    3.2      57.199
2014    9       25    22  21    5.11   609.3    3.2      57.185
2014    9       25    22  27    5.11   609.3    3.2      57.170
2014    9       25    22  32    5.11   609.2    3.2      57.156
2014    9       25    22  38    5.11   609.2    3.2      57.141
2014    9       25    22  43    5.10   609.1    3.2      57.127
2014    9       25    22  49    5.10   609.1    3.2      57.111
2014    9       25    22  54    5.10   609.0    3.2      57.096
2014    9       25    23   0    5.10   609.0    3.2      57.081
2014    9       25    23   5    5.10   609.0    3.1      57.066
2014    9       25    23  11    5.09   608.9    3.1      57.050
2014    9       25    23  16    5.09   608.9    3.1      57.034
2014    9       25    23  22    5.09   608.8    3.1      57.018
2014    9       25    23  27    5.09   608.8    3.1      57.002
2014    9       25    23  33    5.09   608.7    3.1      56.985
2014    9       25    23  38    5.09   608.7    3.1      56.968
2014    9       25    23  43    5.08   608.7    3.1      56.951
2014    9       25    23  49    5.08   608.6    3.1      56.934
2014    9       25    23  54    5.08   608.6    3.1      56.918
2014    9       26     0   0    5.08   608.5    3.1      56.901
2014    9       26     0   5    5.08   608.5    3.1      56.883
2014    9       26     0  11    5.07   608.5    3.1      56.867
2014    9       26     0  16    5.07   608.4    3.1      56.850
2014    9       26     0  22    5.07   608.4    3.1      56.833
2014    9       26     0  27    5.07   608.3    3.1      56.816
2014    9       26     0  33    5.06   608.3    3.1      56.799
2014    9       26     0  38    5.06   608.3    3.1      56.782
2014    9       26     0  44    5.06   608.2    3.1      56.764
2014    9       26     0  49    5.06   608.2    3.1      56.745
2014    9       26     0  55    5.06   608.2    3.1      56.725
2014    9       26     1   0    5.05   608.1    3.1      56.705
2014    9       26     1   5    5.05   608.1    3.1      56.684
2014    9       26     1  11    5.05   608.0    3.1      56.663
2014    9       26     1  16    5.05   608.0    3.1      56.642
2014    9       26     1  22    5.04   607.9    3.1      56.619
2014    9       26     1  27    5.04   607.9    3.1      56.597
2014    9       26     1  33    5.04   607.9    3.1      56.573
2014    9       26     1  38    5.04   607.8    3.1      56.550
2014    9       26     1  44    5.03   607.8    3.1      56.525
2014    9       26     1  49    5.03   607.7    3.1      56.500
2014    9       26     1  55    5.03   607.6    3.1      56.474
2014    9       26     2   0    5.03   607.6    3.1      56.449
2014    9       26     2   6    5.03   607.5    3.1      56.422
2014    9       26     2  11    5.02   607.5    3.1      56.396
2014    9       26     2  16    5.02   607.4    3.1      56.369
2014    9       26     2  22    5.02   607.4    3.1      56.342
2014    9       26     2  27    5.02   607.3    3.1      56.315
2014    9       26     2  33    5.01   607.2    3.1      56.288
2014    9       26     2  38    5.01   607.2    3.1      56.261
2014    9       26     2  44    5.01   607.1    3.1      56.234
2014    9       26     2  49    5.01   607.0    3.1      56.207
2014    9       26     2  55    5.00   607.0    3.1      56.180
2014    9       26     3   0    5.00   606.9    3.1      56.153
2014    9       26     3   6    5.00   606.9    3.1      56.126
2014    9       26     3  11    5.00   606.8    3.1      56.100
2014    9       26     3  17    4.99   606.7    3.1      56.073
2014    9       26     3  22    4.99   606.6    3.1      56.047
2014    9       26     3  27    4.99   606.6    3.1      56.020
2014    9       26     3  33    4.99   606.5    3.1      55.994
2014    9       26     3  38    4.99   606.4    3.1      55.968
2014    9       26     3  44    4.98   606.4    3.1      55.942
2014    9       26     3  49    4.98   606.3    3.1      55.916
2014    9       26     3  55    4.98   606.2    3.1      55.890
2014    9       26     4   0    4.98   606.1    3.1      55.864
2014    9       26     4   6    4.97   606.1    3.1      55.838
2014    9       26     4  11    4.97   606.0    3.1      55.812
2014    9       26     4  17    4.97   605.9    3.1      55.786
2014    9       26     4  22    4.97   605.8    3.1      55.760
2014    9       26     4  28    4.97   605.7    3.1      55.734
2014    9       26     4  33    4.96   605.6    3.1      55.709
2014    9       26     4  39    4.96   605.6    3.1      55.683
2014    9       26     4  44    4.96   605.5    3.1      55.658
2014    9       26     4  49    4.96   605.4    3.1      55.633
2014    9       26     4  55    4.96   605.3    3.1      55.609
2014    9       26     5   0    4.95   605.2    3.1      55.586
2014    9       26     5   6    4.95   605.1    3.1      55.563
2014    9       26     5  11    4.95   605.0    3.1      55.541
2014    9       26     5  17    4.95   604.9    3.1      55.520
2014    9       26     5  22    4.95   604.8    3.1      55.501
2014    9       26     5  28    4.95   604.7    3.1      55.482
2014    9       26     5  33    4.95   604.7    3.1      55.465
2014    9       26     5  39    4.94   604.6    3.1      55.449
2014    9       26     5  44    4.94   604.5    3.1      55.434
2014    9       26     5  50    4.94   604.4    3.1      55.420
2014    9       26     5  55    4.94   604.4    3.1      55.407
2014    9       26     6   1    4.94   604.3    3.1      55.395
2014    9       26     6   6    4.94   604.2    3.1      55.384
2014    9       26     6  11    4.94   604.2    3.1      55.373
2014    9       26     6  17    4.94   604.1    3.1      55.361
2014    9       26     6  22    4.94   604.1    3.1      55.349
2014    9       26     6  28    4.93   604.0    3.1      55.337
2014    9       26     6  33    4.93   603.9    3.1      55.325
2014    9       26     6  39    4.93   603.9    3.1      55.312
2014    9       26     6  44    4.93   603.8    3.1      55.299
2014    9       26     6  50    4.93   603.8    3.1      55.286
2014    9       26     6  55    4.93   603.7    3.1      55.273
2014    9       26     7   1    4.93   603.7    3.1      55.259
2014    9       26     7   6    4.92   603.7    3.1      55.246
2014    9       26     7  12    4.92   603.6    3.1      55.233
2014    9       26     7  17    4.92   603.6    3.1      55.219
2014    9       26     7  23    4.92   603.5    3.1      55.205
2014    9       26     7  28    4.92   603.5    3.1      55.191
2014    9       26     7  34    4.92   603.5    3.1      55.178
2014    9       26     7  39    4.92   603.4    3.1      55.165
2014    9       26     7  44    4.91   603.4    3.1      55.152
2014    9       26     7  50    4.91   603.3    3.1      55.138
2014    9       26     7  55    4.91   603.3    3.1      55.124
2014    9       26     8   1    4.91   603.3    3.1      55.110
2014    9       26     8   6    4.91   603.2    3.1      55.094
2014    9       26     8  12    4.90   603.2    3.1      55.079
2014    9       26     8  17    4.90   603.1    3.1      55.062
2014    9       26     8  23    4.90   603.1    3.1      55.045
2014    9       26     8  28    4.90   603.0    3.1      55.028
2014    9       26     8  33    4.90   603.0    3.1      55.011
2014    9       26     8  39    4.89   602.9    3.1      54.993
2014    9       26     8  44    4.89   602.9    3.1      54.975
2014    9       26     8  49    4.89   602.8    3.1      54.958
2014    9       26     8  54    4.89   602.8    3.1      54.940
2014    9       26     9   0    4.89   602.7    3.1      54.921
2014    9       26     9   5    4.88   602.7    3.1      54.903
2014    9       26     9  10    4.88   602.6    3.1      54.884
2014    9       26     9  15    4.88   602.6    3.1      54.865
2014    9       26     9  20    4.88   602.5    3.1      54.847
2014    9       26     9  25    4.88   602.5    3.1      54.828
2014    9       26     9  30    4.87   602.4    3.1      54.809
2014    9       26     9  36    4.87   602.3    3.1      54.791
2014    9       26     9  41    4.87   602.3    3.1      54.772
2014    9       26     9  46    4.87   602.2    3.1      54.754
2014    9       26     9  51    4.87   602.1    3.1      54.736
2014    9       26     9  56    4.87   602.1    3.1      54.718
2014    9       26    10   1    4.86   602.0    3.1      54.700
2014    9       26    10   6    4.86   601.9    3.1      54.682
2014    9       26    10  11    4.86   601.9    3.1      54.665
2014    9       26    10  16    4.86   601.8    3.1      54.648
2014    9       26    10  21    4.86   601.7    3.1      54.631
2014    9       26    10  26    4.85   601.6    3.1      54.615
2014    9       26    10  31    4.85   601.6    3.1      54.599
2014    9       26    10  36    4.85   601.5    3.1      54.583
2014    9       26    10  41    4.85   601.4    3.1      54.567
2014    9       26    10  46    4.85   601.3    3.1      54.552
2014    9       26    10  51    4.85   601.3    3.1      54.538
2014    9       26    10  56    4.84   601.2    3.1      54.524
2014    9       26    11   1    4.84   601.1    3.1      54.511
2014    9       26    11   6    4.84   601.0    3.1      54.499
2014    9       26    11  11    4.84   601.0    3.1      54.488
2014    9       26    11  16    4.84   600.9    3.1      54.477
2014    9       26    11  21    4.84   600.8    3.1      54.468
2014    9       26    11  26    4.84   600.7    3.1      54.459
2014    9       26    11  31    4.84   600.6    3.1      54.452
2014    9       26    11  36    4.83   600.6    3.1      54.446
2014    9       26    11  41    4.83   600.5    3.1      54.441
2014    9       26    11  46    4.83   600.4    3.1      54.438
2014    9       26    11  51    4.83   600.3    3.1      54.434
2014    9       26    11  56    4.83   600.2    3.1      54.430
2014    9       26    12   1    4.83   600.2    3.1      54.426
2014    9       26    12   6    4.83   600.1    3.1      54.420
2014    9       26    12  11    4.83   600.0    3.1      54.414
2014    9       26    12  16    4.82   599.9    3.1      54.407
2014    9       26    12  21    4.82   599.8    3.1      54.400
2014    9       26    12  26    4.82   599.8    3.1      54.393
2014    9       26    12  31    4.82   599.7    3.1      54.385
2014    9       26    12  36    4.82   599.6    3.1      54.376
2014    9       26    12  41    4.82   599.5    3.1      54.367
2014    9       26    12  46    4.82   599.4    3.1      54.358
2014    9       26    12  51    4.82   599.4    3.1      54.349
2014    9       26    12  56    4.82   599.3    3.1      54.339
2014    9       26    13   2    4.81   599.2    3.1      54.328
2014    9       26    13   7    4.81   599.2    3.1      54.318
2014    9       26    13  12    4.81   599.1    3.1      54.307
2014    9       26    13  17    4.81   599.0    3.1      54.295
2014    9       26    13  22    4.81   599.0    3.1      54.282
2014    9       26    13  27    4.81   598.9    3.1      54.269
2014    9       26    13  32    4.81   598.8    3.1      54.254
2014    9       26    13  37    4.81   598.8    3.1      54.238
2014    9       26    13  42    4.80   598.7    3.1      54.221
2014    9       26    13  47    4.80   598.6    3.1      54.202
2014    9       26    13  52    4.80   598.6    3.1      54.183
2014    9       26    13  57    4.80   598.5    3.1      54.163
2014    9       26    14   2    4.80   598.4    3.1      54.141
2014    9       26    14   7    4.80   598.4    3.1      54.119
2014    9       26    14  12    4.80   598.3    3.1      54.097
2014    9       26    14  17    4.80   598.2    3.1      54.073
2014    9       26    14  22    4.79   598.2    3.1      54.049
2014    9       26    14  27    4.79   598.1    3.1      54.025
2014    9       26    14  32    4.79   598.0    3.1      54.000
2014    9       26    14  37    4.79   597.9    3.1      53.974
2014    9       26    14  42    4.79   597.9    3.1      53.948
2014    9       26    14  47    4.79   597.8    3.1      53.922
2014    9       26    14  53    4.79   597.7    3.1      53.895
2014    9       26    14  58    4.78   597.6    3.1      53.868
2014    9       26    15   3    4.78   597.6    3.1      53.840
2014    9       26    15   8    4.78   597.5    3.1      53.813
2014    9       26    15  13    4.78   597.4    3.1      53.785
2014    9       26    15  18    4.78   597.3    3.1      53.756
2014    9       26    15  23    4.78   597.3    3.1      53.727
2014    9       26    15  28    4.78   597.2    3.1      53.698
2014    9       26    15  33    4.77   597.1    3.1      53.669
2014    9       26    15  38    4.77   597.0    3.1      53.640
2014    9       26    15  43    4.77   596.9    3.1      53.611
2014    9       26    15  49    4.77   596.9    3.1      53.581
2014    9       26    15  54    4.77   596.8    3.1      53.552
2014    9       26    15  59    4.77   596.7    3.1      53.523
2014    9       26    16   4    4.77   596.6    3.1      53.493
2014    9       26    16   9    4.76   596.5    3.0      53.465
2014    9       26    16  14    4.76   596.5    3.0      53.436
2014    9       26    16  19    4.76   596.4    3.0      53.407
2014    9       26    16  24    4.76   596.3    3.0      53.379
2014    9       26    16  30    4.76   596.2    3.0      53.351
2014    9       26    16  35    4.76   596.1    3.0      53.323
2014    9       26    16  40    4.76   596.0    3.0      53.295
2014    9       26    16  45    4.75   596.0    3.0      53.268
2014    9       26    16  51    4.75   595.9    3.0      53.241
2014    9       26    16  56    4.75   595.8    3.0      53.214
2014    9       26    17   1    4.75   595.7    3.0      53.189
2014    9       26    17   7    4.75   595.6    3.0      53.164
2014    9       26    17  12    4.75   595.5    3.0      53.140
2014    9       26    17  17    4.75   595.4    3.0      53.117
2014    9       26    17  23    4.74   595.4    3.0      53.095
2014    9       26    17  28    4.74   595.3    3.0      53.074
2014    9       26    17  34    4.74   595.2    3.0      53.054
2014    9       26    17  39    4.74   595.1    3.0      53.035
2014    9       26    17  45    4.74   595.0    3.0      53.018
2014    9       26    17  50    4.74   594.9    3.0      53.002
2014    9       26    17  56    4.74   594.8    3.0      52.987
2014    9       26    18   1    4.74   594.8    3.0      52.975
2014    9       26    18   6    4.73   594.7    3.0      52.964
2014    9       26    18  12    4.73   594.6    3.1      52.955
2014    9       26    18  17    4.73   594.5    3.1      52.948
2014    9       26    18  23    4.73   594.4    3.1      52.942
2014    9       26    18  28    4.73   594.4    3.1      52.939
2014    9       26    18  34    4.73   594.3    3.1      52.937
2014    9       26    18  39    4.73   594.2    3.1      52.938
2014    9       26    18  45    4.73   594.1    3.1      52.941
2014    9       26    18  50    4.73   594.1    3.1      52.946
2014    9       26    18  56    4.72   594.0    3.1      52.951
2014    9       26    19   1    4.72   593.9    3.1      52.957
2014    9       26    19   7    4.72   593.8    3.1      52.962
2014    9       26    19  12    4.72   593.7    3.1      52.966
2014    9       26    19  17    4.72   593.6    3.1      52.969
2014    9       26    19  23    4.72   593.5    3.1      52.971
2014    9       26    19  28    4.72   593.5    3.1      52.972
2014    9       26    19  34    4.71   593.4    3.1      52.971
2014    9       26    19  39    4.71   593.3    3.1      52.969
2014    9       26    19  45    4.71   593.2    3.1      52.966
2014    9       26    19  50    4.71   593.1    3.1      52.962
2014    9       26    19  56    4.71   593.0    3.1      52.956
2014    9       26    20   1    4.71   592.9    3.1      52.950
2014    9       26    20   7    4.71   592.8    3.1      52.942
2014    9       26    20  12    4.70   592.7    3.1      52.932
2014    9       26    20  17    4.70   592.6    3.1      52.922
2014    9       26    20  23    4.70   592.4    3.1      52.911
2014    9       26    20  28    4.70   592.3    3.1      52.898
2014    9       26    20  34    4.70   592.2    3.1      52.885
2014    9       26    20  39    4.70   592.1    3.1      52.870
2014    9       26    20  45    4.70   592.0    3.1      52.855
2014    9       26    20  50    4.69   591.9    3.1      52.838
2014    9       26    20  56    4.69   591.8    3.1      52.821
2014    9       26    21   1    4.69   591.7    3.1      52.803
2014    9       26    21   7    4.69   591.5    3.1      52.784
2014    9       26    21  12    4.69   591.4    3.1      52.764
2014    9       26    21  18    4.69   591.3    3.1      52.745
2014    9       26    21  23    4.69   591.2    3.1      52.724
2014    9       26    21  29    4.69   591.0    3.1      52.704
2014    9       26    21  34    4.68   590.9    3.1      52.683
2014    9       26    21  39    4.68   590.8    3.1      52.663
2014    9       26    21  45    4.68   590.7    3.1      52.643
2014    9       26    21  50    4.68   590.6    3.1      52.623
2014    9       26    21  56    4.68   590.4    3.1      52.604
2014    9       26    22   1    4.68   590.3    3.1      52.585
2014    9       26    22   7    4.68   590.2    3.1      52.567
2014    9       26    22  12    4.68   590.1    3.1      52.550
2014    9       26    22  18    4.68   590.0    3.1      52.534
2014    9       26    22  23    4.68   589.9    3.1      52.519
2014    9       26    22  29    4.67   589.8    3.1      52.504
2014    9       26    22  34    4.67   589.7    3.1      52.488
2014    9       26    22  40    4.67   589.5    3.1      52.472
2014    9       26    22  45    4.67   589.4    3.1      52.455
2014    9       26    22  50    4.67   589.3    3.1      52.437
2014    9       26    22  56    4.67   589.2    3.1      52.418
2014    9       26    23   1    4.67   589.1    3.1      52.399
2014    9       26    23   7    4.67   589.0    3.1      52.378
2014    9       26    23  12    4.67   588.9    3.1      52.357
2014    9       26    23  18    4.67   588.8    3.1      52.335
2014    9       26    23  23    4.66   588.7    3.1      52.312
2014    9       26    23  29    4.66   588.6    3.1      52.289
2014    9       26    23  34    4.66   588.5    3.1      52.265
2014    9       26    23  40    4.66   588.4    3.1      52.240
2014    9       26    23  45    4.66   588.3    3.1      52.215
2014    9       26    23  50    4.66   588.2    3.1      52.190
2014    9       26    23  56    4.66   588.1    3.1      52.164
2014    9       27     0   1    4.66   588.0    3.1      52.138
2014    9       27     0   7    4.65   587.9    3.1      52.111
2014    9       27     0  12    4.65   587.8    3.1      52.084
2014    9       27     0  18    4.65   587.7    3.1      52.057
2014    9       27     0  23    4.65   587.6    3.1      52.030
2014    9       27     0  29    4.65   587.5    3.1      52.003
2014    9       27     0  34    4.65   587.4    3.1      51.976
2014    9       27     0  40    4.65   587.3    3.1      51.949
2014    9       27     0  45    4.65   587.1    3.1      51.922
2014    9       27     0  51    4.65   587.0    3.1      51.895
2014    9       27     0  56    4.64   586.9    3.1      51.868
2014    9       27     1   1    4.64   586.8    3.1      51.842
2014    9       27     1   7    4.64   586.7    3.1      51.816
2014    9       27     1  12    4.64   586.6    3.1      51.791
2014    9       27     1  18    4.64   586.5    3.1      51.765
2014    9       27     1  23    4.64   586.4    3.1      51.741
2014    9       27     1  29    4.64   586.3    3.1      51.716
2014    9       27     1  34    4.64   586.2    3.1      51.692
2014    9       27     1  40    4.63   586.1    3.1      51.669
2014    9       27     1  45    4.63   586.0    3.1      51.646
2014    9       27     1  51    4.63   585.9    3.1      51.623
2014    9       27     1  56    4.63   585.8    3.1      51.601
2014    9       27     2   1    4.63   585.7    3.1      51.578
2014    9       27     2   7    4.63   585.5    3.1      51.556
2014    9       27     2  12    4.63   585.4    3.1      51.535
2014    9       27     2  18    4.62   585.3    3.1      51.513
2014    9       27     2  23    4.62   585.2    3.1      51.491
2014    9       27     2  29    4.62   585.1    3.1      51.469
2014    9       27     2  34    4.62   584.9    3.1      51.447
2014    9       27     2  40    4.62   584.8    3.1      51.425
2014    9       27     2  45    4.62   584.7    3.1      51.402
2014    9       27     2  51    4.62   584.5    3.1      51.379
2014    9       27     2  56    4.61   584.4    3.1      51.356
2014    9       27     3   2    4.61   584.2    3.1      51.334
2014    9       27     3   7    4.61   584.1    3.1      51.310
2014    9       27     3  12    4.61   584.0    3.1      51.287
2014    9       27     3  18    4.61   583.8    3.1      51.263
2014    9       27     3  23    4.61   583.7    3.1      51.240
2014    9       27     3  29    4.60   583.5    3.1      51.216
2014    9       27     3  34    4.60   583.3    3.1      51.192
2014    9       27     3  40    4.60   583.2    3.1      51.168
2014    9       27     3  45    4.60   583.0    3.1      51.145
2014    9       27     3  51    4.60   582.9    3.1      51.121
2014    9       27     3  56    4.60   582.7    3.1      51.098
2014    9       27     4   2    4.60   582.5    3.1      51.075
2014    9       27     4   7    4.60   582.4    3.1      51.053
2014    9       27     4  13    4.59   582.2    3.1      51.031
2014    9       27     4  18    4.59   582.0    3.1      51.011
2014    9       27     4  23    4.59   581.9    3.1      50.991
2014    9       27     4  29    4.59   581.7    3.1      50.972
2014    9       27     4  34    4.59   581.5    3.1      50.955
2014    9       27     4  40    4.59   581.4    3.1      50.939
2014    9       27     4  45    4.59   581.2    3.1      50.925
2014    9       27     4  51    4.59   581.0    3.1      50.914
2014    9       27     4  56    4.59   580.9    3.1      50.904
2014    9       27     5   2    4.59   580.7    3.1      50.897
2014    9       27     5   7    4.59   580.6    3.1      50.892
2014    9       27     5  13    4.59   580.4    3.1      50.889
2014    9       27     5  18    4.59   580.3    3.1      50.889
2014    9       27     5  24    4.59   580.2    3.1      50.891
2014    9       27     5  29    4.59   580.0    3.1      50.894
2014    9       27     5  35    4.59   579.9    3.1      50.899
2014    9       27     5  40    4.59   579.8    3.1      50.905
2014    9       27     5  45    4.59   579.7    3.1      50.911
2014    9       27     5  51    4.59   579.6    3.1      50.917
2014    9       27     5  56    4.59   579.4    3.1      50.922
2014    9       27     6   2    4.58   579.3    3.1      50.926
2014    9       27     6   7    4.58   579.2    3.1      50.929
2014    9       27     6  13    4.58   579.1    3.1      50.931
2014    9       27     6  18    4.58   579.0    3.1      50.933
2014    9       27     6  24    4.58   578.8    3.1      50.933
2014    9       27     6  29    4.58   578.7    3.1      50.932
2014    9       27     6  35    4.58   578.6    3.1      50.931
2014    9       27     6  40    4.58   578.5    3.1      50.928
2014    9       27     6  45    4.58   578.3    3.1      50.924
2014    9       27     6  51    4.58   578.2    3.1      50.920
2014    9       27     6  56    4.58   578.1    3.1      50.915
2014    9       27     7   2    4.57   577.9    3.1      50.909
2014    9       27     7   7    4.57   577.8    3.1      50.903
2014    9       27     7  13    4.57   577.7    3.1      50.896
2014    9       27     7  18    4.57   577.5    3.1      50.889
2014    9       27     7  24    4.57   577.4    3.1      50.881
2014    9       27     7  29    4.57   577.2    3.1      50.873
2014    9       27     7  35    4.57   577.1    3.1      50.865
2014    9       27     7  40    4.57   577.0    3.1      50.856
2014    9       27     7  45    4.57   576.8    3.1      50.847
2014    9       27     7  51    4.57   576.7    3.1      50.837
2014    9       27     7  56    4.56   576.5    3.1      50.825
2014    9       27     8   2    4.56   576.4    3.1      50.813
2014    9       27     8   7    4.56   576.2    3.1      50.800
2014    9       27     8  13    4.56   576.1    3.1      50.785
2014    9       27     8  18    4.56   576.0    3.1      50.770
2014    9       27     8  24    4.56   575.8    3.1      50.753
2014    9       27     8  29    4.56   575.7    3.1      50.736
2014    9       27     8  35    4.56   575.5    3.2      50.718
2014    9       27     8  40    4.56   575.4    3.2      50.698
2014    9       27     8  46    4.55   575.2    3.2      50.678
2014    9       27     8  51    4.55   575.1    3.2      50.657
2014    9       27     8  56    4.55   574.9    3.2      50.634
2014    9       27     9   2    4.55   574.8    3.2      50.611
2014    9       27     9   7    4.55   574.6    3.2      50.588
2014    9       27     9  13    4.55   574.5    3.2      50.563
2014    9       27     9  18    4.55   574.3    3.2      50.538
2014    9       27     9  24    4.55   574.2    3.2      50.512
2014    9       27     9  29    4.55   574.0    3.2      50.486
2014    9       27     9  35    4.54   573.9    3.2      50.458
2014    9       27     9  40    4.54   573.7    3.2      50.430
2014    9       27     9  46    4.54   573.6    3.2      50.402
2014    9       27     9  51    4.54   573.4    3.2      50.373
2014    9       27     9  56    4.54   573.3    3.1      50.343
2014    9       27    10   2    4.54   573.1    3.1      50.313
2014    9       27    10   7    4.54   573.0    3.1      50.282
2014    9       27    10  13    4.54   572.8    3.1      50.251
2014    9       27    10  18    4.54   572.6    3.1      50.219
2014    9       27    10  24    4.53   572.5    3.1      50.187
2014    9       27    10  29    4.53   572.3    3.1      50.155
2014    9       27    10  35    4.53   572.1    3.1      50.122
2014    9       27    10  40    4.53   572.0    3.1      50.090
2014    9       27    10  46    4.53   571.8    3.1      50.057
2014    9       27    10  51    4.53   571.6    3.1      50.025
2014    9       27    10  57    4.53   571.5    3.1      49.992
2014    9       27    11   2    4.53   571.3    3.1      49.961
2014    9       27    11   7    4.53   571.1    3.1      49.929
2014    9       27    11  13    4.53   570.9    3.1      49.898
2014    9       27    11  18    4.53   570.8    3.1      49.868
2014    9       27    11  24    4.53   570.6    3.1      49.839
2014    9       27    11  29    4.52   570.4    3.1      49.811
2014    9       27    11  35    4.52   570.3    3.1      49.783
2014    9       27    11  40    4.52   570.1    3.1      49.757
2014    9       27    11  46    4.52   569.9    3.1      49.732
2014    9       27    11  51    4.52   569.8    3.2      49.708
2014    9       27    11  57    4.52   569.6    3.2      49.685
2014    9       27    12   2    4.52   569.5    3.2      49.664
2014    9       27    12   8    4.52   569.3    3.2      49.644
2014    9       27    12  13    4.52   569.1    3.2      49.624
2014    9       27    12  18    4.52   569.0    3.2      49.606
2014    9       27    12  24    4.52   568.8    3.2      49.589
2014    9       27    12  29    4.52   568.7    3.2      49.573
2014    9       27    12  35    4.52   568.5    3.2      49.558
2014    9       27    12  40    4.52   568.4    3.2      49.544
2014    9       27    12  46    4.52   568.2    3.2      49.530
2014    9       27    12  51    4.52   568.1    3.2      49.517
2014    9       27    12  57    4.52   567.9    3.2      49.505
2014    9       27    13   2    4.52   567.7    3.2      49.493
2014    9       27    13   8    4.52   567.6    3.2      49.482
2014    9       27    13  13    4.51   567.4    3.2      49.471
2014    9       27    13  19    4.51   567.3    3.2      49.460
2014    9       27    13  24    4.51   567.1    3.2      49.450
2014    9       27    13  29    4.51   566.9    3.2      49.440
2014    9       27    13  35    4.51   566.8    3.2      49.431
2014    9       27    13  40    4.51   566.6    3.2      49.422
2014    9       27    13  46    4.51   566.4    3.2      49.414
2014    9       27    13  51    4.51   566.2    3.2      49.406
2014    9       27    13  57    4.51   566.1    3.2      49.399
2014    9       27    14   2    4.51   565.9    3.2      49.393
2014    9       27    14   8    4.51   565.7    3.2      49.388
2014    9       27    14  13    4.51   565.5    3.2      49.384
2014    9       27    14  19    4.51   565.4    3.2      49.381
2014    9       27    14  24    4.51   565.2    3.2      49.379
2014    9       27    14  30    4.51   565.0    3.2      49.378
2014    9       27    14  35    4.50   564.8    3.2      49.378
2014    9       27    14  40    4.50   564.7    3.2      49.379
2014    9       27    14  46    4.50   564.5    3.2      49.381
2014    9       27    14  51    4.50   564.3    3.2      49.383
2014    9       27    14  57    4.50   564.1    3.2      49.385
2014    9       27    15   2    4.50   564.0    3.2      49.386
2014    9       27    15   8    4.50   563.8    3.2      49.388
2014    9       27    15  13    4.50   563.6    3.2      49.390
2014    9       27    15  19    4.50   563.5    3.2      49.392
2014    9       27    15  24    4.50   563.3    3.2      49.394
2014    9       27    15  30    4.50   563.2    3.2      49.395
2014    9       27    15  35    4.50   563.0    3.2      49.397
2014    9       27    15  40    4.50   562.8    3.3      49.398
2014    9       27    15  46    4.50   562.7    3.3      49.399
2014    9       27    15  51    4.50   562.5    3.3      49.400
2014    9       27    15  57    4.50   562.4    3.3      49.401
2014    9       27    16   2    4.50   562.2    3.3      49.401
2014    9       27    16   8    4.50   562.0    3.3      49.402
2014    9       27    16  13    4.50   561.9    3.3      49.401
2014    9       27    16  19    4.50   561.7    3.3      49.400
2014    9       27    16  24    4.50   561.5    3.3      49.397
2014    9       27    16  30    4.50   561.4    3.3      49.394
2014    9       27    16  35    4.50   561.2    3.3      49.390
2014    9       27    16  40    4.49   561.1    3.3      49.386
2014    9       27    16  46    4.49   560.9    3.3      49.380
2014    9       27    16  51    4.49   560.7    3.3      49.374
2014    9       27    16  57    4.49   560.6    3.3      49.367
2014    9       27    17   2    4.49   560.4    3.3      49.359
2014    9       27    17   8    4.49   560.3    3.3      49.351
2014    9       27    17  13    4.49   560.1    3.3      49.342
2014    9       27    17  19    4.49   560.0    3.3      49.333
2014    9       27    17  24    4.49   559.8    3.3      49.323
2014    9       27    17  30    4.49   559.6    3.3      49.312
2014    9       27    17  35    4.49   559.5    3.3      49.300
2014    9       27    17  40    4.49   559.3    3.3      49.289
2014    9       27    17  46    4.49   559.2    3.3      49.276
2014    9       27    17  51    4.49   559.0    3.3      49.263
2014    9       27    17  57    4.49   558.9    3.3      49.250
2014    9       27    18   2    4.49   558.7    3.3      49.236
2014    9       27    18   8    4.49   558.5    3.3      49.221
2014    9       27    18  13    4.49   558.4    3.3      49.207
2014    9       27    18  19    4.49   558.2    3.3      49.191
2014    9       27    18  24    4.49   558.1    3.3      49.175
2014    9       27    18  30    4.49   557.9    3.3      49.159
2014    9       27    18  35    4.48   557.8    3.3      49.142
2014    9       27    18  41    4.48   557.6    3.3      49.125
2014    9       27    18  46    4.48   557.5    3.3      49.107
2014    9       27    18  51    4.48   557.3    3.3      49.089
2014    9       27    18  57    4.48   557.1    3.3      49.071
2014    9       27    19   2    4.48   557.0    3.3      49.052
2014    9       27    19   8    4.48   556.8    3.3      49.032
2014    9       27    19  13    4.48   556.7    3.3      49.012
2014    9       27    19  19    4.48   556.5    3.3      48.992
2014    9       27    19  24    4.48   556.3    3.3      48.971
2014    9       27    19  30    4.48   556.2    3.3      48.950
2014    9       27    19  35    4.48   556.0    3.3      48.928
2014    9       27    19  41    4.48   555.9    3.3      48.907
2014    9       27    19  46    4.48   555.7    3.3      48.885
2014    9       27    19  52    4.48   555.5    3.3      48.862
2014    9       27    19  57    4.48   555.4    3.3      48.840
2014    9       27    20   2    4.48   555.2    3.3      48.817
2014    9       27    20   8    4.47   555.0    3.3      48.794
2014    9       27    20  13    4.47   554.9    3.3      48.771
2014    9       27    20  19    4.47   554.7    3.3      48.748
2014    9       27    20  24    4.47   554.5    3.3      48.725
2014    9       27    20  30    4.47   554.4    3.3      48.703
2014    9       27    20  35    4.47   554.2    3.3      48.681
2014    9       27    20  41    4.47   554.0    3.3      48.659
2014    9       27    20  46    4.47   553.9    3.3      48.637
2014    9       27    20  52    4.47   553.7    3.3      48.616
2014    9       27    20  57    4.47   553.5    3.3      48.595
2014    9       27    21   3    4.47   553.3    3.3      48.575
2014    9       27    21   8    4.47   553.2    3.3      48.556
2014    9       27    21  13    4.47   553.0    3.3      48.538
2014    9       27    21  19    4.47   552.8    3.3      48.520
2014    9       27    21  24    4.47   552.6    3.3      48.504
2014    9       27    21  30    4.47   552.5    3.3      48.488
2014    9       27    21  35    4.47   552.3    3.3      48.474
2014    9       27    21  41    4.46   552.1    3.3      48.460
2014    9       27    21  46    4.46   552.0    3.3      48.448
2014    9       27    21  52    4.46   551.8    3.3      48.437
2014    9       27    21  57    4.46   551.6    3.3      48.427
2014    9       27    22   3    4.46   551.5    3.4      48.417
2014    9       27    22   8    4.46   551.3    3.4      48.410
2014    9       27    22  13    4.46   551.1    3.4      48.403
2014    9       27    22  19    4.46   551.0    3.4      48.397
2014    9       27    22  24    4.46   550.8    3.4      48.392
2014    9       27    22  30    4.46   550.6    3.4      48.388
2014    9       27    22  35    4.46   550.5    3.4      48.385
2014    9       27    22  41    4.46   550.3    3.4      48.383
2014    9       27    22  46    4.46   550.2    3.4      48.381
2014    9       27    22  52    4.46   550.0    3.4      48.380
2014    9       27    22  57    4.46   549.8    3.4      48.379
2014    9       27    23   3    4.46   549.7    3.4      48.380
2014    9       27    23   8    4.46   549.5    3.4      48.380
2014    9       27    23  13    4.46   549.4    3.4      48.382
2014    9       27    23  19    4.46   549.2    3.4      48.383
2014    9       27    23  24    4.46   549.0    3.4      48.385
2014    9       27    23  30    4.46   548.9    3.4      48.385
2014    9       27    23  35    4.46   548.7    3.4      48.386
2014    9       27    23  41    4.46   548.6    3.4      48.386
2014    9       27    23  46    4.46   548.4    3.4      48.385
2014    9       27    23  52    4.46   548.2    3.4      48.384
2014    9       27    23  57    4.46   548.1    3.4      48.382
2014    9       28     0   3    4.46   547.9    3.4      48.380
2014    9       28     0   8    4.46   547.8    3.4      48.378
2014    9       28     0  13    4.46   547.6    3.4      48.375
2014    9       28     0  19    4.46   547.4    3.4      48.371
2014    9       28     0  24    4.46   547.3    3.4      48.367
2014    9       28     0  30    4.46   547.1    3.4      48.363
2014    9       28     0  35    4.46   546.9    3.4      48.358
2014    9       28     0  41    4.45   546.8    3.4      48.352
2014    9       28     0  46    4.45   546.6    3.4      48.347
2014    9       28     0  52    4.45   546.4    3.4      48.341
2014    9       28     0  57    4.45   546.3    3.4      48.335
2014    9       28     1   3    4.45   546.1    3.4      48.328
2014    9       28     1   8    4.45   546.0    3.4      48.321
2014    9       28     1  14    4.45   545.8    3.4      48.314
2014    9       28     1  19    4.45   545.6    3.4      48.306
2014    9       28     1  24    4.45   545.5    3.5      48.298
2014    9       28     1  30    4.45   545.3    3.5      48.290
2014    9       28     1  35    4.45   545.1    3.5      48.281
2014    9       28     1  41    4.45   545.0    3.5      48.272
2014    9       28     1  46    4.45   544.8    3.5      48.263
2014    9       28     1  52    4.45   544.7    3.5      48.253
2014    9       28     1  57    4.45   544.5    3.5      48.243
2014    9       28     2   3    4.45   544.3    3.5      48.233
2014    9       28     2   8    4.45   544.2    3.5      48.223
2014    9       28     2  14    4.45   544.0    3.5      48.212
2014    9       28     2  19    4.45   543.9    3.5      48.201
2014    9       28     2  25    4.45   543.7    3.5      48.189
2014    9       28     2  30    4.45   543.5    3.5      48.178
2014    9       28     2  35    4.45   543.4    3.5      48.166
2014    9       28     2  41    4.44   543.2    3.5      48.153
2014    9       28     2  46    4.44   543.1    3.5      48.141
2014    9       28     2  52    4.44   542.9    3.5      48.128
2014    9       28     2  57    4.44   542.7    3.5      48.115
2014    9       28     3   3    4.44   542.6    3.5      48.101
2014    9       28     3   8    4.44   542.4    3.5      48.088
2014    9       28     3  14    4.44   542.3    3.5      48.074
2014    9       28     3  19    4.44   542.1    3.5      48.060
2014    9       28     3  25    4.44   542.0    3.5      48.046
2014    9       28     3  30    4.44   541.8    3.5      48.032
2014    9       28     3  35    4.44   541.6    3.5      48.017
2014    9       28     3  41    4.44   541.5    3.5      48.003
2014    9       28     3  46    4.44   541.3    3.5      47.988
2014    9       28     3  52    4.44   541.2    3.5      47.974
2014    9       28     3  57    4.44   541.0    3.5      47.959
2014    9       28     4   3    4.44   540.8    3.5      47.945
2014    9       28     4   8    4.44   540.7    3.5      47.930
2014    9       28     4  14    4.44   540.5    3.5      47.916
2014    9       28     4  19    4.43   540.4    3.5      47.902
2014    9       28     4  25    4.43   540.2    3.5      47.888
2014    9       28     4  30    4.43   540.1    3.5      47.874
2014    9       28     4  36    4.43   539.9    3.5      47.861
2014    9       28     4  41    4.43   539.7    3.5      47.847
2014    9       28     4  46    4.43   539.6    3.5      47.834
2014    9       28     4  52    4.43   539.4    3.5      47.821
2014    9       28     4  57    4.43   539.3    3.5      47.809
2014    9       28     5   3    4.43   539.1    3.5      47.797
2014    9       28     5   8    4.43   538.9    3.5      47.785
2014    9       28     5  14    4.43   538.8    3.5      47.774
2014    9       28     5  19    4.43   538.6    3.5      47.763
2014    9       28     5  25    4.43   538.5    3.5      47.752
2014    9       28     5  30    4.43   538.3    3.5      47.742
2014    9       28     5  36    4.43   538.2    3.5      47.732
2014    9       28     5  41    4.43   538.0    3.5      47.722
2014    9       28     5  46    4.43   537.9    3.5      47.713
2014    9       28     5  52    4.43   537.7    3.5      47.704
2014    9       28     5  57    4.43   537.5    3.5      47.695
2014    9       28     6   3    4.43   537.4    3.5      47.686
2014    9       28     6   8    4.43   537.2    3.5      47.677
2014    9       28     6  14    4.43   537.1    3.5      47.669
2014    9       28     6  19    4.42   536.9    3.5      47.660
2014    9       28     6  25    4.42   536.8    3.5      47.652
2014    9       28     6  30    4.42   536.6    3.5      47.644
2014    9       28     6  36    4.42   536.5    3.5      47.635
2014    9       28     6  41    4.42   536.3    3.5      47.627
2014    9       28     6  46    4.42   536.1    3.5      47.618
2014    9       28     6  52    4.42   536.0    3.6      47.609
2014    9       28     6  57    4.42   535.8    3.6      47.600
2014    9       28     7   3    4.42   535.7    3.6      47.591
2014    9       28     7   8    4.42   535.5    3.6      47.582
2014    9       28     7  14    4.42   535.3    3.6      47.572
2014    9       28     7  19    4.42   535.2    3.6      47.562
2014    9       28     7  25    4.42   535.0    3.6      47.552
2014    9       28     7  30    4.42   534.9    3.6      47.542
2014    9       28     7  36    4.42   534.7    3.6      47.531
2014    9       28     7  41    4.42   534.5    3.6      47.521
2014    9       28     7  46    4.41   534.4    3.6      47.510
2014    9       28     7  52    4.41   534.2    3.6      47.498
2014    9       28     7  57    4.41   534.0    3.6      47.487
2014    9       28     8   3    4.41   533.9    3.6      47.475
2014    9       28     8   8    4.41   533.7    3.6      47.464
2014    9       28     8  14    4.41   533.5    3.6      47.452
2014    9       28     8  19    4.41   533.4    3.6      47.439
2014    9       28     8  25    4.41   533.2    3.6      47.427
2014    9       28     8  30    4.41   533.0    3.6      47.414
2014    9       28     8  36    4.41   532.9    3.6      47.402
2014    9       28     8  41    4.41   532.7    3.6      47.389
2014    9       28     8  47    4.41   532.5    3.6      47.376
2014    9       28     8  52    4.41   532.4    3.6      47.362
2014    9       28     8  57    4.41   532.2    3.6      47.349
2014    9       28     9   3    4.41   532.1    3.6      47.335
2014    9       28     9   8    4.41   531.9    3.6      47.322
2014    9       28     9  14    4.41   531.7    3.6      47.308
2014    9       28     9  19    4.40   531.6    3.6      47.294
2014    9       28     9  25    4.40   531.4    3.6      47.280
2014    9       28     9  30    4.40   531.2    3.6      47.266
2014    9       28     9  36    4.40   531.1    3.6      47.252
2014    9       28     9  41    4.40   530.9    3.6      47.237
2014    9       28     9  47    4.40   530.7    3.6      47.223
2014    9       28     9  52    4.40   530.6    3.6      47.209
2014    9       28     9  57    4.40   530.4    3.6      47.195
2014    9       28    10   3    4.40   530.2    3.6      47.181
2014    9       28    10   8    4.40   530.1    3.6      47.167
2014    9       28    10  14    4.40   529.9    3.6      47.153
2014    9       28    10  19    4.40   529.7    3.6      47.139
2014    9       28    10  25    4.40   529.6    3.6      47.125
2014    9       28    10  30    4.40   529.4    3.6      47.111
2014    9       28    10  36    4.40   529.2    3.6      47.098
2014    9       28    10  41    4.40   529.1    3.6      47.085
2014    9       28    10  47    4.40   528.9    3.6      47.072
2014    9       28    10  52    4.40   528.7    3.6      47.059
2014    9       28    10  58    4.39   528.6    3.6      47.047
2014    9       28    11   3    4.39   528.4    3.6      47.034
2014    9       28    11   8    4.39   528.3    3.6      47.022
2014    9       28    11  14    4.39   528.1    3.6      47.011
2014    9       28    11  19    4.39   527.9    3.6      46.999
2014    9       28    11  25    4.39   527.8    3.6      46.988
2014    9       28    11  30    4.39   527.6    3.6      46.977
2014    9       28    11  36    4.39   527.5    3.6      46.966
2014    9       28    11  41    4.39   527.3    3.6      46.956
2014    9       28    11  47    4.39   527.1    3.6      46.945
2014    9       28    11  52    4.39   527.0    3.6      46.935
2014    9       28    11  58    4.39   526.8    3.6      46.925
2014    9       28    12   3    4.39   526.7    3.6      46.916
2014    9       28    12   8    4.39   526.5    3.6      46.906
2014    9       28    12  14    4.39   526.3    3.6      46.896
2014    9       28    12  19    4.39   526.2    3.6      46.887
2014    9       28    12  25    4.38   526.0    3.7      46.878
2014    9       28    12  30    4.38   525.9    3.7      46.869
2014    9       28    12  36    4.38   525.7    3.7      46.859
2014    9       28    12  41    4.38   525.5    3.7      46.850
2014    9       28    12  47    4.38   525.4    3.7      46.841
2014    9       28    12  52    4.38   525.2    3.7      46.832
2014    9       28    12  58    4.38   525.1    3.7      46.823
2014    9       28    13   3    4.38   524.9    3.7      46.814
2014    9       28    13   9    4.38   524.7    3.7      46.805
2014    9       28    13  14    4.38   524.6    3.7      46.796
2014    9       28    13  19    4.38   524.4    3.7      46.787
2014    9       28    13  25    4.38   524.3    3.7      46.778
2014    9       28    13  30    4.38   524.1    3.7      46.769
2014    9       28    13  36    4.38   523.9    3.7      46.760
2014    9       28    13  41    4.37   523.8    3.7      46.751
2014    9       28    13  47    4.37   523.6    3.7      46.741
2014    9       28    13  52    4.37   523.5    3.7      46.732
2014    9       28    13  58    4.37   523.3    3.7      46.722
2014    9       28    14   3    4.37   523.1    3.7      46.712
2014    9       28    14   9    4.37   523.0    3.7      46.702
2014    9       28    14  14    4.37   522.8    3.7      46.692
2014    9       28    14  19    4.37   522.7    3.7      46.682
2014    9       28    14  25    4.37   522.5    3.7      46.671
2014    9       28    14  30    4.37   522.3    3.7      46.660
2014    9       28    14  36    4.37   522.2    3.7      46.648
2014    9       28    14  41    4.37   522.0    3.7      46.637
2014    9       28    14  47    4.37   521.9    3.7      46.624
2014    9       28    14  52    4.37   521.7    3.7      46.612
2014    9       28    14  58    4.36   521.5    3.7      46.599
2014    9       28    15   3    4.36   521.4    3.7      46.586
2014    9       28    15   9    4.36   521.2    3.7      46.573
2014    9       28    15  14    4.36   521.0    3.7      46.559
2014    9       28    15  19    4.36   520.9    3.7      46.545
2014    9       28    15  25    4.36   520.7    3.7      46.530
2014    9       28    15  30    4.36   520.5    3.7      46.515
2014    9       28    15  36    4.36   520.4    3.7      46.500
2014    9       28    15  41    4.36   520.2    3.7      46.485
2014    9       28    15  47    4.36   520.1    3.7      46.469
2014    9       28    15  52    4.36   519.9    3.7      46.453
2014    9       28    15  58    4.36   519.7    3.7      46.437
2014    9       28    16   3    4.36   519.6    3.7      46.420
2014    9       28    16   9    4.35   519.4    3.7      46.404
2014    9       28    16  14    4.35   519.2    3.7      46.386
2014    9       28    16  19    4.35   519.1    3.7      46.369
2014    9       28    16  25    4.35   518.9    3.7      46.352
2014    9       28    16  30    4.35   518.7    3.7      46.334
2014    9       28    16  36    4.35   518.6    3.7      46.317
2014    9       28    16  41    4.35   518.4    3.7      46.299
2014    9       28    16  47    4.35   518.2    3.7      46.281
2014    9       28    16  52    4.35   518.1    3.7      46.263
2014    9       28    16  58    4.35   517.9    3.7      46.244
2014    9       28    17   3    4.35   517.7    3.7      46.226
2014    9       28    17   9    4.35   517.5    3.7      46.207
2014    9       28    17  14    4.34   517.4    3.7      46.188
2014    9       28    17  20    4.34   517.2    3.7      46.170
2014    9       28    17  25    4.34   517.0    3.7      46.151
2014    9       28    17  30    4.34   516.9    3.7      46.132
2014    9       28    17  36    4.34   516.7    3.7      46.113
2014    9       28    17  41    4.34   516.5    3.7      46.094
2014    9       28    17  47    4.34   516.4    3.7      46.075
2014    9       28    17  52    4.34   516.2    3.7      46.056
2014    9       28    17  58    4.34   516.0    3.7      46.036
2014    9       28    18   3    4.34   515.9    3.7      46.017
2014    9       28    18   9    4.34   515.7    3.7      45.998
2014    9       28    18  14    4.34   515.5    3.7      45.979
2014    9       28    18  20    4.33   515.3    3.7      45.959
2014    9       28    18  25    4.33   515.2    3.7      45.940
2014    9       28    18  31    4.33   515.0    3.7      45.921
2014    9       28    18  36    4.33   514.8    3.7      45.902
2014    9       28    18  41    4.33   514.7    3.7      45.883
2014    9       28    18  47    4.33   514.5    3.7      45.864
2014    9       28    18  52    4.33   514.3    3.7      45.845
2014    9       28    18  58    4.33   514.1    3.7      45.826
2014    9       28    19   3    4.33   514.0    3.7      45.807
2014    9       28    19   9    4.33   513.8    3.7      45.788
2014    9       28    19  14    4.33   513.6    3.7      45.770
2014    9       28    19  20    4.32   513.5    3.8      45.751
2014    9       28    19  25    4.32   513.3    3.8      45.733
2014    9       28    19  31    4.32   513.1    3.8      45.715
2014    9       28    19  36    4.32   512.9    3.8      45.697
2014    9       28    19  41    4.32   512.8    3.8      45.679
2014    9       28    19  47    4.32   512.6    3.8      45.662
2014    9       28    19  52    4.32   512.4    3.8      45.645
2014    9       28    19  58    4.32   512.3    3.8      45.628
2014    9       28    20   3    4.32   512.1    3.8      45.611
2014    9       28    20   9    4.32   511.9    3.8      45.595
2014    9       28    20  14    4.32   511.7    3.8      45.579
2014    9       28    20  20    4.32   511.6    3.8      45.563
2014    9       28    20  25    4.31   511.4    3.8      45.548
2014    9       28    20  31    4.31   511.2    3.8      45.533
2014    9       28    20  36    4.31   511.1    3.8      45.518
2014    9       28    20  41    4.31   510.9    3.8      45.504
2014    9       28    20  47    4.31   510.7    3.8      45.490
2014    9       28    20  52    4.31   510.6    3.8      45.476
2014    9       28    20  58    4.31   510.4    3.8      45.463
2014    9       28    21   3    4.31   510.2    3.8      45.450
2014    9       28    21   9    4.31   510.1    3.8      45.437
2014    9       28    21  14    4.31   509.9    3.8      45.425
2014    9       28    21  20    4.31   509.7    3.8      45.413
2014    9       28    21  25    4.31   509.6    3.8      45.401
2014    9       28    21  31    4.31   509.4    3.8      45.390
2014    9       28    21  36    4.31   509.2    3.8      45.379
2014    9       28    21  41    4.31   509.1    3.8      45.368
2014    9       28    21  47    4.30   508.9    3.8      45.358
2014    9       28    21  52    4.30   508.8    3.8      45.347
2014    9       28    21  58    4.30   508.6    3.8      45.337
2014    9       28    22   3    4.30   508.4    3.8      45.328
2014    9       28    22   9    4.30   508.3    3.8      45.318
2014    9       28    22  14    4.30   508.1    3.8      45.309
2014    9       28    22  20    4.30   508.0    3.8      45.300
2014    9       28    22  25    4.30   507.8    3.8      45.292
2014    9       28    22  31    4.30   507.6    3.8      45.284
2014    9       28    22  36    4.30   507.5    3.8      45.276
2014    9       28    22  42    4.30   507.3    3.8      45.268
2014    9       28    22  47    4.30   507.2    3.8      45.261
2014    9       28    22  52    4.30   507.0    3.8      45.254
2014    9       28    22  58    4.30   506.9    3.8      45.247
2014    9       28    23   3    4.30   506.7    3.8      45.240
2014    9       28    23   9    4.30   506.5    3.8      45.234
2014    9       28    23  14    4.30   506.4    3.8      45.229
2014    9       28    23  20    4.30   506.2    3.8      45.224
2014    9       28    23  25    4.30   506.1    3.8      45.219
2014    9       28    23  31    4.30   505.9    3.8      45.215
2014    9       28    23  36    4.30   505.8    3.8      45.211
2014    9       28    23  42    4.30   505.6    3.8      45.208
2014    9       28    23  47    4.30   505.5    3.8      45.205
2014    9       28    23  52    4.30   505.4    3.9      45.203
2014    9       28    23  58    4.30   505.2    3.9      45.201
2014    9       29     0   3    4.31   505.1    3.9      45.200
2014    9       29     0   9    4.31   504.9    3.9      45.199
2014    9       29     0  14    4.31   504.8    3.9      45.199
2014    9       29     0  20    4.31   504.7    3.9      45.200
2014    9       29     0  25    4.31   504.5    3.9      45.201
2014    9       29     0  31    4.31   504.4    3.9      45.202
2014    9       29     0  36    4.31   504.3    3.9      45.204
2014    9       29     0  42    4.31   504.1    3.9      45.207
2014    9       29     0  47    4.31   504.0    3.9      45.210
2014    9       29     0  53    4.32   503.9    3.9      45.213
2014    9       29     0  58    4.32   503.7    3.9      45.217
2014    9       29     1   3    4.32   503.6    3.9      45.221
2014    9       29     1   9    4.32   503.5    3.9      45.225
2014    9       29     1  14    4.32   503.4    3.9      45.230
2014    9       29     1  20    4.32   503.2    3.9      45.235
2014    9       29     1  25    4.33   503.1    3.9      45.240
2014    9       29     1  31    4.33   503.0    3.9      45.246
2014    9       29     1  36    4.33   502.9    3.9      45.251
2014    9       29     1  42    4.33   502.7    3.9      45.257
2014    9       29     1  47    4.34   502.6    3.9      45.263
2014    9       29     1  53    4.34   502.5    3.9      45.270
2014    9       29     1  58    4.34   502.4    3.9      45.276
2014    9       29     2   4    4.34   502.2    3.9      45.283
2014    9       29     2   9    4.35   502.1    3.9      45.290
2014    9       29     2  14    4.35   502.0    3.9      45.298
2014    9       29     2  20    4.35   501.9    4.0      45.306
2014    9       29     2  25    4.36   501.8    4.0      45.314
2014    9       29     2  31    4.36   501.6    4.0      45.322
2014    9       29     2  36    4.36   501.5    4.0      45.331
2014    9       29     2  42    4.37   501.4    4.0      45.341
2014    9       29     2  47    4.37   501.3    4.0      45.351
2014    9       29     2  53    4.38   501.2    4.0      45.361
2014    9       29     2  58    4.38   501.1    4.0      45.372
2014    9       29     3   4    4.38   500.9    4.0      45.384
2014    9       29     3   9    4.39   500.8    4.0      45.395
2014    9       29     3  14    4.39   500.7    4.0      45.408
2014    9       29     3  20    4.40   500.6    4.0      45.420
2014    9       29     3  25    4.40   500.5    4.0      45.434
2014    9       29     3  31    4.41   500.4    4.0      45.447
2014    9       29     3  36    4.42   500.3    4.0      45.461
2014    9       29     3  42    4.42   500.2    4.0      45.475
2014    9       29     3  47    4.43   500.1    4.0      45.490
2014    9       29     3  53    4.43   500.0    4.0      45.505
2014    9       29     3  58    4.44   499.9    4.1      45.521
2014    9       29     4   4    4.45   499.8    4.1      45.537
2014    9       29     4   9    4.45   499.6    4.1      45.553
2014    9       29     4  14    4.46   499.6    4.1      45.569
2014    9       29     4  20    4.47   499.5    4.1      45.586
2014    9       29     4  25    4.47   499.4    4.1      45.602
2014    9       29     4  31    4.48   499.3    4.1      45.619
2014    9       29     4  36    4.49   499.2    4.1      45.635
2014    9       29     4  42    4.49   499.1    4.1      45.651
2014    9       29     4  47    4.50   499.0    4.1      45.666
2014    9       29     4  53    4.51   498.9    4.1      45.681
2014    9       29     4  58    4.52   498.8    4.1      45.695
2014    9       29     5   4    4.52   498.7    4.1      45.707
2014    9       29     5   9    4.53   498.6    4.1      45.718
2014    9       29     5  14    4.54   498.5    4.1      45.727
2014    9       29     5  20    4.55   498.4    4.1      45.733
2014    9       29     5  25    4.55   498.3    4.2      45.737
2014    9       29     5  31    4.56   498.1    4.2      45.739
2014    9       29     5  36    4.57   498.0    4.2      45.739
2014    9       29     5  42    4.58   497.9    4.2      45.738
2014    9       29     5  47    4.58   497.8    4.2      45.734
2014    9       29     5  53    4.59   497.6    4.2      45.729
2014    9       29     5  58    4.60   497.5    4.2      45.722
2014    9       29     6   4    4.61   497.4    4.2      45.713
2014    9       29     6   9    4.61   497.2    4.2      45.703
2014    9       29     6  15    4.62   497.1    4.2      45.691
2014    9       29     6  20    4.63   496.9    4.2      45.678
2014    9       29     6  25    4.64   496.8    4.2      45.664
2014    9       29     6  31    4.65   496.6    4.2      45.648
2014    9       29     6  36    4.65   496.4    4.2      45.630
2014    9       29     6  42    4.66   496.3    4.2      45.612
2014    9       29     6  47    4.67   496.1    4.2      45.592
2014    9       29     6  53    4.67   495.9    4.2      45.571
2014    9       29     6  58    4.68   495.8    4.2      45.549
2014    9       29     7   4    4.69   495.6    4.2      45.526
2014    9       29     7   9    4.70   495.4    4.2      45.502
2014    9       29     7  15    4.70   495.2    4.2      45.477
2014    9       29     7  20    4.71   495.0    4.2      45.452
2014    9       29     7  25    4.71   494.8    4.2      45.425
2014    9       29     7  31    4.72   494.6    4.2      45.398
2014    9       29     7  36    4.73   494.4    4.2      45.370
2014    9       29     7  42    4.73   494.2    4.2      45.342
2014    9       29     7  47    4.74   494.0    4.3      45.313
2014    9       29     7  53    4.74   493.8    4.3      45.283
2014    9       29     7  58    4.75   493.6    4.3      45.252
2014    9       29     8   4    4.75   493.4    4.3      45.221
2014    9       29     8   9    4.76   493.2    4.3      45.189
2014    9       29     8  15    4.76   493.0    4.3      45.156
2014    9       29     8  20    4.76   492.8    4.3      45.122
2014    9       29     8  26    4.77   492.6    4.3      45.088
2014    9       29     8  31    4.77   492.4    4.3      45.053
2014    9       29     8  36    4.78   492.1    4.3      45.017
2014    9       29     8  42    4.78   491.9    4.3      44.981
2014    9       29     8  47    4.78   491.7    4.3      44.944
2014    9       29     8  53    4.78   491.5    4.3      44.906
2014    9       29     8  58    4.79   491.3    4.3      44.867
2014    9       29     9   4    4.79   491.1    4.3      44.827
2014    9       29     9   9    4.79   490.8    4.3      44.787
2014    9       29     9  15    4.79   490.6    4.3      44.746
2014    9       29     9  20    4.80   490.4    4.3      44.705
2014    9       29     9  26    4.80   490.2    4.3      44.662
2014    9       29     9  31    4.80   489.9    4.3      44.620
2014    9       29     9  37    4.80   489.7    4.3      44.577
2014    9       29     9  42    4.80   489.5    4.3      44.533
2014    9       29     9  47    4.80   489.2    4.3      44.489
2014    9       29     9  53    4.80   489.0    4.3      44.444
2014    9       29     9  58    4.80   488.8    4.3      44.399
2014    9       29    10   4    4.80   488.5    4.3      44.354
2014    9       29    10   9    4.80   488.3    4.3      44.308
2014    9       29    10  15    4.80   488.0    4.3      44.262
2014    9       29    10  20    4.80   487.8    4.3      44.216
2014    9       29    10  26    4.80   487.5    4.3      44.170
2014    9       29    10  31    4.80   487.3    4.3      44.123
2014    9       29    10  37    4.80   487.1    4.3      44.077
2014    9       29    10  42    4.80   486.8    4.3      44.030
2014    9       29    10  47    4.80   486.6    4.3      43.983
2014    9       29    10  53    4.80   486.3    4.3      43.936
2014    9       29    10  58    4.80   486.1    4.3      43.889
2014    9       29    11   4    4.80   485.8    4.3      43.841
2014    9       29    11   9    4.80   485.6    4.3      43.794
2014    9       29    11  15    4.80   485.3    4.3      43.746
2014    9       29    11  20    4.80   485.1    4.3      43.699
2014    9       29    11  26    4.80   484.8    4.3      43.651
2014    9       29    11  31    4.79   484.6    4.3      43.603
2014    9       29    11  37    4.79   484.3    4.3      43.556
2014    9       29    11  42    4.79   484.1    4.3      43.508
2014    9       29    11  48    4.79   483.8    4.3      43.460
2014    9       29    11  53    4.79   483.6    4.3      43.412
2014    9       29    11  58    4.79   483.3    4.3      43.364
2014    9       29    12   4    4.78   483.1    4.3      43.315
2014    9       29    12   9    4.78   482.8    4.3      43.267
2014    9       29    12  15    4.78   482.6    4.3      43.219
2014    9       29    12  20    4.78   482.3    4.2      43.171
2014    9       29    12  26    4.78   482.1    4.2      43.123
2014    9       29    12  31    4.77   481.8    4.2      43.075
2014    9       29    12  37    4.77   481.6    4.2      43.027
2014    9       29    12  42    4.77   481.3    4.2      42.979
2014    9       29    12  48    4.77   481.1    4.2      42.931
2014    9       29    12  53    4.77   480.8    4.2      42.883
2014    9       29    12  58    4.76   480.6    4.2      42.835
2014    9       29    13   4    4.76   480.3    4.2      42.788
2014    9       29    13   9    4.76   480.0    4.2      42.740
2014    9       29    13  15    4.76   479.8    4.2      42.693
2014    9       29    13  20    4.75   479.5    4.2      42.646
2014    9       29    13  26    4.75   479.3    4.2      42.600
2014    9       29    13  31    4.75   479.0    4.2      42.553
2014    9       29    13  37    4.75   478.8    4.2      42.507
2014    9       29    13  42    4.74   478.5    4.2      42.461
2014    9       29    13  48    4.74   478.3    4.2      42.415
2014    9       29    13  53    4.74   478.0    4.2      42.369
2014    9       29    13  58    4.74   477.8    4.2      42.324
2014    9       29    14   4    4.73   477.5    4.2      42.279
2014    9       29    14   9    4.73   477.2    4.2      42.235
2014    9       29    14  15    4.73   477.0    4.2      42.191
2014    9       29    14  20    4.72   476.7    4.2      42.147
2014    9       29    14  26    4.72   476.5    4.2      42.104
2014    9       29    14  31    4.72   476.2    4.2      42.061
2014    9       29    14  37    4.72   476.0    4.2      42.018
2014    9       29    14  42    4.71   475.7    4.2      41.976
2014    9       29    14  48    4.71   475.5    4.2      41.934
2014    9       29    14  53    4.71   475.2    4.2      41.893
2014    9       29    14  59    4.71   475.0    4.2      41.852
2014    9       29    15   4    4.70   474.7    4.2      41.811
2014    9       29    15   9    4.70   474.5    4.2      41.771
2014    9       29    15  15    4.70   474.2    4.2      41.732
2014    9       29    15  20    4.69   474.0    4.2      41.693
2014    9       29    15  26    4.69   473.7    4.2      41.654
2014    9       29    15  31    4.69   473.5    4.2      41.616
2014    9       29    15  37    4.68   473.2    4.2      41.578
2014    9       29    15  42    4.68   473.0    4.2      41.541
2014    9       29    15  48    4.68   472.7    4.2      41.504
2014    9       29    15  53    4.68   472.5    4.2      41.467
2014    9       29    15  59    4.67   472.2    4.2      41.431
2014    9       29    16   4    4.67   472.0    4.2      41.396
2014    9       29    16  10    4.67   471.8    4.2      41.361
2014    9       29    16  15    4.66   471.5    4.2      41.326
2014    9       29    16  20    4.66   471.3    4.2      41.292
2014    9       29    16  26    4.66   471.0    4.2      41.258
2014    9       29    16  31    4.65   470.8    4.2      41.225
2014    9       29    16  37    4.65   470.6    4.2      41.193
2014    9       29    16  42    4.65   470.3    4.2      41.160
2014    9       29    16  48    4.64   470.1    4.2      41.128
2014    9       29    16  53    4.64   469.8    4.2      41.097
2014    9       29    16  59    4.64   469.6    4.2      41.066
2014    9       29    17   4    4.63   469.4    4.2      41.035
2014    9       29    17  10    4.63   469.1    4.2      41.005
2014    9       29    17  15    4.63   468.9    4.2      40.975
2014    9       29    17  21    4.62   468.7    4.2      40.946
2014    9       29    17  26    4.62   468.4    4.2      40.917
2014    9       29    17  31    4.62   468.2    4.2      40.888
2014    9       29    17  37    4.62   468.0    4.2      40.859
2014    9       29    17  42    4.61   467.7    4.2      40.831
2014    9       29    17  48    4.61   467.5    4.3      40.803
2014    9       29    17  53    4.61   467.3    4.3      40.776
2014    9       29    17  59    4.60   467.1    4.3      40.748
2014    9       29    18   4    4.60   466.8    4.3      40.721
2014    9       29    18  10    4.60   466.6    4.3      40.694
2014    9       29    18  15    4.59   466.4    4.3      40.667
2014    9       29    18  21    4.59   466.1    4.3      40.641
2014    9       29    18  26    4.59   465.9    4.3      40.615
2014    9       29    18  31    4.58   465.7    4.3      40.589
2014    9       29    18  37    4.58   465.4    4.3      40.563
2014    9       29    18  42    4.58   465.2    4.3      40.538
2014    9       29    18  48    4.57   465.0    4.3      40.512
2014    9       29    18  53    4.57   464.8    4.3      40.487
2014    9       29    18  59    4.57   464.5    4.3      40.463
2014    9       29    19   4    4.56   464.3    4.3      40.438
2014    9       29    19  10    4.56   464.1    4.3      40.414
2014    9       29    19  15    4.56   463.9    4.3      40.391
2014    9       29    19  21    4.56   463.6    4.3      40.367
2014    9       29    19  26    4.55   463.4    4.3      40.344
2014    9       29    19  31    4.55   463.2    4.3      40.321
2014    9       29    19  37    4.55   463.0    4.3      40.299
2014    9       29    19  42    4.54   462.7    4.3      40.277
2014    9       29    19  48    4.54   462.5    4.3      40.255
2014    9       29    19  53    4.54   462.3    4.3      40.234
2014    9       29    19  59    4.53   462.1    4.3      40.213
2014    9       29    20   4    4.53   461.9    4.3      40.192
2014    9       29    20  10    4.53   461.7    4.3      40.172
2014    9       29    20  15    4.52   461.4    4.3      40.151
2014    9       29    20  21    4.52   461.2    4.3      40.132
2014    9       29    20  26    4.52   461.0    4.3      40.112
2014    9       29    20  32    4.52   460.8    4.3      40.092
2014    9       29    20  37    4.51   460.6    4.3      40.073
2014    9       29    20  42    4.51   460.4    4.4      40.054
2014    9       29    20  48    4.51   460.1    4.4      40.035
2014    9       29    20  53    4.50   459.9    4.4      40.017
2014    9       29    20  59    4.50   459.7    4.4      39.998
2014    9       29    21   4    4.50   459.5    4.4      39.980
2014    9       29    21  10    4.50   459.3    4.4      39.961
2014    9       29    21  15    4.49   459.1    4.4      39.943
2014    9       29    21  21    4.49   458.9    4.4      39.925
2014    9       29    21  26    4.49   458.7    4.4      39.907
2014    9       29    21  32    4.49   458.5    4.4      39.889
2014    9       29    21  37    4.48   458.3    4.4      39.871
2014    9       29    21  42    4.48   458.0    4.4      39.853
2014    9       29    21  48    4.48   457.8    4.4      39.835
2014    9       29    21  53    4.47   457.6    4.4      39.817
2014    9       29    21  59    4.47   457.4    4.4      39.799
2014    9       29    22   4    4.47   457.2    4.4      39.781
2014    9       29    22  10    4.47   457.0    4.4      39.763
2014    9       29    22  15    4.46   456.8    4.4      39.745
2014    9       29    22  21    4.46   456.6    4.4      39.727
2014    9       29    22  26    4.46   456.4    4.4      39.709
2014    9       29    22  32    4.46   456.2    4.4      39.692
2014    9       29    22  37    4.45   456.0    4.4      39.673
2014    9       29    22  43    4.45   455.8    4.5      39.656
2014    9       29    22  48    4.45   455.6    4.5      39.637
2014    9       29    22  53    4.45   455.4    4.5      39.619
2014    9       29    22  59    4.44   455.1    4.5      39.601
2014    9       29    23   4    4.44   454.9    4.5      39.583
2014    9       29    23  10    4.44   454.7    4.5      39.564
2014    9       29    23  15    4.44   454.5    4.5      39.545
2014    9       29    23  21    4.43   454.3    4.5      39.527
2014    9       29    23  26    4.43   454.1    4.5      39.508
2014    9       29    23  32    4.43   453.9    4.5      39.489
2014    9       29    23  37    4.43   453.7    4.5      39.470
2014    9       29    23  43    4.42   453.5    4.5      39.451
2014    9       29    23  48    4.42   453.3    4.5      39.431
2014    9       29    23  54    4.42   453.1    4.5      39.412
2014    9       29    23  59    4.42   452.8    4.5      39.392
2014    9       30     0   4    4.41   452.6    4.5      39.372
2014    9       30     0  10    4.41   452.4    4.5      39.352
2014    9       30     0  15    4.41   452.2    4.5      39.332
2014    9       30     0  21    4.41   452.0    4.5      39.312
2014    9       30     0  26    4.40   451.8    4.6      39.292
2014    9       30     0  32    4.40   451.6    4.6      39.271
2014    9       30     0  37    4.40   451.4    4.6      39.251
2014    9       30     0  43    4.40   451.1    4.6      39.230
2014    9       30     0  48    4.39   450.9    4.6      39.209
2014    9       30     0  54    4.39   450.7    4.6      39.188
2014    9       30     0  59    4.39   450.5    4.6      39.167
2014    9       30     1   5    4.39   450.3    4.6      39.145
2014    9       30     1  10    4.39   450.0    4.6      39.124
2014    9       30     1  15    4.38   449.8    4.6      39.103
2014    9       30     1  21    4.38   449.6    4.6      39.081
2014    9       30     1  26    4.38   449.4    4.6      39.060
2014    9       30     1  32    4.38   449.1    4.6      39.039
2014    9       30     1  37    4.37   448.9    4.6      39.017
2014    9       30     1  43    4.37   448.7    4.6      38.996
2014    9       30     1  48    4.37   448.5    4.6      38.974
2014    9       30     1  54    4.37   448.2    4.6      38.953
2014    9       30     1  59    4.36   448.0    4.7      38.932
2014    9       30     2   5    4.36   447.8    4.7      38.911
2014    9       30     2  10    4.36   447.6    4.7      38.890
2014    9       30     2  15    4.36   447.3    4.7      38.870
2014    9       30     2  21    4.36   447.1    4.7      38.849
2014    9       30     2  26    4.35   446.9    4.7      38.829
2014    9       30     2  32    4.35   446.6    4.7      38.809
2014    9       30     2  37    4.35   446.4    4.7      38.790
2014    9       30     2  43    4.35   446.2    4.7      38.771
2014    9       30     2  48    4.35   446.0    4.7      38.752
2014    9       30     2  54    4.34   445.7    4.7      38.733
2014    9       30     2  59    4.34   445.5    4.7      38.715
2014    9       30     3   5    4.34   445.3    4.7      38.698
2014    9       30     3  10    4.34   445.0    4.7      38.681
2014    9       30     3  15    4.34   444.8    4.8      38.664
2014    9       30     3  21    4.33   444.6    4.8      38.648
2014    9       30     3  26    4.33   444.4    4.8      38.632
2014    9       30     3  32    4.33   444.1    4.8      38.617
2014    9       30     3  37    4.33   443.9    4.8      38.602
2014    9       30     3  43    4.33   443.7    4.8      38.588
2014    9       30     3  48    4.33   443.5    4.8      38.574
2014    9       30     3  54    4.32   443.2    4.8      38.560
2014    9       30     3  59    4.32   443.0    4.8      38.547
2014    9       30     4   5    4.32   442.8    4.8      38.535
2014    9       30     4  10    4.32   442.6    4.8      38.523
2014    9       30     4  16    4.32   442.4    4.8      38.511
2014    9       30     4  21    4.32   442.1    4.8      38.499
2014    9       30     4  26    4.31   441.9    4.9      38.488
2014    9       30     4  32    4.31   441.7    4.9      38.477
2014    9       30     4  37    4.31   441.5    4.9      38.466
2014    9       30     4  43    4.31   441.3    4.9      38.456
2014    9       30     4  48    4.31   441.1    4.9      38.446
2014    9       30     4  54    4.31   440.8    4.9      38.436
2014    9       30     4  59    4.30   440.6    4.9      38.427
2014    9       30     5   5    4.30   440.4    4.9      38.418
2014    9       30     5  10    4.30   440.2    4.9      38.408
2014    9       30     5  16    4.30   440.0    4.9      38.400
2014    9       30     5  21    4.30   439.7    4.9      38.391
2014    9       30     5  27    4.30   439.5    5.0      38.383
2014    9       30     5  32    4.30   439.3    5.0      38.374
2014    9       30     5  37    4.30   439.1    5.0      38.367
2014    9       30     5  43    4.29   438.9    5.0      38.359
2014    9       30     5  48    4.29   438.7    5.0      38.351
2014    9       30     5  54    4.29   438.4    5.0      38.343
2014    9       30     5  59    4.29   438.2    5.0      38.336
2014    9       30     6   5    4.29   438.0    5.0      38.329
2014    9       30     6  10    4.29   437.8    5.0      38.322
2014    9       30     6  16    4.29   437.6    5.0      38.316
2014    9       30     6  21    4.29   437.4    5.1      38.309
2014    9       30     6  27    4.28   437.1    5.1      38.303
2014    9       30     6  32    4.28   436.9    5.1      38.297
2014    9       30     6  38    4.28   436.7    5.1      38.292
2014    9       30     6  43    4.28   436.5    5.1      38.287
2014    9       30     6  48    4.28   436.3    5.1      38.282
2014    9       30     6  54    4.28   436.1    5.1      38.277
2014    9       30     6  59    4.28   435.9    5.1      38.272
2014    9       30     7   5    4.28   435.7    5.1      38.268
2014    9       30     7  10    4.28   435.4    5.1      38.265
2014    9       30     7  16    4.28   435.2    5.1      38.261
2014    9       30     7  21    4.28   435.0    5.2      38.259
2014    9       30     7  27    4.27   434.8    5.2      38.256
2014    9       30     7  32    4.27   434.6    5.2      38.254
2014    9       30     7  38    4.27   434.4    5.2      38.253
2014    9       30     7  43    4.27   434.2    5.2      38.252
2014    9       30     7  49    4.27   434.0    5.2      38.251
2014    9       30     7  54    4.27   433.8    5.2      38.252
2014    9       30     7  59    4.27   433.6    5.2      38.252
2014    9       30     8   5    4.27   433.4    5.2      38.254
2014    9       30     8  10    4.27   433.2    5.2      38.255
2014    9       30     8  16    4.27   433.0    5.3      38.258
2014    9       30     8  21    4.27   432.8    5.3      38.261
2014    9       30     8  27    4.27   432.6    5.3      38.264
2014    9       30     8  32    4.27   432.4    5.3      38.268
2014    9       30     8  38    4.27   432.2    5.3      38.273
2014    9       30     8  43    4.27   432.1    5.3      38.277
2014    9       30     8  49    4.27   431.9    5.3      38.282
2014    9       30     8  54    4.27   431.7    5.3      38.286
2014    9       30     8  59    4.27   431.5    5.3      38.291
2014    9       30     9   5    4.27   431.3    5.3      38.295
2014    9       30     9  10    4.27   431.1    5.3      38.300
2014    9       30     9  16    4.27   430.9    5.4      38.303
2014    9       30     9  21    4.27   430.7    5.4      38.306
2014    9       30     9  27    4.27   430.5    5.4      38.309
2014    9       30     9  32    4.27   430.4    5.4      38.312
2014    9       30     9  38    4.27   430.2    5.4      38.314
2014    9       30     9  43    4.27   430.0    5.4      38.316
2014    9       30     9  49    4.27   429.8    5.4      38.317
2014    9       30     9  54    4.27   429.6    5.4      38.318
2014    9       30    10   0    4.27   429.4    5.4      38.319
2014    9       30    10   5    4.27   429.3    5.4      38.319
2014    9       30    10  10    4.27   429.1    5.4      38.318
2014    9       30    10  16    4.27   428.9    5.4      38.318
2014    9       30    10  21    4.27   428.7    5.5      38.317
2014    9       30    10  27    4.27   428.5    5.5      38.315
2014    9       30    10  32    4.27   428.4    5.5      38.313
2014    9       30    10  38    4.27   428.2    5.5      38.311
2014    9       30    10  43    4.27   428.0    5.5      38.308
2014    9       30    10  49    4.27   427.8    5.5      38.305
2014    9       30    10  54    4.27   427.7    5.5      38.301
2014    9       30    11   0    4.27   427.5    5.5      38.297
2014    9       30    11   5    4.27   427.3    5.5      38.292
2014    9       30    11  10    4.28   427.1    5.5      38.287
2014    9       30    11  16    4.28   427.0    5.5      38.281
2014    9       30    11  21    4.28   426.8    5.5      38.275
2014    9       30    11  27    4.28   426.6    5.5      38.268
2014    9       30    11  32    4.28   426.5    5.5      38.261
2014    9       30    11  38    4.28   426.3    5.6      38.254
2014    9       30    11  43    4.28   426.1    5.6      38.246
2014    9       30    11  49    4.28   425.9    5.6      38.237
2014    9       30    11  54    4.28   425.8    5.6      38.228
2014    9       30    12   0    4.28   425.6    5.6      38.219
2014    9       30    12   5    4.28   425.4    5.6      38.210
2014    9       30    12  11    4.28   425.3    5.6      38.200
2014    9       30    12  16    4.29   425.1    5.6      38.189
2014    9       30    12  21    4.29   424.9    5.6      38.179
2014    9       30    12  27    4.29   424.8    5.6      38.168
2014    9       30    12  32    4.29   424.6    5.6      38.157
2014    9       30    12  38    4.29   424.4    5.6      38.145
2014    9       30    12  43    4.29   424.3    5.6      38.134
2014    9       30    12  49    4.29   424.1    5.6      38.122
2014    9       30    12  54    4.29   423.9    5.6      38.109
2014    9       30    13   0    4.29   423.8    5.6      38.097
2014    9       30    13   5    4.30   423.6    5.6      38.084
2014    9       30    13  11    4.30   423.5    5.7      38.072
2014    9       30    13  16    4.30   423.3    5.7      38.058
2014    9       30    13  22    4.30   423.1    5.7      38.045
2014    9       30    13  27    4.30   423.0    5.7      38.031
2014    9       30    13  32    4.30   422.8    5.7      38.018
2014    9       30    13  38    4.30   422.7    5.7      38.004
2014    9       30    13  43    4.31   422.5    5.7      37.989
2014    9       30    13  49    4.31   422.4    5.7      37.975
2014    9       30    13  54    4.31   422.2    5.7      37.960
2014    9       30    14   0    4.31   422.0    5.7      37.945
2014    9       30    14   5    4.31   421.9    5.7      37.930
2014    9       30    14  11    4.31   421.7    5.7      37.915
2014    9       30    14  16    4.32   421.6    5.7      37.899
2014    9       30    14  22    4.32   421.4    5.7      37.883
2014    9       30    14  27    4.32   421.3    5.7      37.867
2014    9       30    14  33    4.32   421.1    5.7      37.850
2014    9       30    14  38    4.32   421.0    5.7      37.833
2014    9       30    14  43    4.32   420.8    5.7      37.815
2014    9       30    14  49    4.33   420.7    5.7      37.797
2014    9       30    14  54    4.33   420.5    5.7      37.779
2014    9       30    15   0    4.33   420.4    5.7      37.761
2014    9       30    15   5    4.33   420.2    5.7      37.742
2014    9       30    15  11    4.33   420.1    5.8      37.723
2014    9       30    15  16    4.34   419.9    5.8      37.704
2014    9       30    15  22    4.34   419.8    5.8      37.684
2014    9       30    15  27    4.34   419.6    5.8      37.664
2014    9       30    15  33    4.34   419.5    5.8      37.644
2014    9       30    15  38    4.34   419.4    5.8      37.623
2014    9       30    15  44    4.34   419.2    5.8      37.602
2014    9       30    15  49    4.35   419.1    5.8      37.581
2014    9       30    15  54    4.35   418.9    5.8      37.560
2014    9       30    16   0    4.35   418.8    5.8      37.538
2014    9       30    16   5    4.35   418.6    5.8      37.517
2014    9       30    16  11    4.35   418.5    5.8      37.495
2014    9       30    16  16    4.36   418.4    5.8      37.472
2014    9       30    16  22    4.36   418.2    5.8      37.450
2014    9       30    16  27    4.36   418.1    5.8      37.427
2014    9       30    16  33    4.36   417.9    5.8      37.404
2014    9       30    16  38    4.36   417.8    5.8      37.381
2014    9       30    16  44    4.36   417.7    5.8      37.358
2014    9       30    16  49    4.37   417.5    5.8      37.334
2014    9       30    16  54    4.37   417.4    5.8      37.310
2014    9       30    17   0    4.37   417.2    5.8      37.286
2014    9       30    17   5    4.37   417.1    5.8      37.262
2014    9       30    17  11    4.37   417.0    5.8      37.238
2014    9       30    17  16    4.38   416.8    5.8      37.214
2014    9       30    17  22    4.38   416.7    5.8      37.189
2014    9       30    17  27    4.38   416.6    5.8      37.164
2014    9       30    17  33    4.38   416.4    5.8      37.139
2014    9       30    17  38    4.38   416.3    5.8      37.114
2014    9       30    17  44    4.38   416.2    5.8      37.088
2014    9       30    17  49    4.39   416.0    5.8      37.063
2014    9       30    17  55    4.39   415.9    5.8      37.037
2014    9       30    18   0    4.39   415.7    5.8      37.011
2014    9       30    18   5    4.39   415.6    5.9      36.985
2014    9       30    18  11    4.39   415.5    5.9      36.958
2014    9       30    18  16    4.39   415.3    5.9      36.932
2014    9       30    18  22    4.40   415.2    5.9      36.905
2014    9       30    18  27    4.40   415.1    5.9      36.879
2014    9       30    18  33    4.40   415.0    5.9      36.852
2014    9       30    18  38    4.40   414.8    5.9      36.825
2014    9       30    18  44    4.40   414.7    5.9      36.797
2014    9       30    18  49    4.41   414.6    5.9      36.770
2014    9       30    18  55    4.41   414.4    5.9      36.742
2014    9       30    19   0    4.41   414.3    5.9      36.715
2014    9       30    19   5    4.41   414.2    5.9      36.687
2014    9       30    19  11    4.41   414.0    5.9      36.659
2014    9       30    19  16    4.42   413.9    5.9      36.631
2014    9       30    19  22    4.42   413.8    5.9      36.603
2014    9       30    19  27    4.42   413.6    5.9      36.575
2014    9       30    19  33    4.42   413.5    5.9      36.546
2014    9       30    19  38    4.42   413.4    5.9      36.518
2014    9       30    19  44    4.42   413.2    5.9      36.489
2014    9       30    19  49    4.43   413.1    5.9      36.461
2014    9       30    19  55    4.43   413.0    5.9      36.432
2014    9       30    20   0    4.43   412.9    5.9      36.404
2014    9       30    20   6    4.43   412.7    5.9      36.375
2014    9       30    20  11    4.43   412.6    5.9      36.346
2014    9       30    20  16    4.44   412.5    5.9      36.317
2014    9       30    20  22    4.44   412.3    5.9      36.289
2014    9       30    20  27    4.44   412.2    5.9      36.260
2014    9       30    20  33    4.44   412.1    5.9      36.232
2014    9       30    20  38    4.44   411.9    5.9      36.203
2014    9       30    20  44    4.44   411.8    5.9      36.175
2014    9       30    20  49    4.45   411.7    5.9      36.146
2014    9       30    20  55    4.45   411.6    5.9      36.118
2014    9       30    21   0    4.45   411.4    5.9      36.090
2014    9       30    21   6    4.45   411.3    5.9      36.062
2014    9       30    21  11    4.45   411.2    5.9      36.033
2014    9       30    21  17    4.46   411.0    5.9      36.006
2014    9       30    21  22    4.46   410.9    5.9      35.978
2014    9       30    21  27    4.46   410.8    5.9      35.950
2014    9       30    21  33    4.46   410.7    5.9      35.923
2014    9       30    21  38    4.46   410.5    5.9      35.895
2014    9       30    21  44    4.46   410.4    6.0      35.868
2014    9       30    21  49    4.47   410.3    6.0      35.841
2014    9       30    21  55    4.47   410.2    6.0      35.814
2014    9       30    22   0    4.47   410.0    6.0      35.788
2014    9       30    22   6    4.47   409.9    6.0      35.761
2014    9       30    22  11    4.47   409.8    6.0      35.735
2014    9       30    22  17    4.48   409.7    6.0      35.709
2014    9       30    22  22    4.48   409.5    6.0      35.683
2014    9       30    22  28    4.48   409.4    6.0      35.657
2014    9       30    22  33    4.48   409.3    6.0      35.632
2014    9       30    22  38    4.48   409.2    6.0      35.606
2014    9       30    22  44    4.48   409.0    6.0      35.581
2014    9       30    22  49    4.49   408.9    6.0      35.556
2014    9       30    22  55    4.49   408.8    6.0      35.532
2014    9       30    23   0    4.49   408.7    6.0      35.507
2014    9       30    23   6    4.49   408.5    6.0      35.483
2014    9       30    23  11    4.49   408.4    6.0      35.458
2014    9       30    23  17    4.49   408.3    6.0      35.434
2014    9       30    23  22    4.50   408.2    6.0      35.411
2014    9       30    23  28    4.50   408.1    6.0      35.387
2014    9       30    23  33    4.50   407.9    6.0      35.364
2014    9       30    23  39    4.50   407.8    6.0      35.341
2014    9       30    23  44    4.50   407.7    6.0      35.318
2014    9       30    23  49    4.50   407.6    6.0      35.295
2014    9       30    23  55    4.51   407.4    6.0      35.272
2014   10        1     0   0    4.51   407.3    6.0      35.250
2014   10        1     0   6    4.51   407.2    6.0      35.227
2014   10        1     0  11    4.51   407.1    6.1      35.205
2014   10        1     0  17    4.51   407.0    6.1      35.183
2014   10        1     0  22    4.52   406.8    6.1      35.161
2014   10        1     0  28    4.52   406.7    6.1      35.140
2014   10        1     0  33    4.52   406.6    6.1      35.118
2014   10        1     0  39    4.52   406.5    6.1      35.097
2014   10        1     0  44    4.52   406.4    6.1      35.075
2014   10        1     0  49    4.52   406.3    6.1      35.054
2014   10        1     0  55    4.53   406.1    6.1      35.033
2014   10        1     1   0    4.53   406.0    6.1      35.012
2014   10        1     1   6    4.53   405.9    6.1      34.991
2014   10        1     1  11    4.53   405.8    6.1      34.971
2014   10        1     1  17    4.53   405.7    6.1      34.950
2014   10        1     1  22    4.53   405.5    6.1      34.929
2014   10        1     1  28    4.54   405.4    6.1      34.909
2014   10        1     1  33    4.54   405.3    6.1      34.889
2014   10        1     1  39    4.54   405.2    6.1      34.868
2014   10        1     1  44    4.54   405.1    6.1      34.848
2014   10        1     1  50    4.54   405.0    6.1      34.828
2014   10        1     1  55    4.55   404.8    6.1      34.808
2014   10        1     2   0    4.55   404.7    6.1      34.788
2014   10        1     2   6    4.55   404.6    6.1      34.768
2014   10        1     2  11    4.55   404.5    6.2      34.748
2014   10        1     2  17    4.55   404.4    6.2      34.728
2014   10        1     2  22    4.55   404.3    6.2      34.709
2014   10        1     2  28    4.56   404.2    6.2      34.689
2014   10        1     2  33    4.56   404.0    6.2      34.669
2014   10        1     2  39    4.56   403.9    6.2      34.649
2014   10        1     2  44    4.56   403.8    6.2      34.630
2014   10        1     2  50    4.56   403.7    6.2      34.610
2014   10        1     2  55    4.57   403.6    6.2      34.590
2014   10        1     3   1    4.57   403.5    6.2      34.571
2014   10        1     3   6    4.57   403.4    6.2      34.551
2014   10        1     3  11    4.57   403.3    6.2      34.532
2014   10        1     3  17    4.57   403.1    6.2      34.512
2014   10        1     3  22    4.58   403.0    6.2      34.492
2014   10        1     3  28    4.58   402.9    6.2      34.473
2014   10        1     3  33    4.58   402.8    6.2      34.453
2014   10        1     3  39    4.58   402.7    6.2      34.434
2014   10        1     3  44    4.59   402.6    6.2      34.414
2014   10        1     3  50    4.59   402.5    6.2      34.395
2014   10        1     3  55    4.59   402.4    6.2      34.375
2014   10        1     4   1    4.59   402.3    6.2      34.355
2014   10        1     4   6    4.59   402.1    6.2      34.336
2014   10        1     4  12    4.60   402.0    6.3      34.316
2014   10        1     4  17    4.60   401.9    6.3      34.297
2014   10        1     4  22    4.60   401.8    6.3      34.277
2014   10        1     4  28    4.60   401.7    6.3      34.257
2014   10        1     4  33    4.60   401.6    6.3      34.238
2014   10        1     4  39    4.61   401.5    6.3      34.218
2014   10        1     4  44    4.61   401.4    6.3      34.198
2014   10        1     4  50    4.61   401.3    6.3      34.179
2014   10        1     4  55    4.61   401.2    6.3      34.159
2014   10        1     5   1    4.62   401.1    6.3      34.139
2014   10        1     5   6    4.62   401.0    6.3      34.120
2014   10        1     5  12    4.62   400.9    6.3      34.100
2014   10        1     5  17    4.62   400.8    6.3      34.080
2014   10        1     5  23    4.63   400.7    6.3      34.061
2014   10        1     5  28    4.63   400.6    6.3      34.041
2014   10        1     5  33    4.63   400.4    6.3      34.021
2014   10        1     5  39    4.63   400.3    6.3      34.002
2014   10        1     5  44    4.64   400.2    6.3      33.982
2014   10        1     5  50    4.64   400.1    6.3      33.963
2014   10        1     5  55    4.64   400.0    6.3      33.943
2014   10        1     6   1    4.64   399.9    6.4      33.923
2014   10        1     6   6    4.65   399.8    6.4      33.904
2014   10        1     6  12    4.65   399.7    6.4      33.884
2014   10        1     6  17    4.65   399.6    6.4      33.865
2014   10        1     6  23    4.65   399.5    6.4      33.846
2014   10        1     6  28    4.66   399.4    6.4      33.826
2014   10        1     6  34    4.66   399.3    6.4      33.807
2014   10        1     6  39    4.66   399.2    6.4      33.787
2014   10        1     6  44    4.66   399.1    6.4      33.768
2014   10        1     6  50    4.67   399.0    6.4      33.749
2014   10        1     6  55    4.67   398.9    6.4      33.730
2014   10        1     7   1    4.67   398.8    6.4      33.711
2014   10        1     7   6    4.67   398.8    6.4      33.692
2014   10        1     7  12    4.68   398.7    6.4      33.673
2014   10        1     7  17    4.68   398.6    6.4      33.654
2014   10        1     7  23    4.68   398.5    6.4      33.635
2014   10        1     7  28    4.68   398.4    6.4      33.617
2014   10        1     7  34    4.69   398.3    6.4      33.598
2014   10        1     7  39    4.69   398.2    6.5      33.580
2014   10        1     7  45    4.69   398.1    6.5      33.561
2014   10        1     7  50    4.69   398.0    6.5      33.543
2014   10        1     7  55    4.70   397.9    6.5      33.525
2014   10        1     8   1    4.70   397.8    6.5      33.507
2014   10        1     8   6    4.70   397.7    6.5      33.489
2014   10        1     8  12    4.70   397.6    6.5      33.472
2014   10        1     8  17    4.71   397.5    6.5      33.454
2014   10        1     8  23    4.71   397.4    6.5      33.437
2014   10        1     8  28    4.71   397.3    6.5      33.420
2014   10        1     8  34    4.72   397.2    6.5      33.403
2014   10        1     8  39    4.72   397.2    6.5      33.386
2014   10        1     8  45    4.72   397.1    6.5      33.369
2014   10        1     8  50    4.72   397.0    6.5      33.353
2014   10        1     8  55    4.73   396.9    6.5      33.337
2014   10        1     9   1    4.73   396.8    6.5      33.321
2014   10        1     9   6    4.73   396.7    6.5      33.305
2014   10        1     9  12    4.73   396.6    6.6      33.289
2014   10        1     9  17    4.74   396.5    6.6      33.274
2014   10        1     9  23    4.74   396.4    6.6      33.258
2014   10        1     9  28    4.74   396.4    6.6      33.243
2014   10        1     9  34    4.74   396.3    6.6      33.229
2014   10        1     9  39    4.75   396.2    6.6      33.214
2014   10        1     9  45    4.75   396.1    6.6      33.200
2014   10        1     9  50    4.75   396.0    6.6      33.186
2014   10        1     9  56    4.76   395.9    6.6      33.172
2014   10        1    10   1    4.76   395.8    6.6      33.158
2014   10        1    10   6    4.76   395.8    6.6      33.145
2014   10        1    10  12    4.76   395.7    6.6      33.132
2014   10        1    10  17    4.77   395.6    6.6      33.119
2014   10        1    10  23    4.77   395.5    6.6      33.106
2014   10        1    10  28    4.77   395.4    6.6      33.094
2014   10        1    10  34    4.77   395.3    6.6      33.082
2014   10        1    10  39    4.78   395.3    6.6      33.070
2014   10        1    10  45    4.78   395.2    6.7      33.058
2014   10        1    10  50    4.78   395.1    6.7      33.046
2014   10        1    10  56    4.79   395.0    6.7      33.035
2014   10        1    11   1    4.79   394.9    6.7      33.024
2014   10        1    11   7    4.79   394.9    6.7      33.013
2014   10        1    11  12    4.79   394.8    6.7      33.002
2014   10        1    11  17    4.80   394.7    6.7      32.992
2014   10        1    11  23    4.80   394.6    6.7      32.981
2014   10        1    11  28    4.80   394.5    6.7      32.971
2014   10        1    11  34    4.80   394.5    6.7      32.961
2014   10        1    11  39    4.81   394.4    6.7      32.951
2014   10        1    11  45    4.81   394.3    6.7      32.941
2014   10        1    11  50    4.81   394.2    6.7      32.932
2014   10        1    11  56    4.82   394.1    6.7      32.922
2014   10        1    12   1    4.82   394.1    6.7      32.913
2014   10        1    12   7    4.82   394.0    6.7      32.904
2014   10        1    12  12    4.82   393.9    6.8      32.895
2014   10        1    12  18    4.83   393.8    6.8      32.886
2014   10        1    12  23    4.83   393.8    6.8      32.877
2014   10        1    12  28    4.83   393.7    6.8      32.869
2014   10        1    12  34    4.84   393.6    6.8      32.860
2014   10        1    12  39    4.84   393.5    6.8      32.852
2014   10        1    12  45    4.84   393.5    6.8      32.844
2014   10        1    12  50    4.84   393.4    6.8      32.836
2014   10        1    12  56    4.85   393.3    6.8      32.828
2014   10        1    13   1    4.85   393.2    6.8      32.820
2014   10        1    13   7    4.85   393.1    6.8      32.812
2014   10        1    13  12    4.85   393.1    6.8      32.805
2014   10        1    13  18    4.86   393.0    6.8      32.797
2014   10        1    13  23    4.86   392.9    6.8      32.790
2014   10        1    13  29    4.86   392.8    6.8      32.783
2014   10        1    13  34    4.87   392.8    6.8      32.776
2014   10        1    13  39    4.87   392.7    6.9      32.769
2014   10        1    13  45    4.87   392.6    6.9      32.762
2014   10        1    13  50    4.87   392.5    6.9      32.756
2014   10        1    13  56    4.88   392.5    6.9      32.749
2014   10        1    14   1    4.88   392.4    6.9      32.743
2014   10        1    14   7    4.88   392.3    6.9      32.737
2014   10        1    14  12    4.89   392.2    6.9      32.731
2014   10        1    14  18    4.89   392.2    6.9      32.725
2014   10        1    14  23    4.89   392.1    6.9      32.719
2014   10        1    14  29    4.90   392.0    6.9      32.714
2014   10        1    14  34    4.90   392.0    6.9      32.709
2014   10        1    14  39    4.90   391.9    6.9      32.703
2014   10        1    14  45    4.90   391.8    6.9      32.698
2014   10        1    14  50    4.91   391.7    6.9      32.694
2014   10        1    14  56    4.91   391.7    7.0      32.689
2014   10        1    15   1    4.91   391.6    7.0      32.684
2014   10        1    15   7    4.92   391.5    7.0      32.680
2014   10        1    15  12    4.92   391.5    7.0      32.676
2014   10        1    15  18    4.92   391.4    7.0      32.672
2014   10        1    15  23    4.93   391.3    7.0      32.668
2014   10        1    15  29    4.93   391.2    7.0      32.664
2014   10        1    15  34    4.93   391.2    7.0      32.661
2014   10        1    15  40    4.93   391.1    7.0      32.657
2014   10        1    15  45    4.94   391.0    7.0      32.654
2014   10        1    15  50    4.94   391.0    7.0      32.651
2014   10        1    15  56    4.94   390.9    7.0      32.648
2014   10        1    16   1    4.95   390.8    7.0      32.645
2014   10        1    16   7    4.95   390.8    7.1      32.642
2014   10        1    16  12    4.95   390.7    7.1      32.640
2014   10        1    16  18    4.96   390.6    7.1      32.637
2014   10        1    16  23    4.96   390.6    7.1      32.635
2014   10        1    16  29    4.96   390.5    7.1      32.633
2014   10        1    16  34    4.97   390.4    7.1      32.631
2014   10        1    16  40    4.97   390.4    7.1      32.629
2014   10        1    16  45    4.97   390.3    7.1      32.627
2014   10        1    16  51    4.98   390.3    7.1      32.625
2014   10        1    16  56    4.98   390.2    7.1      32.623
2014   10        1    17   1    4.98   390.1    7.1      32.621
2014   10        1    17   7    4.99   390.1    7.1      32.620
2014   10        1    17  12    4.99   390.0    7.1      32.618
2014   10        1    17  18    4.99   389.9    7.2      32.617
2014   10        1    17  23    5.00   389.9    7.2      32.615
2014   10        1    17  29    5.00   389.8    7.2      32.614
2014   10        1    17  34    5.00   389.8    7.2      32.613
2014   10        1    17  40    5.01   389.7    7.2      32.612
2014   10        1    17  45    5.01   389.6    7.2      32.611
2014   10        1    17  51    5.01   389.6    7.2      32.610
2014   10        1    17  56    5.02   389.5    7.2      32.609
2014   10        1    18   2    5.02   389.5    7.2      32.608
2014   10        1    18   7    5.02   389.4    7.2      32.607
2014   10        1    18  12    5.03   389.4    7.2      32.606
2014   10        1    18  18    5.03   389.3    7.2      32.606
2014   10        1    18  23    5.03   389.2    7.2      32.605
2014   10        1    18  29    5.04   389.2    7.2      32.605
2014   10        1    18  34    5.04   389.1    7.3      32.604
2014   10        1    18  40    5.04   389.1    7.3      32.604
2014   10        1    18  45    5.05   389.0    7.3      32.603
2014   10        1    18  51    5.05   389.0    7.3      32.603
2014   10        1    18  56    5.05   388.9    7.3      32.603
2014   10        1    19   2    5.06   388.9    7.3      32.602
2014   10        1    19   7    5.06   388.8    7.3      32.602
2014   10        1    19  13    5.06   388.7    7.3      32.602
2014   10        1    19  18    5.07   388.7    7.3      32.602
2014   10        1    19  23    5.07   388.6    7.3      32.602
2014   10        1    19  29    5.07   388.6    7.3      32.602
2014   10        1    19  34    5.08   388.5    7.3      32.603
2014   10        1    19  40    5.08   388.5    7.3      32.603
2014   10        1    19  45    5.09   388.4    7.3      32.604
2014   10        1    19  51    5.09   388.4    7.4      32.604
2014   10        1    19  56    5.09   388.3    7.4      32.605
2014   10        1    20   2    5.10   388.3    7.4      32.606
2014   10        1    20   7    5.10   388.2    7.4      32.607
2014   10        1    20  13    5.10   388.2    7.4      32.608
2014   10        1    20  18    5.11   388.1    7.4      32.609
2014   10        1    20  24    5.11   388.1    7.4      32.610
2014   10        1    20  29    5.12   388.0    7.4      32.612
2014   10        1    20  34    5.12   388.0    7.4      32.613
2014   10        1    20  40    5.12   387.9    7.4      32.615
2014   10        1    20  45    5.13   387.9    7.4      32.617
2014   10        1    20  51    5.13   387.8    7.4      32.619
2014   10        1    20  56    5.13   387.8    7.4      32.621
2014   10        1    21   2    5.14   387.7    7.4      32.623
2014   10        1    21   7    5.14   387.7    7.4      32.625
2014   10        1    21  13    5.15   387.6    7.5      32.627
2014   10        1    21  18    5.15   387.6    7.5      32.630
2014   10        1    21  24    5.15   387.6    7.5      32.633
2014   10        1    21  29    5.16   387.5    7.5      32.635
2014   10        1    21  35    5.16   387.5    7.5      32.638
2014   10        1    21  40    5.17   387.4    7.5      32.641
2014   10        1    21  45    5.17   387.4    7.5      32.644
2014   10        1    21  51    5.17   387.3    7.5      32.647
2014   10        1    21  56    5.18   387.3    7.5      32.650
2014   10        1    22   2    5.18   387.3    7.5      32.654
2014   10        1    22   7    5.19   387.2    7.5      32.657
2014   10        1    22  13    5.19   387.2    7.5      32.660
2014   10        1    22  18    5.19   387.1    7.5      32.664
2014   10        1    22  24    5.20   387.1    7.5      32.667
2014   10        1    22  29    5.20   387.1    7.5      32.671
2014   10        1    22  35    5.21   387.0    7.6      32.675
2014   10        1    22  40    5.21   387.0    7.6      32.679
2014   10        1    22  45    5.21   386.9    7.6      32.683
2014   10        1    22  51    5.22   386.9    7.6      32.687
2014   10        1    22  56    5.22   386.9    7.6      32.691
2014   10        1    23   2    5.23   386.8    7.6      32.695
2014   10        1    23   7    5.23   386.8    7.6      32.699
2014   10        1    23  13    5.23   386.7    7.6      32.703
2014   10        1    23  18    5.24   386.7    7.6      32.707
2014   10        1    23  24    5.24   386.7    7.6      32.711
2014   10        1    23  29    5.25   386.6    7.6      32.715
2014   10        1    23  35    5.25   386.6    7.6      32.719
2014   10        1    23  40    5.25   386.5    7.6      32.724
2014   10        1    23  46    5.26   386.5    7.6      32.728
2014   10        1    23  51    5.26   386.5    7.6      32.733
2014   10        1    23  56    5.26   386.4    7.6      32.737
2014   10        2     0   2    5.27   386.4    7.7      32.742
2014   10        2     0   7    5.27   386.4    7.7      32.746
2014   10        2     0  13    5.28   386.3    7.7      32.751
2014   10        2     0  18    5.28   386.3    7.7      32.756
2014   10        2     0  24    5.28   386.2    7.7      32.761
2014   10        2     0  29    5.29   386.2    7.7      32.767
2014   10        2     0  35    5.29   386.2    7.7      32.772
2014   10        2     0  40    5.30   386.1    7.7      32.777
2014   10        2     0  46    5.30   386.1    7.7      32.783
2014   10        2     0  51    5.30   386.1    7.7      32.789
2014   10        2     0  57    5.31   386.0    7.7      32.795
2014   10        2     1   2    5.31   386.0    7.7      32.801
2014   10        2     1   7    5.32   386.0    7.7      32.807
2014   10        2     1  13    5.32   385.9    7.7      32.813
2014   10        2     1  18    5.33   385.9    7.7      32.820
2014   10        2     1  24    5.33   385.9    7.7      32.827
2014   10        2     1  29    5.33   385.8    7.8      32.834
2014   10        2     1  35    5.34   385.8    7.8      32.841
2014   10        2     1  40    5.34   385.8    7.8      32.848
2014   10        2     1  46    5.35   385.8    7.8      32.855
2014   10        2     1  51    5.35   385.7    7.8      32.863
2014   10        2     1  57    5.35   385.7    7.8      32.871
2014   10        2     2   2    5.36   385.7    7.8      32.879
2014   10        2     2   8    5.36   385.6    7.8      32.887
2014   10        2     2  13    5.37   385.6    7.8      32.896
2014   10        2     2  18    5.37   385.6    7.8      32.904
2014   10        2     2  24    5.37   385.6    7.8      32.913
2014   10        2     2  29    5.38   385.5    7.8      32.922
2014   10        2     2  35    5.38   385.5    7.8      32.931
2014   10        2     2  40    5.39   385.5    7.8      32.940
2014   10        2     2  46    5.39   385.4    7.8      32.950
2014   10        2     2  51    5.40   385.4    7.8      32.959
2014   10        2     2  57    5.40   385.4    7.8      32.969
2014   10        2     3   2    5.40   385.4    7.9      32.979
2014   10        2     3   8    5.41   385.3    7.9      32.989
2014   10        2     3  13    5.41   385.3    7.9      32.999
2014   10        2     3  19    5.42   385.3    7.9      33.010
2014   10        2     3  24    5.42   385.3    7.9      33.020
2014   10        2     3  29    5.42   385.2    7.9      33.031
2014   10        2     3  35    5.43   385.2    7.9      33.041
2014   10        2     3  40    5.43   385.2    7.9      33.052
2014   10        2     3  46    5.44   385.2    7.9      33.063
2014   10        2     3  51    5.44   385.2    7.9      33.075
2014   10        2     3  57    5.45   385.1    7.9      33.086
2014   10        2     4   2    5.45   385.1    7.9      33.097
2014   10        2     4   8    5.45   385.1    7.9      33.109
2014   10        2     4  13    5.46   385.1    7.9      33.121
2014   10        2     4  19    5.46   385.0    7.9      33.133
2014   10        2     4  24    5.47   385.0    7.9      33.145
2014   10        2     4  30    5.47   385.0    8.0      33.157
2014   10        2     4  35    5.47   385.0    8.0      33.169
2014   10        2     4  40    5.48   385.0    8.0      33.181
2014   10        2     4  46    5.48   384.9    8.0      33.194
2014   10        2     4  51    5.49   384.9    8.0      33.207
2014   10        2     4  57    5.49   384.9    8.0      33.220
2014   10        2     5   2    5.50   384.9    8.0      33.233
2014   10        2     5   8    5.50   384.9    8.0      33.246
2014   10        2     5  13    5.50   384.8    8.0      33.260
2014   10        2     5  19    5.51   384.8    8.0      33.273
2014   10        2     5  24    5.51   384.8    8.0      33.287
2014   10        2     5  30    5.52   384.8    8.0      33.301
2014   10        2     5  35    5.52   384.8    8.0      33.316
2014   10        2     5  41    5.53   384.8    8.0      33.331
2014   10        2     5  46    5.53   384.7    8.0      33.346
2014   10        2     5  51    5.53   384.7    8.0      33.361
2014   10        2     5  57    5.54   384.7    8.1      33.376
2014   10        2     6   2    5.54   384.7    8.1      33.392
2014   10        2     6   8    5.55   384.7    8.1      33.409
2014   10        2     6  13    5.55   384.7    8.1      33.425
2014   10        2     6  19    5.56   384.7    8.1      33.443
2014   10        2     6  24    5.56   384.7    8.1      33.460
2014   10        2     6  30    5.57   384.7    8.1      33.478
2014   10        2     6  35    5.57   384.6    8.1      33.496
2014   10        2     6  41    5.57   384.6    8.1      33.515
2014   10        2     6  46    5.58   384.6    8.1      33.534
2014   10        2     6  52    5.58   384.6    8.1      33.554
2014   10        2     6  57    5.59   384.6    8.1      33.574
2014   10        2     7   2    5.59   384.6    8.1      33.594
2014   10        2     7   8    5.60   384.6    8.1      33.614
2014   10        2     7  13    5.60   384.6    8.1      33.635
2014   10        2     7  19    5.61   384.6    8.1      33.655
2014   10        2     7  24    5.61   384.6    8.2      33.676
2014   10        2     7  30    5.62   384.6    8.2      33.697
2014   10        2     7  35    5.62   384.6    8.2      33.718
2014   10        2     7  41    5.62   384.6    8.2      33.738
2014   10        2     7  46    5.63   384.6    8.2      33.759
2014   10        2     7  52    5.63   384.6    8.2      33.779
2014   10        2     7  57    5.64   384.6    8.2      33.800
2014   10        2     8   3    5.64   384.6    8.2      33.821
2014   10        2     8   8    5.65   384.6    8.2      33.841
2014   10        2     8  13    5.65   384.6    8.2      33.861
2014   10        2     8  19    5.65   384.6    8.2      33.882
2014   10        2     8  24    5.66   384.6    8.2      33.902
2014   10        2     8  30    5.66   384.6    8.2      33.922
2014   10        2     8  35    5.67   384.6    8.2      33.942
2014   10        2     8  41    5.67   384.6    8.2      33.961
2014   10        2     8  46    5.68   384.6    8.2      33.981
2014   10        2     8  52    5.68   384.6    8.2      34.001
2014   10        2     8  57    5.69   384.6    8.2      34.020
2014   10        2     9   3    5.69   384.6    8.3      34.040
2014   10        2     9   8    5.69   384.6    8.3      34.059
2014   10        2     9  14    5.70   384.6    8.3      34.079
2014   10        2     9  19    5.70   384.6    8.3      34.098
2014   10        2     9  24    5.71   384.6    8.3      34.117
2014   10        2     9  30    5.71   384.6    8.3      34.137
2014   10        2     9  35    5.72   384.6    8.3      34.157
2014   10        2     9  41    5.72   384.6    8.3      34.176
2014   10        2     9  46    5.73   384.6    8.3      34.197
2014   10        2     9  52    5.73   384.6    8.3      34.217
2014   10        2     9  57    5.73   384.6    8.3      34.237
2014   10        2    10   3    5.74   384.7    8.3      34.258
2014   10        2    10   8    5.74   384.7    8.3      34.279
2014   10        2    10  14    5.75   384.7    8.3      34.300
2014   10        2    10  19    5.75   384.7    8.3      34.321
2014   10        2    10  25    5.76   384.7    8.3      34.343
2014   10        2    10  30    5.76   384.7    8.3      34.364
2014   10        2    10  35    5.77   384.7    8.3      34.386
2014   10        2    10  41    5.77   384.7    8.3      34.407
2014   10        2    10  46    5.77   384.7    8.3      34.429
2014   10        2    10  52    5.78   384.8    8.4      34.451
2014   10        2    10  57    5.78   384.8    8.4      34.473
2014   10        2    11   3    5.79   384.8    8.4      34.495
2014   10        2    11   8    5.79   384.8    8.4      34.517
2014   10        2    11  14    5.80   384.8    8.4      34.539
2014   10        2    11  19    5.80   384.8    8.4      34.561
2014   10        2    11  25    5.80   384.8    8.4      34.583
2014   10        2    11  30    5.81   384.9    8.4      34.605
2014   10        2    11  36    5.81   384.9    8.4      34.627
2014   10        2    11  41    5.82   384.9    8.4      34.649
2014   10        2    11  46    5.82   384.9    8.4      34.672
2014   10        2    11  52    5.82   384.9    8.4      34.694
2014   10        2    11  57    5.83   384.9    8.4      34.716
2014   10        2    12   3    5.83   384.9    8.4      34.738
2014   10        2    12   8    5.84   384.9    8.4      34.760
2014   10        2    12  14    5.84   385.0    8.4      34.782
2014   10        2    12  19    5.85   385.0    8.4      34.804
2014   10        2    12  25    5.85   385.0    8.4      34.826
2014   10        2    12  30    5.85   385.0    8.4      34.848
2014   10        2    12  36    5.86   385.0    8.4      34.870
2014   10        2    12  41    5.86   385.0    8.4      34.892
2014   10        2    12  47    5.87   385.0    8.4      34.914
2014   10        2    12  52    5.87   385.1    8.4      34.937
2014   10        2    12  57    5.87   385.1    8.4      34.959
2014   10        2    13   3    5.88   385.1    8.4      34.981
2014   10        2    13   8    5.88   385.1    8.5      35.004
2014   10        2    13  14    5.89   385.1    8.5      35.026
2014   10        2    13  19    5.89   385.1    8.5      35.049
2014   10        2    13  25    5.90   385.1    8.5      35.072
2014   10        2    13  30    5.90   385.2    8.5      35.095
2014   10        2    13  36    5.90   385.2    8.5      35.118
2014   10        2    13  41    5.91   385.2    8.5      35.141
2014   10        2    13  47    5.91   385.2    8.5      35.164
2014   10        2    13  52    5.92   385.2    8.5      35.188
2014   10        2    13  57    5.92   385.2    8.5      35.212
2014   10        2    14   3    5.93   385.3    8.5      35.236
2014   10        2    14   8    5.93   385.3    8.5      35.261
2014   10        2    14  14    5.93   385.3    8.5      35.285
2014   10        2    14  19    5.94   385.3    8.5      35.310
2014   10        2    14  25    5.94   385.3    8.5      35.336
2014   10        2    14  30    5.95   385.4    8.5      35.361
2014   10        2    14  36    5.95   385.4    8.5      35.388
2014   10        2    14  41    5.95   385.4    8.5      35.414
2014   10        2    14  47    5.96   385.4    8.5      35.441
2014   10        2    14  52    5.96   385.5    8.5      35.468
2014   10        2    14  58    5.97   385.5    8.5      35.495
2014   10        2    15   3    5.97   385.5    8.5      35.523
2014   10        2    15   8    5.98   385.5    8.5      35.551
2014   10        2    15  14    5.98   385.6    8.5      35.579
2014   10        2    15  19    5.99   385.6    8.5      35.608
2014   10        2    15  25    5.99   385.6    8.5      35.636
2014   10        2    15  30    5.99   385.6    8.6      35.664
2014   10        2    15  36    6.00   385.7    8.6      35.693
2014   10        2    15  41    6.00   385.7    8.6      35.721
2014   10        2    15  47    6.01   385.7    8.6      35.750
2014   10        2    15  52    6.01   385.7    8.6      35.779
2014   10        2    15  58    6.02   385.8    8.6      35.807
2014   10        2    16   3    6.02   385.8    8.6      35.836
2014   10        2    16   9    6.02   385.8    8.6      35.865
2014   10        2    16  14    6.03   385.8    8.6      35.894
2014   10        2    16  19    6.03   385.9    8.6      35.923
2014   10        2    16  25    6.04   385.9    8.6      35.952
2014   10        2    16  30    6.04   385.9    8.6      35.982
2014   10        2    16  36    6.05   386.0    8.6      36.011
2014   10        2    16  41    6.05   386.0    8.6      36.041
2014   10        2    16  47    6.06   386.0    8.6      36.071
2014   10        2    16  52    6.06   386.0    8.6      36.102
2014   10        2    16  58    6.07   386.1    8.6      36.132
2014   10        2    17   3    6.07   386.1    8.6      36.164
2014   10        2    17   9    6.07   386.2    8.6      36.196
2014   10        2    17  14    6.08   386.2    8.6      36.228
2014   10        2    17  20    6.08   386.2    8.6      36.262
2014   10        2    17  25    6.09   386.3    8.7      36.296
2014   10        2    17  30    6.09   386.3    8.7      36.331
2014   10        2    17  36    6.10   386.4    8.7      36.367
2014   10        2    17  41    6.10   386.4    8.7      36.403
2014   10        2    17  47    6.11   386.4    8.7      36.440
2014   10        2    17  52    6.11   386.5    8.7      36.478
2014   10        2    17  58    6.12   386.5    8.7      36.517
2014   10        2    18   3    6.12   386.6    8.7      36.556
2014   10        2    18   9    6.13   386.6    8.7      36.597
2014   10        2    18  14    6.13   386.7    8.7      36.638
2014   10        2    18  20    6.13   386.7    8.7      36.681
2014   10        2    18  25    6.14   386.8    8.7      36.723
2014   10        2    18  31    6.14   386.8    8.7      36.767
2014   10        2    18  36    6.15   386.9    8.7      36.810
2014   10        2    18  42    6.15   386.9    8.7      36.854
2014   10        2    18  47    6.16   387.0    8.7      36.897
2014   10        2    18  52    6.16   387.1    8.7      36.940
2014   10        2    18  58    6.16   387.1    8.7      36.982
2014   10        2    19   3    6.17   387.2    8.7      37.025
2014   10        2    19   9    6.17   387.2    8.7      37.067
2014   10        2    19  14    6.18   387.3    8.8      37.108
2014   10        2    19  20    6.18   387.3    8.8      37.150
2014   10        2    19  25    6.18   387.4    8.8      37.191
2014   10        2    19  31    6.19   387.5    8.8      37.231
2014   10        2    19  36    6.19   387.5    8.8      37.272
2014   10        2    19  42    6.19   387.6    8.8      37.311
2014   10        2    19  47    6.20   387.6    8.8      37.350
2014   10        2    19  52    6.20   387.7    8.8      37.389
2014   10        2    19  58    6.21   387.7    8.8      37.427
2014   10        2    20   3    6.21   387.8    8.8      37.465
2014   10        2    20   9    6.21   387.9    8.8      37.502
2014   10        2    20  14    6.22   387.9    8.8      37.539
2014   10        2    20  20    6.22   388.0    8.8      37.575
2014   10        2    20  25    6.22   388.0    8.8      37.611
2014   10        2    20  31    6.23   388.1    8.8      37.646
2014   10        2    20  36    6.23   388.2    8.8      37.681
2014   10        2    20  42    6.24   388.2    8.8      37.715
2014   10        2    20  47    6.24   388.3    8.8      37.749
2014   10        2    20  53    6.24   388.3    8.8      37.783
2014   10        2    20  58    6.25   388.4    8.8      37.817
2014   10        2    21   3    6.25   388.5    8.8      37.850
2014   10        2    21   9    6.25   388.5    8.8      37.883
2014   10        2    21  14    6.26   388.6    8.8      37.915
2014   10        2    21  20    6.26   388.6    8.8      37.947
2014   10        2    21  25    6.26   388.7    8.8      37.979
2014   10        2    21  31    6.27   388.8    8.8      38.011
2014   10        2    21  36    6.27   388.8    8.8      38.043
2014   10        2    21  42    6.27   388.9    8.8      38.074
2014   10        2    21  47    6.28   388.9    8.8      38.105
2014   10        2    21  53    6.28   389.0    8.8      38.137
2014   10        2    21  58    6.28   389.1    8.8      38.168
2014   10        2    22   4    6.29   389.1    8.8      38.199
2014   10        2    22   9    6.29   389.2    8.8      38.230
2014   10        2    22  14    6.30   389.3    8.8      38.260
2014   10        2    22  20    6.30   389.3    8.8      38.291
2014   10        2    22  25    6.30   389.4    8.8      38.322
2014   10        2    22  31    6.31   389.5    8.8      38.352
2014   10        2    22  36    6.31   389.5    8.8      38.383
2014   10        2    22  42    6.31   389.6    8.8      38.414
2014   10        2    22  47    6.32   389.6    8.8      38.444
2014   10        2    22  53    6.32   389.7    8.8      38.475
2014   10        2    22  58    6.32   389.8    8.8      38.506
2014   10        2    23   4    6.33   389.8    8.8      38.537
2014   10        2    23   9    6.33   389.9    8.8      38.568
2014   10        2    23  15    6.33   390.0    8.8      38.599
2014   10        2    23  20    6.34   390.0    8.8      38.630
2014   10        2    23  25    6.34   390.1    8.8      38.661
2014   10        2    23  31    6.34   390.2    8.8      38.693
2014   10        2    23  36    6.35   390.2    8.8      38.725
2014   10        2    23  42    6.35   390.3    8.8      38.757
2014   10        2    23  47    6.35   390.4    8.8      38.789
2014   10        2    23  53    6.36   390.4    8.8      38.821
2014   10        2    23  58    6.36   390.5    8.8      38.854
2014   10        3     0   4    6.37   390.6    8.8      38.887
2014   10        3     0   9    6.37   390.6    8.8      38.920
2014   10        3     0  15    6.37   390.7    8.8      38.954
2014   10        3     0  20    6.38   390.8    8.8      38.988
2014   10        3     0  26    6.38   390.9    8.8      39.022
2014   10        3     0  31    6.38   390.9    8.8      39.057
2014   10        3     0  36    6.39   391.0    8.8      39.093
2014   10        3     0  42    6.39   391.1    8.8      39.129
2014   10        3     0  47    6.40   391.1    8.8      39.165
2014   10        3     0  53    6.40   391.2    8.8      39.203
2014   10        3     0  58    6.40   391.3    8.8      39.241
2014   10        3     1   4    6.41   391.4    8.8      39.279
2014   10        3     1   9    6.41   391.4    8.8      39.319
2014   10        3     1  15    6.41   391.5    8.8      39.359
2014   10        3     1  20    6.42   391.6    8.8      39.400
2014   10        3     1  26    6.42   391.7    8.8      39.441
2014   10        3     1  31    6.43   391.8    8.8      39.484
2014   10        3     1  37    6.43   391.8    8.8      39.528
2014   10        3     1  42    6.43   391.9    8.8      39.573
2014   10        3     1  47    6.44   392.0    8.9      39.619
2014   10        3     1  53    6.44   392.1    8.9      39.666
2014   10        3     1  58    6.44   392.2    8.9      39.714
2014   10        3     2   4    6.45   392.3    8.9      39.763
2014   10        3     2   9    6.45   392.4    8.9      39.812
2014   10        3     2  15    6.45   392.5    8.9      39.861
2014   10        3     2  20    6.46   392.6    8.9      39.910
2014   10        3     2  26    6.46   392.6    8.9      39.960
2014   10        3     2  31    6.47   392.7    8.9      40.009
2014   10        3     2  37    6.47   392.8    8.9      40.059
2014   10        3     2  42    6.47   392.9    8.9      40.108
2014   10        3     2  48    6.47   393.0    8.9      40.158
2014   10        3     2  53    6.48   393.1    8.9      40.209
2014   10        3     2  58    6.48   393.2    8.9      40.259
2014   10        3     3   4    6.48   393.3    8.9      40.310
2014   10        3     3   9    6.49   393.4    8.9      40.361
2014   10        3     3  15    6.49   393.5    8.9      40.411
2014   10        3     3  20    6.49   393.7    8.9      40.460
2014   10        3     3  26    6.50   393.8    8.9      40.509
2014   10        3     3  31    6.50   393.9    8.9      40.558
2014   10        3     3  37    6.50   394.0    8.9      40.605
2014   10        3     3  42    6.50   394.1    8.9      40.652
2014   10        3     3  48    6.51   394.2    8.9      40.699
2014   10        3     3  53    6.51   394.3    8.9      40.744
2014   10        3     3  59    6.51   394.4    8.9      40.790
2014   10        3     4   4    6.52   394.5    8.9      40.834
2014   10        3     4   9    6.52   394.6    8.9      40.879
2014   10        3     4  15    6.52   394.7    8.9      40.922
2014   10        3     4  20    6.52   394.8    8.9      40.966
2014   10        3     4  26    6.53   394.9    8.9      41.008
2014   10        3     4  31    6.53   395.1    8.9      41.051
2014   10        3     4  37    6.53   395.2    8.9      41.093
2014   10        3     4  42    6.53   395.3    8.9      41.135
2014   10        3     4  48    6.54   395.4    8.9      41.176
2014   10        3     4  53    6.54   395.5    8.9      41.217
2014   10        3     4  59    6.54   395.6    8.9      41.258
2014   10        3     5   4    6.54   395.7    8.9      41.298
2014   10        3     5  10    6.55   395.9    8.9      41.338
2014   10        3     5  15    6.55   396.0    8.9      41.377
2014   10        3     5  20    6.55   396.1    8.9      41.417
2014   10        3     5  26    6.55   396.2    8.9      41.456
2014   10        3     5  31    6.56   396.3    8.9      41.494
2014   10        3     5  37    6.56   396.4    8.9      41.533
2014   10        3     5  42    6.56   396.6    8.9      41.571
2014   10        3     5  48    6.56   396.7    8.9      41.609
2014   10        3     5  53    6.57   396.8    8.9      41.647
2014   10        3     5  59    6.57   396.9    8.9      41.684
2014   10        3     6   4    6.57   397.0    8.9      41.721
2014   10        3     6  10    6.57   397.1    8.9      41.758
2014   10        3     6  15    6.58   397.3    8.9      41.794
2014   10        3     6  21    6.58   397.4    8.9      41.830
2014   10        3     6  26    6.58   397.5    8.9      41.866
2014   10        3     6  31    6.58   397.6    8.9      41.902
2014   10        3     6  37    6.59   397.7    8.9      41.937
2014   10        3     6  42    6.59   397.9    8.9      41.973
2014   10        3     6  48    6.59   398.0    8.9      42.008
2014   10        3     6  53    6.59   398.1    8.9      42.042
2014   10        3     6  59    6.59   398.2    8.9      42.077
2014   10        3     7   4    6.60   398.4    8.8      42.111
2014   10        3     7  10    6.60   398.5    8.8      42.145
2014   10        3     7  15    6.60   398.6    8.8      42.179
2014   10        3     7  21    6.60   398.7    8.8      42.213
2014   10        3     7  26    6.60   398.8    8.8      42.247
2014   10        3     7  32    6.61   399.0    8.8      42.280
2014   10        3     7  37    6.61   399.1    8.8      42.314
2014   10        3     7  42    6.61   399.2    8.8      42.347
2014   10        3     7  48    6.61   399.3    8.8      42.381
2014   10        3     7  53    6.62   399.5    8.8      42.414
2014   10        3     7  59    6.62   399.6    8.8      42.447
2014   10        3     8   4    6.62   399.7    8.8      42.480
2014   10        3     8  10    6.62   399.8    8.8      42.513
2014   10        3     8  15    6.62   400.0    8.8      42.546
2014   10        3     8  21    6.62   400.1    8.8      42.580
2014   10        3     8  26    6.63   400.2    8.8      42.613
2014   10        3     8  32    6.63   400.4    8.8      42.646
2014   10        3     8  37    6.63   400.5    8.8      42.680
2014   10        3     8  43    6.63   400.6    8.8      42.713
2014   10        3     8  48    6.63   400.7    8.8      42.747
2014   10        3     8  53    6.64   400.9    8.8      42.781
2014   10        3     8  59    6.64   401.0    8.8      42.815
2014   10        3     9   4    6.64   401.1    8.8      42.849
2014   10        3     9  10    6.64   401.2    8.8      42.884
2014   10        3     9  15    6.64   401.4    8.8      42.918
2014   10        3     9  21    6.64   401.5    8.8      42.953
2014   10        3     9  26    6.65   401.6    8.8      42.989
2014   10        3     9  32    6.65   401.8    8.8      43.025
2014   10        3     9  37    6.65   401.9    8.8      43.061
2014   10        3     9  43    6.65   402.0    8.8      43.098
2014   10        3     9  48    6.65   402.1    8.8      43.134
2014   10        3     9  54    6.66   402.3    8.8      43.171
2014   10        3     9  59    6.66   402.4    8.8      43.209
2014   10        3    10   4    6.66   402.5    8.8      43.247
2014   10        3    10  10    6.66   402.7    8.8      43.285
2014   10        3    10  15    6.66   402.8    8.8      43.324
2014   10        3    10  21    6.66   402.9    8.8      43.363
2014   10        3    10  26    6.67   403.1    8.8      43.403
2014   10        3    10  32    6.67   403.2    8.8      43.443
2014   10        3    10  37    6.67   403.4    8.8      43.484
2014   10        3    10  43    6.67   403.5    8.8      43.525
2014   10        3    10  48    6.67   403.6    8.8      43.565
2014   10        3    10  54    6.67   403.8    8.8      43.605
2014   10        3    10  59    6.67   403.9    8.8      43.644
2014   10        3    11   5    6.68   404.1    8.8      43.683
2014   10        3    11  10    6.68   404.2    8.8      43.721
2014   10        3    11  15    6.68   404.3    8.8      43.759
2014   10        3    11  21    6.68   404.5    8.8      43.795
2014   10        3    11  26    6.68   404.6    8.8      43.832
2014   10        3    11  32    6.68   404.8    8.7      43.867
2014   10        3    11  37    6.68   404.9    8.7      43.902
2014   10        3    11  43    6.68   405.0    8.7      43.937
2014   10        3    11  48    6.68   405.2    8.7      43.971
2014   10        3    11  54    6.68   405.3    8.7      44.005
2014   10        3    11  59    6.69   405.4    8.7      44.038
2014   10        3    12   5    6.69   405.6    8.7      44.070
2014   10        3    12  10    6.69   405.7    8.7      44.103
2014   10        3    12  15    6.69   405.9    8.7      44.135
2014   10        3    12  21    6.69   406.0    8.7      44.167
2014   10        3    12  26    6.69   406.1    8.7      44.199
2014   10        3    12  32    6.69   406.3    8.7      44.230
2014   10        3    12  37    6.69   406.4    8.7      44.262
2014   10        3    12  43    6.69   406.5    8.7      44.293
2014   10        3    12  48    6.69   406.7    8.7      44.324
2014   10        3    12  54    6.69   406.8    8.7      44.355
2014   10        3    12  59    6.70   407.0    8.7      44.387
2014   10        3    13   5    6.70   407.1    8.7      44.418
2014   10        3    13  10    6.70   407.3    8.7      44.450
2014   10        3    13  16    6.70   407.4    8.7      44.482
2014   10        3    13  21    6.70   407.6    8.7      44.514
2014   10        3    13  27    6.70   407.7    8.7      44.546
2014   10        3    13  32    6.70   407.9    8.7      44.578
2014   10        3    13  37    6.70   408.0    8.7      44.610
2014   10        3    13  43    6.70   408.2    8.7      44.641
2014   10        3    13  48    6.70   408.3    8.7      44.672
2014   10        3    13  54    6.70   408.5    8.6      44.702
2014   10        3    13  59    6.70   408.6    8.6      44.731
2014   10        3    14   5    6.70   408.8    8.6      44.761
2014   10        3    14  10    6.70   408.9    8.6      44.789
2014   10        3    14  16    6.70   409.1    8.6      44.817
2014   10        3    14  21    6.70   409.2    8.6      44.845
2014   10        3    14  27    6.71   409.4    8.6      44.872
2014   10        3    14  32    6.71   409.5    8.6      44.899
2014   10        3    14  38    6.71   409.7    8.6      44.925
2014   10        3    14  43    6.71   409.8    8.6      44.950
2014   10        3    14  48    6.71   410.0    8.6      44.976
2014   10        3    14  54    6.71   410.1    8.6      45.001
2014   10        3    14  59    6.71   410.3    8.6      45.025
2014   10        3    15   5    6.70   410.4    8.6      45.049
2014   10        3    15  10    6.70   410.6    8.6      45.072
2014   10        3    15  16    6.70   410.7    8.6      45.095
2014   10        3    15  21    6.70   410.8    8.6      45.118
2014   10        3    15  27    6.70   411.0    8.5      45.140
2014   10        3    15  32    6.70   411.1    8.5      45.162
2014   10        3    15  38    6.70   411.3    8.5      45.183
2014   10        3    15  43    6.70   411.4    8.5      45.204
2014   10        3    15  49    6.70   411.6    8.5      45.225
2014   10        3    15  54    6.70   411.7    8.5      45.245
2014   10        3    15  59    6.70   411.9    8.5      45.265
2014   10        3    16   5    6.70   412.0    8.5      45.285
2014   10        3    16  10    6.70   412.1    8.5      45.304
2014   10        3    16  16    6.70   412.3    8.5      45.323
2014   10        3    16  21    6.70   412.4    8.5      45.342
2014   10        3    16  27    6.70   412.6    8.5      45.360
2014   10        3    16  32    6.70   412.7    8.5      45.378
2014   10        3    16  38    6.70   412.9    8.5      45.396
2014   10        3    16  43    6.70   413.0    8.5      45.414
2014   10        3    16  49    6.69   413.1    8.4      45.431
2014   10        3    16  54    6.69   413.3    8.4      45.448
2014   10        3    17   0    6.69   413.4    8.4      45.464
2014   10        3    17   5    6.69   413.6    8.4      45.481
2014   10        3    17  10    6.69   413.7    8.4      45.497
2014   10        3    17  16    6.69   413.8    8.4      45.513
2014   10        3    17  21    6.69   414.0    8.4      45.529
2014   10        3    17  27    6.69   414.1    8.4      45.545
2014   10        3    17  32    6.69   414.2    8.4      45.560
2014   10        3    17  38    6.69   414.4    8.4      45.576
2014   10        3    17  43    6.69   414.5    8.4      45.591
2014   10        3    17  49    6.68   414.6    8.4      45.606
2014   10        3    17  54    6.68   414.8    8.4      45.621
2014   10        3    18   0    6.68   414.9    8.4      45.636
2014   10        3    18   5    6.68   415.0    8.4      45.651
2014   10        3    18  11    6.68   415.1    8.3      45.665
2014   10        3    18  16    6.68   415.3    8.3      45.680
2014   10        3    18  21    6.68   415.4    8.3      45.694
2014   10        3    18  27    6.68   415.5    8.3      45.708
2014   10        3    18  32    6.68   415.7    8.3      45.721
2014   10        3    18  38    6.67   415.8    8.3      45.735
2014   10        3    18  43    6.67   415.9    8.3      45.748
2014   10        3    18  49    6.67   416.0    8.3      45.760
2014   10        3    18  54    6.67   416.2    8.3      45.772
2014   10        3    19   0    6.67   416.3    8.3      45.784
2014   10        3    19   5    6.67   416.4    8.3      45.795
2014   10        3    19  11    6.67   416.5    8.3      45.806
2014   10        3    19  16    6.66   416.7    8.3      45.817
2014   10        3    19  21    6.66   416.8    8.2      45.827
2014   10        3    19  27    6.66   416.9    8.2      45.837
2014   10        3    19  32    6.66   417.0    8.2      45.846
2014   10        3    19  38    6.66   417.2    8.2      45.855
2014   10        3    19  43    6.66   417.3    8.2      45.864
2014   10        3    19  49    6.66   417.4    8.2      45.872
2014   10        3    19  54    6.65   417.5    8.2      45.880
2014   10        3    20   0    6.65   417.6    8.2      45.887
2014   10        3    20   5    6.65   417.8    8.2      45.894
2014   10        3    20  11    6.65   417.9    8.2      45.901
2014   10        3    20  16    6.65   418.0    8.2      45.907
2014   10        3    20  22    6.64   418.1    8.2      45.913
2014   10        3    20  27    6.64   418.2    8.2      45.919
2014   10        3    20  32    6.64   418.3    8.1      45.924
2014   10        3    20  38    6.64   418.4    8.1      45.928
2014   10        3    20  43    6.64   418.6    8.1      45.932
2014   10        3    20  49    6.64   418.7    8.1      45.936
2014   10        3    20  54    6.63   418.8    8.1      45.940
2014   10        3    21   0    6.63   418.9    8.1      45.943
2014   10        3    21   5    6.63   419.0    8.1      45.945
2014   10        3    21  11    6.63   419.1    8.1      45.947
2014   10        3    21  16    6.63   419.2    8.1      45.949
2014   10        3    21  22    6.62   419.3    8.1      45.951
2014   10        3    21  27    6.62   419.4    8.1      45.952
2014   10        3    21  33    6.62   419.5    8.1      45.952
2014   10        3    21  38    6.62   419.6    8.1      45.953
2014   10        3    21  44    6.61   419.7    8.0      45.953
2014   10        3    21  49    6.61   419.8    8.0      45.952
2014   10        3    21  54    6.61   419.9    8.0      45.952
2014   10        3    22   0    6.61   420.0    8.0      45.951
2014   10        3    22   5    6.61   420.1    8.0      45.949
2014   10        3    22  11    6.60   420.2    8.0      45.948
2014   10        3    22  16    6.60   420.3    8.0      45.946
2014   10        3    22  22    6.60   420.4    8.0      45.944
2014   10        3    22  27    6.60   420.5    8.0      45.942
2014   10        3    22  33    6.59   420.6    8.0      45.939
2014   10        3    22  38    6.59   420.7    8.0      45.937
2014   10        3    22  44    6.59   420.8    8.0      45.934
2014   10        3    22  49    6.59   420.9    8.0      45.931
2014   10        3    22  55    6.58   421.0    7.9      45.927
2014   10        3    23   0    6.58   421.1    7.9      45.924
2014   10        3    23   5    6.58   421.2    7.9      45.921
2014   10        3    23  11    6.58   421.2    7.9      45.917
2014   10        3    23  16    6.58   421.3    7.9      45.913
2014   10        3    23  22    6.57   421.4    7.9      45.910
2014   10        3    23  27    6.57   421.5    7.9      45.906
2014   10        3    23  33    6.57   421.6    7.9      45.902
2014   10        3    23  38    6.57   421.7    7.9      45.898
2014   10        3    23  44    6.56   421.7    7.9      45.895
2014   10        3    23  49    6.56   421.8    7.9      45.891
2014   10        3    23  55    6.56   421.9    7.9      45.887
2014   10        4     0   0    6.56   422.0    7.9      45.884
2014   10        4     0   6    6.55   422.1    7.9      45.880
2014   10        4     0  11    6.55   422.1    7.9      45.877
2014   10        4     0  16    6.55   422.2    7.8      45.873
2014   10        4     0  22    6.55   422.3    7.8      45.870
2014   10        4     0  27    6.54   422.4    7.8      45.867
2014   10        4     0  33    6.54   422.4    7.8      45.863
2014   10        4     0  38    6.54   422.5    7.8      45.860
2014   10        4     0  44    6.54   422.6    7.8      45.858
2014   10        4     0  49    6.53   422.6    7.8      45.855
2014   10        4     0  55    6.53   422.7    7.8      45.853
2014   10        4     1   0    6.53   422.8    7.8      45.851
2014   10        4     1   6    6.53   422.8    7.8      45.849
2014   10        4     1  11    6.52   422.9    7.8      45.847
2014   10        4     1  17    6.52   423.0    7.8      45.845
2014   10        4     1  22    6.52   423.1    7.8      45.843
2014   10        4     1  27    6.52   423.1    7.8      45.841
2014   10        4     1  33    6.52   423.2    7.8      45.840
2014   10        4     1  38    6.51   423.3    7.8      45.838
2014   10        4     1  44    6.51   423.3    7.8      45.837
2014   10        4     1  49    6.51   423.4    7.8      45.836
2014   10        4     1  55    6.51   423.5    7.7      45.834
2014   10        4     2   0    6.50   423.5    7.7      45.833
2014   10        4     2   6    6.50   423.6    7.7      45.832
2014   10        4     2  11    6.50   423.6    7.7      45.830
2014   10        4     2  17    6.50   423.7    7.7      45.828
2014   10        4     2  22    6.49   423.8    7.7      45.825
2014   10        4     2  27    6.49   423.8    7.7      45.822
2014   10        4     2  33    6.49   423.9    7.7      45.818
2014   10        4     2  38    6.49   424.0    7.7      45.814
2014   10        4     2  44    6.48   424.0    7.7      45.810
2014   10        4     2  49    6.48   424.1    7.7      45.805
2014   10        4     2  55    6.48   424.1    7.7      45.800
2014   10        4     3   0    6.47   424.2    7.7      45.794
2014   10        4     3   6    6.47   424.2    7.7      45.788
2014   10        4     3  11    6.47   424.3    7.7      45.782
2014   10        4     3  17    6.47   424.3    7.7      45.775
2014   10        4     3  22    6.46   424.4    7.7      45.768
2014   10        4     3  28    6.46   424.5    7.7      45.760
2014   10        4     3  33    6.46   424.5    7.6      45.752
2014   10        4     3  38    6.46   424.6    7.6      45.744
2014   10        4     3  44    6.45   424.6    7.6      45.736
2014   10        4     3  49    6.45   424.7    7.6      45.727
2014   10        4     3  55    6.45   424.7    7.6      45.718
2014   10        4     4   0    6.44   424.7    7.6      45.708
2014   10        4     4   6    6.44   424.8    7.6      45.699
2014   10        4     4  11    6.44   424.8    7.6      45.688
2014   10        4     4  17    6.44   424.9    7.6      45.678
2014   10        4     4  22    6.43   424.9    7.6      45.668
2014   10        4     4  28    6.43   425.0    7.6      45.657
2014   10        4     4  33    6.43   425.0    7.6      45.646
2014   10        4     4  39    6.43   425.0    7.6      45.635
2014   10        4     4  44    6.42   425.1    7.6      45.623
2014   10        4     4  50    6.42   425.1    7.6      45.611
2014   10        4     4  55    6.42   425.1    7.6      45.599
2014   10        4     5   0    6.41   425.2    7.6      45.587
2014   10        4     5   6    6.41   425.2    7.6      45.575
2014   10        4     5  11    6.41   425.2    7.5      45.562
2014   10        4     5  17    6.41   425.3    7.5      45.549
2014   10        4     5  22    6.40   425.3    7.5      45.536
2014   10        4     5  28    6.40   425.3    7.5      45.523
2014   10        4     5  33    6.40   425.4    7.5      45.510
2014   10        4     5  39    6.40   425.4    7.5      45.497
2014   10        4     5  44    6.39   425.4    7.5      45.484
2014   10        4     5  50    6.39   425.4    7.5      45.471
2014   10        4     5  55    6.39   425.5    7.5      45.458
2014   10        4     6   1    6.39   425.5    7.5      45.445
2014   10        4     6   6    6.38   425.5    7.5      45.432
2014   10        4     6  11    6.38   425.5    7.5      45.420
2014   10        4     6  17    6.38   425.6    7.5      45.407
2014   10        4     6  22    6.38   425.6    7.5      45.394
2014   10        4     6  28    6.37   425.6    7.5      45.382
2014   10        4     6  33    6.37   425.6    7.5      45.370
2014   10        4     6  39    6.37   425.6    7.5      45.358
2014   10        4     6  44    6.37   425.7    7.5      45.346
2014   10        4     6  50    6.36   425.7    7.5      45.334
2014   10        4     6  55    6.36   425.7    7.5      45.323
2014   10        4     7   1    6.36   425.7    7.5      45.312
2014   10        4     7   6    6.36   425.7    7.5      45.301
2014   10        4     7  12    6.36   425.7    7.5      45.291
2014   10        4     7  17    6.35   425.8    7.5      45.281
2014   10        4     7  22    6.35   425.8    7.5      45.272
2014   10        4     7  28    6.35   425.8    7.4      45.262
2014   10        4     7  33    6.35   425.8    7.4      45.253
2014   10        4     7  39    6.34   425.8    7.4      45.245
2014   10        4     7  44    6.34   425.8    7.4      45.236
2014   10        4     7  50    6.34   425.8    7.4      45.229
2014   10        4     7  55    6.34   425.8    7.4      45.221
2014   10        4     8   1    6.34   425.9    7.4      45.215
2014   10        4     8   6    6.33   425.9    7.4      45.208
2014   10        4     8  12    6.33   425.9    7.4      45.203
2014   10        4     8  17    6.33   425.9    7.4      45.198
2014   10        4     8  23    6.33   425.9    7.4      45.193
2014   10        4     8  28    6.33   425.9    7.4      45.189
2014   10        4     8  33    6.32   425.9    7.4      45.185
2014   10        4     8  39    6.32   425.9    7.4      45.181
2014   10        4     8  44    6.32   425.9    7.4      45.178
2014   10        4     8  50    6.32   426.0    7.4      45.176
2014   10        4     8  55    6.32   426.0    7.4      45.174
2014   10        4     9   1    6.32   426.0    7.4      45.173
2014   10        4     9   6    6.31   426.0    7.4      45.172
2014   10        4     9  12    6.31   426.0    7.4      45.171
2014   10        4     9  17    6.31   426.0    7.4      45.171
2014   10        4     9  23    6.31   426.0    7.4      45.171
2014   10        4     9  28    6.31   426.1    7.4      45.172
2014   10        4     9  33    6.31   426.1    7.4      45.172
2014   10        4     9  39    6.30   426.1    7.4      45.172
2014   10        4     9  44    6.30   426.1    7.4      45.171
2014   10        4     9  50    6.30   426.1    7.4      45.171
2014   10        4     9  55    6.30   426.1    7.4      45.170
2014   10        4    10   1    6.30   426.1    7.4      45.169
2014   10        4    10   6    6.30   426.1    7.4      45.169
2014   10        4    10  12    6.29   426.2    7.4      45.168
2014   10        4    10  17    6.29   426.2    7.4      45.166
2014   10        4    10  23    6.29   426.2    7.4      45.165
2014   10        4    10  28    6.29   426.2    7.4      45.164
2014   10        4    10  34    6.29   426.2    7.4      45.162
2014   10        4    10  39    6.29   426.2    7.4      45.160
2014   10        4    10  44    6.28   426.2    7.4      45.158
2014   10        4    10  50    6.28   426.3    7.4      45.157
2014   10        4    10  55    6.28   426.3    7.4      45.154
2014   10        4    11   1    6.28   426.3    7.4      45.152
2014   10        4    11   6    6.28   426.3    7.4      45.150
2014   10        4    11  12    6.28   426.3    7.4      45.147
2014   10        4    11  17    6.27   426.3    7.4      45.144
2014   10        4    11  23    6.27   426.3    7.4      45.142
2014   10        4    11  28    6.27   426.3    7.4      45.139
2014   10        4    11  34    6.27   426.3    7.4      45.135
2014   10        4    11  39    6.27   426.4    7.4      45.132
2014   10        4    11  45    6.26   426.4    7.4      45.129
2014   10        4    11  50    6.26   426.4    7.4      45.125
2014   10        4    11  55    6.26   426.4    7.4      45.122
2014   10        4    12   1    6.26   426.4    7.4      45.118
2014   10        4    12   6    6.26   426.4    7.4      45.114
2014   10        4    12  12    6.26   426.4    7.4      45.110
2014   10        4    12  17    6.25   426.4    7.4      45.105
2014   10        4    12  23    6.25   426.4    7.4      45.101
2014   10        4    12  28    6.25   426.4    7.4      45.096
2014   10        4    12  34    6.25   426.4    7.4      45.092
2014   10        4    12  39    6.25   426.5    7.4      45.087
2014   10        4    12  45    6.25   426.5    7.4      45.082
2014   10        4    12  50    6.24   426.5    7.4      45.077
2014   10        4    12  56    6.24   426.5    7.4      45.071
2014   10        4    13   1    6.24   426.5    7.4      45.066
2014   10        4    13   7    6.24   426.5    7.4      45.060
2014   10        4    13  12    6.24   426.5    7.4      45.055
2014   10        4    13  17    6.24   426.5    7.4      45.049
2014   10        4    13  23    6.23   426.5    7.4      45.044
2014   10        4    13  28    6.23   426.5    7.4      45.038
2014   10        4    13  34    6.23   426.5    7.4      45.032
2014   10        4    13  39    6.23   426.5    7.4      45.026
2014   10        4    13  45    6.23   426.5    7.4      45.020
2014   10        4    13  50    6.23   426.5    7.4      45.014
2014   10        4    13  56    6.23   426.5    7.4      45.008
2014   10        4    14   1    6.22   426.5    7.3      45.002
2014   10        4    14   7    6.22   426.5    7.3      44.996
2014   10        4    14  12    6.22   426.5    7.3      44.990
2014   10        4    14  17    6.22   426.5    7.3      44.985
2014   10        4    14  23    6.22   426.5    7.3      44.979
2014   10        4    14  28    6.22   426.5    7.3      44.973
2014   10        4    14  34    6.22   426.5    7.3      44.968
2014   10        4    14  39    6.21   426.5    7.3      44.962
2014   10        4    14  45    6.21   426.6    7.3      44.956
2014   10        4    14  50    6.21   426.6    7.3      44.951
2014   10        4    14  56    6.21   426.6    7.3      44.946
2014   10        4    15   1    6.21   426.6    7.3      44.940
2014   10        4    15   7    6.21   426.6    7.3      44.935
2014   10        4    15  12    6.21   426.6    7.3      44.930
2014   10        4    15  18    6.20   426.6    7.3      44.925
2014   10        4    15  23    6.20   426.6    7.3      44.920
2014   10        4    15  29    6.20   426.6    7.3      44.916
2014   10        4    15  34    6.20   426.6    7.3      44.911
2014   10        4    15  39    6.20   426.6    7.3      44.907
2014   10        4    15  45    6.20   426.6    7.3      44.903
2014   10        4    15  50    6.20   426.6    7.3      44.900
2014   10        4    15  56    6.20   426.6    7.3      44.896
2014   10        4    16   1    6.19   426.6    7.3      44.893
2014   10        4    16   7    6.19   426.6    7.3      44.890
2014   10        4    16  12    6.19   426.6    7.3      44.887
2014   10        4    16  18    6.19   426.6    7.3      44.885
2014   10        4    16  23    6.19   426.6    7.3      44.882
2014   10        4    16  29    6.19   426.6    7.3      44.880
2014   10        4    16  34    6.19   426.6    7.3      44.878
2014   10        4    16  39    6.19   426.6    7.3      44.877
2014   10        4    16  45    6.19   426.6    7.3      44.875
2014   10        4    16  50    6.19   426.6    7.3      44.874
2014   10        4    16  56    6.18   426.6    7.3      44.873
2014   10        4    17   1    6.18   426.6    7.3      44.872
2014   10        4    17   7    6.18   426.7    7.3      44.871
2014   10        4    17  12    6.18   426.7    7.3      44.871
2014   10        4    17  18    6.18   426.7    7.3      44.871
2014   10        4    17  23    6.18   426.7    7.3      44.870
2014   10        4    17  29    6.18   426.7    7.3      44.870
2014   10        4    17  34    6.18   426.7    7.3      44.870
2014   10        4    17  40    6.18   426.7    7.3      44.871
2014   10        4    17  45    6.18   426.7    7.3      44.871
2014   10        4    17  50    6.17   426.7    7.3      44.871
2014   10        4    17  56    6.17   426.7    7.3      44.872
2014   10        4    18   1    6.17   426.7    7.3      44.872
2014   10        4    18   7    6.17   426.7    7.3      44.872
2014   10        4    18  12    6.17   426.7    7.3      44.873
2014   10        4    18  18    6.17   426.7    7.3      44.873
2014   10        4    18  23    6.17   426.7    7.3      44.874
2014   10        4    18  29    6.17   426.7    7.3      44.874
2014   10        4    18  34    6.17   426.8    7.3      44.875
2014   10        4    18  40    6.17   426.8    7.3      44.875
2014   10        4    18  45    6.16   426.8    7.3      44.875
2014   10        4    18  51    6.16   426.8    7.3      44.876
2014   10        4    18  56    6.16   426.8    7.3      44.876
2014   10        4    19   1    6.16   426.8    7.3      44.876
2014   10        4    19   7    6.16   426.8    7.3      44.876
2014   10        4    19  12    6.16   426.8    7.3      44.876
2014   10        4    19  18    6.16   426.8    7.3      44.876
2014   10        4    19  23    6.16   426.8    7.3      44.876
2014   10        4    19  29    6.15   426.8    7.3      44.875
2014   10        4    19  34    6.15   426.8    7.3      44.874
2014   10        4    19  40    6.15   426.8    7.3      44.874
2014   10        4    19  45    6.15   426.8    7.3      44.873
2014   10        4    19  51    6.15   426.8    7.3      44.872
2014   10        4    19  56    6.15   426.8    7.3      44.871
2014   10        4    20   2    6.15   426.8    7.3      44.870
2014   10        4    20   7    6.15   426.8    7.3      44.869
2014   10        4    20  12    6.14   426.8    7.3      44.868
2014   10        4    20  18    6.14   426.8    7.3      44.866
2014   10        4    20  23    6.14   426.8    7.3      44.865
2014   10        4    20  29    6.14   426.8    7.3      44.863
2014   10        4    20  34    6.14   426.8    7.3      44.861
2014   10        4    20  40    6.14   426.8    7.3      44.860
2014   10        4    20  45    6.14   426.8    7.3      44.858
2014   10        4    20  51    6.14   426.8    7.3      44.856
2014   10        4    20  56    6.13   426.8    7.3      44.854
2014   10        4    21   2    6.13   426.8    7.3      44.852
2014   10        4    21   7    6.13   426.8    7.3      44.850
2014   10        4    21  13    6.13   426.8    7.3      44.847
2014   10        4    21  18    6.13   426.8    7.3      44.845
2014   10        4    21  23    6.13   426.8    7.3      44.843
2014   10        4    21  29    6.13   426.8    7.3      44.841
2014   10        4    21  34    6.13   426.8    7.3      44.839
2014   10        4    21  40    6.13   426.8    7.3      44.836
2014   10        4    21  45    6.12   426.8    7.3      44.834
2014   10        4    21  51    6.12   426.8    7.3      44.832
2014   10        4    21  56    6.12   426.8    7.3      44.830
2014   10        4    22   2    6.12   426.8    7.3      44.828
2014   10        4    22   7    6.12   426.8    7.3      44.826
2014   10        4    22  13    6.12   426.8    7.3      44.824
2014   10        4    22  18    6.12   426.8    7.3      44.822
2014   10        4    22  24    6.12   426.9    7.3      44.821
2014   10        4    22  29    6.12   426.9    7.3      44.819
2014   10        4    22  34    6.11   426.9    7.3      44.817
2014   10        4    22  40    6.11   426.9    7.3      44.816
2014   10        4    22  45    6.11   426.9    7.3      44.814
2014   10        4    22  51    6.11   426.9    7.3      44.813
2014   10        4    22  56    6.11   426.9    7.3      44.812
2014   10        4    23   2    6.11   426.9    7.3      44.811
2014   10        4    23   7    6.11   426.9    7.3      44.810
2014   10        4    23  13    6.11   426.9    7.3      44.809
2014   10        4    23  18    6.11   426.9    7.3      44.808
2014   10        4    23  24    6.11   426.9    7.3      44.807
2014   10        4    23  29    6.11   426.9    7.3      44.806
2014   10        4    23  35    6.10   426.9    7.3      44.806
2014   10        4    23  40    6.10   426.9    7.3      44.806
2014   10        4    23  45    6.10   426.9    7.3      44.805
2014   10        4    23  51    6.10   426.9    7.3      44.805
2014   10        4    23  56    6.10   426.9    7.3      44.805
2014   10        5     0   2    6.10   426.9    7.3      44.805
