year    month   day   hour  minute  B_enl V_enl   n_enl       T_enl
[year] [month] [day] [hour][minute] [nT]  [km/s]  [cm-3]      [kK]
2014    9       23     0   0    6.93   558.0    4.6      51.386
2014    9       23     0   5    6.93   558.0    4.6      51.386
2014    9       23     0  10    6.93   558.1    4.6      51.387
2014    9       23     0  16    6.92   558.1    4.6      51.388
2014    9       23     0  21    6.92   558.2    4.6      51.389
2014    9       23     0  26    6.92   558.3    4.6      51.391
2014    9       23     0  31    6.92   558.3    4.6      51.392
2014    9       23     0  37    6.92   558.4    4.6      51.393
2014    9       23     0  42    6.92   558.5    4.6      51.394
2014    9       23     0  47    6.91   558.5    4.6      51.394
2014    9       23     0  53    6.91   558.6    4.6      51.394
2014    9       23     0  58    6.91   558.7    4.6      51.394
2014    9       23     1   3    6.91   558.7    4.6      51.394
2014    9       23     1   9    6.91   558.8    4.6      51.393
2014    9       23     1  14    6.91   558.8    4.6      51.392
2014    9       23     1  19    6.90   558.9    4.6      51.392
2014    9       23     1  24    6.90   559.0    4.6      51.391
2014    9       23     1  30    6.90   559.0    4.6      51.389
2014    9       23     1  35    6.90   559.1    4.6      51.388
2014    9       23     1  40    6.90   559.1    4.6      51.387
2014    9       23     1  46    6.90   559.2    4.6      51.386
2014    9       23     1  51    6.89   559.3    4.6      51.384
2014    9       23     1  56    6.89   559.3    4.6      51.383
2014    9       23     2   1    6.89   559.4    4.6      51.381
2014    9       23     2   7    6.89   559.4    4.6      51.380
2014    9       23     2  12    6.89   559.5    4.6      51.379
2014    9       23     2  17    6.89   559.6    4.5      51.378
2014    9       23     2  23    6.89   559.6    4.5      51.377
2014    9       23     2  28    6.88   559.7    4.5      51.377
2014    9       23     2  33    6.88   559.8    4.5      51.376
2014    9       23     2  38    6.88   559.8    4.5      51.376
2014    9       23     2  44    6.88   559.9    4.5      51.375
2014    9       23     2  49    6.88   559.9    4.5      51.375
2014    9       23     2  54    6.88   560.0    4.5      51.376
2014    9       23     3   0    6.88   560.1    4.5      51.376
2014    9       23     3   5    6.87   560.1    4.5      51.376
2014    9       23     3  10    6.87   560.2    4.5      51.376
2014    9       23     3  15    6.87   560.3    4.5      51.376
2014    9       23     3  21    6.87   560.3    4.5      51.376
2014    9       23     3  26    6.87   560.4    4.5      51.376
2014    9       23     3  31    6.87   560.5    4.5      51.375
2014    9       23     3  37    6.86   560.5    4.5      51.374
2014    9       23     3  42    6.86   560.6    4.5      51.373
2014    9       23     3  47    6.86   560.7    4.5      51.372
2014    9       23     3  52    6.86   560.7    4.5      51.370
2014    9       23     3  58    6.86   560.8    4.5      51.368
2014    9       23     4   3    6.86   560.8    4.5      51.366
2014    9       23     4   8    6.86   560.9    4.5      51.364
2014    9       23     4  14    6.85   561.0    4.5      51.362
2014    9       23     4  19    6.85   561.0    4.5      51.360
2014    9       23     4  24    6.85   561.1    4.5      51.357
2014    9       23     4  30    6.85   561.2    4.5      51.355
2014    9       23     4  35    6.85   561.2    4.5      51.352
2014    9       23     4  40    6.85   561.3    4.5      51.350
2014    9       23     4  45    6.85   561.3    4.5      51.347
2014    9       23     4  51    6.84   561.4    4.5      51.344
2014    9       23     4  56    6.84   561.5    4.5      51.342
2014    9       23     5   1    6.84   561.5    4.5      51.339
2014    9       23     5   7    6.84   561.6    4.5      51.337
2014    9       23     5  12    6.84   561.7    4.5      51.334
2014    9       23     5  17    6.84   561.7    4.5      51.332
2014    9       23     5  22    6.84   561.8    4.5      51.330
2014    9       23     5  28    6.84   561.8    4.5      51.328
2014    9       23     5  33    6.83   561.9    4.5      51.326
2014    9       23     5  38    6.83   562.0    4.5      51.325
2014    9       23     5  44    6.83   562.0    4.5      51.323
2014    9       23     5  49    6.83   562.1    4.5      51.322
2014    9       23     5  54    6.83   562.1    4.5      51.321
2014    9       23     5  59    6.83   562.2    4.5      51.321
2014    9       23     6   5    6.83   562.3    4.5      51.320
2014    9       23     6  10    6.83   562.3    4.5      51.320
2014    9       23     6  15    6.82   562.4    4.5      51.321
2014    9       23     6  21    6.82   562.4    4.5      51.323
2014    9       23     6  26    6.82   562.5    4.5      51.325
2014    9       23     6  31    6.82   562.5    4.5      51.328
2014    9       23     6  36    6.82   562.6    4.5      51.332
2014    9       23     6  42    6.82   562.7    4.5      51.336
2014    9       23     6  47    6.82   562.7    4.5      51.341
2014    9       23     6  52    6.82   562.8    4.5      51.347
2014    9       23     6  58    6.82   562.9    4.5      51.355
2014    9       23     7   3    6.81   562.9    4.5      51.364
2014    9       23     7   8    6.81   563.0    4.5      51.374
2014    9       23     7  13    6.81   563.1    4.5      51.386
2014    9       23     7  19    6.81   563.1    4.5      51.397
2014    9       23     7  24    6.81   563.2    4.5      51.408
2014    9       23     7  29    6.81   563.2    4.5      51.419
2014    9       23     7  35    6.81   563.3    4.5      51.429
2014    9       23     7  40    6.81   563.4    4.4      51.439
2014    9       23     7  45    6.81   563.4    4.4      51.448
2014    9       23     7  51    6.80   563.5    4.4      51.456
2014    9       23     7  56    6.80   563.6    4.4      51.464
2014    9       23     8   1    6.80   563.6    4.4      51.472
2014    9       23     8   6    6.80   563.7    4.4      51.480
2014    9       23     8  12    6.80   563.7    4.4      51.487
2014    9       23     8  17    6.80   563.8    4.4      51.494
2014    9       23     8  22    6.80   563.9    4.4      51.500
2014    9       23     8  28    6.80   563.9    4.4      51.507
2014    9       23     8  33    6.80   564.0    4.4      51.513
2014    9       23     8  38    6.80   564.0    4.4      51.519
2014    9       23     8  43    6.79   564.1    4.4      51.525
2014    9       23     8  49    6.79   564.2    4.4      51.531
2014    9       23     8  54    6.79   564.2    4.4      51.536
2014    9       23     8  59    6.79   564.3    4.4      51.542
2014    9       23     9   5    6.79   564.3    4.4      51.548
2014    9       23     9  10    6.79   564.4    4.4      51.554
2014    9       23     9  15    6.79   564.4    4.4      51.559
2014    9       23     9  20    6.79   564.5    4.4      51.565
2014    9       23     9  26    6.79   564.5    4.4      51.570
2014    9       23     9  31    6.79   564.6    4.4      51.575
2014    9       23     9  36    6.78   564.6    4.4      51.579
2014    9       23     9  42    6.78   564.7    4.4      51.584
2014    9       23     9  47    6.78   564.7    4.4      51.588
2014    9       23     9  52    6.78   564.8    4.4      51.592
2014    9       23     9  57    6.78   564.9    4.4      51.596
2014    9       23    10   3    6.78   564.9    4.4      51.600
2014    9       23    10   8    6.78   565.0    4.4      51.603
2014    9       23    10  13    6.78   565.0    4.4      51.605
2014    9       23    10  19    6.78   565.1    4.4      51.608
2014    9       23    10  24    6.78   565.1    4.4      51.609
2014    9       23    10  29    6.77   565.2    4.4      51.611
2014    9       23    10  34    6.77   565.2    4.4      51.611
2014    9       23    10  40    6.77   565.3    4.4      51.612
2014    9       23    10  45    6.77   565.3    4.4      51.612
2014    9       23    10  50    6.77   565.4    4.4      51.612
2014    9       23    10  56    6.77   565.4    4.4      51.611
2014    9       23    11   1    6.77   565.5    4.4      51.610
2014    9       23    11   6    6.77   565.5    4.4      51.609
2014    9       23    11  12    6.77   565.6    4.4      51.608
2014    9       23    11  17    6.77   565.6    4.4      51.606
2014    9       23    11  22    6.77   565.7    4.4      51.605
2014    9       23    11  27    6.76   565.7    4.4      51.603
2014    9       23    11  33    6.76   565.8    4.4      51.601
2014    9       23    11  38    6.76   565.8    4.4      51.599
2014    9       23    11  43    6.76   565.9    4.4      51.597
2014    9       23    11  49    6.76   565.9    4.4      51.595
2014    9       23    11  54    6.76   566.0    4.4      51.593
2014    9       23    11  59    6.76   566.0    4.3      51.591
2014    9       23    12   4    6.76   566.1    4.3      51.589
2014    9       23    12  10    6.76   566.1    4.3      51.587
2014    9       23    12  15    6.76   566.2    4.3      51.585
2014    9       23    12  20    6.76   566.2    4.3      51.584
2014    9       23    12  26    6.76   566.3    4.3      51.583
2014    9       23    12  31    6.75   566.3    4.3      51.582
2014    9       23    12  36    6.75   566.4    4.3      51.581
2014    9       23    12  41    6.75   566.4    4.3      51.581
2014    9       23    12  47    6.75   566.5    4.3      51.580
2014    9       23    12  52    6.75   566.5    4.3      51.581
2014    9       23    12  57    6.75   566.6    4.3      51.581
2014    9       23    13   3    6.75   566.6    4.3      51.582
2014    9       23    13   8    6.75   566.6    4.3      51.583
2014    9       23    13  13    6.75   566.7    4.3      51.584
2014    9       23    13  18    6.75   566.7    4.3      51.587
2014    9       23    13  24    6.75   566.8    4.3      51.590
2014    9       23    13  29    6.75   566.8    4.3      51.593
2014    9       23    13  34    6.75   566.9    4.3      51.597
2014    9       23    13  40    6.75   566.9    4.3      51.602
2014    9       23    13  45    6.75   567.0    4.3      51.608
2014    9       23    13  50    6.75   567.0    4.3      51.615
2014    9       23    13  55    6.75   567.1    4.3      51.622
2014    9       23    14   1    6.75   567.1    4.3      51.631
2014    9       23    14   6    6.74   567.2    4.3      51.641
2014    9       23    14  11    6.74   567.2    4.3      51.653
2014    9       23    14  17    6.74   567.3    4.3      51.665
2014    9       23    14  22    6.74   567.4    4.3      51.678
2014    9       23    14  27    6.74   567.4    4.3      51.692
2014    9       23    14  33    6.74   567.5    4.3      51.706
2014    9       23    14  38    6.74   567.5    4.3      51.719
2014    9       23    14  43    6.74   567.6    4.3      51.733
2014    9       23    14  48    6.74   567.6    4.3      51.747
2014    9       23    14  54    6.74   567.7    4.3      51.761
2014    9       23    14  59    6.74   567.7    4.3      51.776
2014    9       23    15   4    6.74   567.8    4.3      51.791
2014    9       23    15  10    6.74   567.8    4.3      51.806
2014    9       23    15  15    6.74   567.9    4.3      51.822
2014    9       23    15  20    6.74   568.0    4.3      51.838
2014    9       23    15  25    6.74   568.0    4.3      51.855
2014    9       23    15  31    6.74   568.1    4.3      51.872
2014    9       23    15  36    6.74   568.1    4.3      51.889
2014    9       23    15  41    6.74   568.2    4.3      51.908
2014    9       23    15  47    6.74   568.2    4.3      51.926
2014    9       23    15  52    6.74   568.3    4.3      51.945
2014    9       23    15  57    6.74   568.4    4.3      51.964
2014    9       23    16   2    6.74   568.4    4.3      51.983
2014    9       23    16   8    6.74   568.5    4.3      52.002
2014    9       23    16  13    6.74   568.5    4.3      52.020
2014    9       23    16  18    6.73   568.6    4.3      52.037
2014    9       23    16  24    6.73   568.6    4.3      52.053
2014    9       23    16  29    6.73   568.7    4.3      52.069
2014    9       23    16  34    6.73   568.7    4.3      52.084
2014    9       23    16  39    6.73   568.8    4.3      52.097
2014    9       23    16  45    6.73   568.8    4.3      52.111
2014    9       23    16  50    6.73   568.9    4.3      52.123
2014    9       23    16  55    6.73   569.0    4.3      52.135
2014    9       23    17   1    6.73   569.0    4.3      52.146
2014    9       23    17   6    6.73   569.1    4.3      52.156
2014    9       23    17  11    6.73   569.1    4.3      52.166
2014    9       23    17  16    6.73   569.2    4.3      52.175
2014    9       23    17  22    6.73   569.2    4.3      52.183
2014    9       23    17  27    6.73   569.3    4.3      52.191
2014    9       23    17  32    6.73   569.3    4.3      52.198
2014    9       23    17  38    6.73   569.4    4.3      52.205
2014    9       23    17  43    6.73   569.4    4.3      52.211
2014    9       23    17  48    6.73   569.5    4.3      52.216
2014    9       23    17  54    6.73   569.5    4.3      52.221
2014    9       23    17  59    6.73   569.6    4.3      52.226
2014    9       23    18   4    6.73   569.6    4.3      52.230
2014    9       23    18   9    6.73   569.6    4.3      52.234
2014    9       23    18  15    6.73   569.7    4.3      52.237
2014    9       23    18  20    6.73   569.7    4.3      52.241
2014    9       23    18  25    6.73   569.8    4.3      52.244
2014    9       23    18  31    6.73   569.8    4.3      52.246
2014    9       23    18  36    6.73   569.9    4.3      52.249
2014    9       23    18  41    6.73   569.9    4.3      52.251
2014    9       23    18  46    6.73   570.0    4.3      52.254
2014    9       23    18  52    6.72   570.0    4.3      52.256
2014    9       23    18  57    6.72   570.1    4.3      52.259
2014    9       23    19   2    6.72   570.1    4.3      52.262
2014    9       23    19   8    6.72   570.1    4.3      52.265
2014    9       23    19  13    6.72   570.2    4.3      52.268
2014    9       23    19  18    6.72   570.2    4.3      52.272
2014    9       23    19  23    6.72   570.3    4.3      52.275
2014    9       23    19  29    6.72   570.3    4.3      52.280
2014    9       23    19  34    6.72   570.4    4.3      52.284
2014    9       23    19  39    6.72   570.4    4.2      52.289
2014    9       23    19  45    6.72   570.5    4.2      52.295
2014    9       23    19  50    6.72   570.5    4.2      52.300
2014    9       23    19  55    6.72   570.6    4.2      52.307
2014    9       23    20   0    6.72   570.6    4.2      52.314
2014    9       23    20   6    6.72   570.7    4.2      52.321
2014    9       23    20  11    6.72   570.7    4.2      52.329
2014    9       23    20  16    6.72   570.8    4.2      52.337
2014    9       23    20  22    6.72   570.8    4.2      52.346
2014    9       23    20  27    6.73   570.9    4.2      52.356
2014    9       23    20  32    6.73   570.9    4.2      52.366
2014    9       23    20  38    6.73   571.0    4.2      52.377
2014    9       23    20  43    6.73   571.0    4.2      52.388
2014    9       23    20  48    6.73   571.1    4.2      52.400
2014    9       23    20  53    6.73   571.1    4.2      52.412
2014    9       23    20  59    6.73   571.2    4.2      52.425
2014    9       23    21   4    6.73   571.2    4.2      52.438
2014    9       23    21   9    6.73   571.3    4.2      52.453
2014    9       23    21  15    6.73   571.4    4.2      52.468
2014    9       23    21  20    6.73   571.4    4.2      52.483
2014    9       23    21  25    6.73   571.5    4.2      52.500
2014    9       23    21  30    6.73   571.5    4.2      52.517
2014    9       23    21  36    6.73   571.6    4.2      52.535
2014    9       23    21  41    6.73   571.6    4.2      52.554
2014    9       23    21  46    6.73   571.7    4.2      52.574
2014    9       23    21  52    6.73   571.8    4.2      52.594
2014    9       23    21  57    6.73   571.8    4.2      52.616
2014    9       23    22   2    6.73   571.9    4.2      52.639
2014    9       23    22   7    6.73   571.9    4.2      52.662
2014    9       23    22  13    6.73   572.0    4.2      52.687
2014    9       23    22  18    6.73   572.1    4.2      52.711
2014    9       23    22  23    6.73   572.1    4.2      52.737
2014    9       23    22  29    6.73   572.2    4.2      52.763
2014    9       23    22  34    6.73   572.2    4.2      52.790
2014    9       23    22  39    6.73   572.3    4.2      52.817
2014    9       23    22  44    6.73   572.4    4.2      52.845
2014    9       23    22  50    6.73   572.4    4.2      52.873
2014    9       23    22  55    6.73   572.5    4.2      52.902
2014    9       23    23   0    6.73   572.6    4.2      52.931
2014    9       23    23   6    6.73   572.6    4.2      52.960
2014    9       23    23  11    6.73   572.7    4.2      52.990
2014    9       23    23  16    6.73   572.8    4.2      53.019
2014    9       23    23  21    6.73   572.8    4.2      53.049
2014    9       23    23  27    6.73   572.9    4.2      53.078
2014    9       23    23  32    6.73   573.0    4.2      53.108
2014    9       23    23  37    6.73   573.1    4.2      53.138
2014    9       23    23  43    6.73   573.1    4.2      53.168
2014    9       23    23  48    6.73   573.2    4.2      53.198
2014    9       23    23  53    6.73   573.3    4.2      53.228
2014    9       23    23  59    6.73   573.4    4.2      53.257
2014    9       24     0   4    6.74   573.4    4.2      53.285
2014    9       24     0   9    6.74   573.5    4.2      53.312
2014    9       24     0  14    6.74   573.6    4.2      53.338
2014    9       24     0  20    6.74   573.7    4.2      53.363
2014    9       24     0  25    6.74   573.7    4.2      53.387
2014    9       24     0  30    6.74   573.8    4.2      53.410
2014    9       24     0  36    6.74   573.9    4.2      53.433
2014    9       24     0  41    6.74   573.9    4.2      53.454
2014    9       24     0  46    6.74   574.0    4.2      53.475
2014    9       24     0  51    6.74   574.1    4.2      53.495
2014    9       24     0  57    6.74   574.2    4.2      53.514
2014    9       24     1   2    6.74   574.2    4.2      53.532
2014    9       24     1   7    6.74   574.3    4.2      53.550
2014    9       24     1  13    6.74   574.4    4.2      53.567
2014    9       24     1  18    6.74   574.4    4.2      53.583
2014    9       24     1  23    6.74   574.5    4.2      53.599
2014    9       24     1  28    6.74   574.6    4.2      53.615
2014    9       24     1  34    6.74   574.7    4.2      53.630
2014    9       24     1  39    6.74   574.7    4.2      53.645
2014    9       24     1  44    6.74   574.8    4.2      53.659
2014    9       24     1  50    6.74   574.9    4.2      53.673
2014    9       24     1  55    6.74   575.0    4.2      53.687
2014    9       24     2   0    6.74   575.0    4.2      53.701
2014    9       24     2   5    6.74   575.1    4.2      53.714
2014    9       24     2  11    6.74   575.2    4.2      53.728
2014    9       24     2  16    6.74   575.3    4.2      53.742
2014    9       24     2  21    6.74   575.3    4.2      53.755
2014    9       24     2  27    6.74   575.4    4.2      53.769
2014    9       24     2  32    6.74   575.5    4.2      53.783
2014    9       24     2  37    6.74   575.6    4.2      53.797
2014    9       24     2  42    6.74   575.6    4.2      53.811
2014    9       24     2  48    6.74   575.7    4.2      53.825
2014    9       24     2  53    6.74   575.8    4.2      53.839
2014    9       24     2  58    6.75   575.9    4.2      53.853
2014    9       24     3   4    6.75   576.0    4.2      53.867
2014    9       24     3   9    6.75   576.0    4.2      53.882
2014    9       24     3  14    6.75   576.1    4.2      53.896
2014    9       24     3  20    6.75   576.2    4.2      53.910
2014    9       24     3  25    6.75   576.3    4.2      53.925
2014    9       24     3  30    6.75   576.4    4.2      53.940
2014    9       24     3  35    6.75   576.5    4.2      53.955
2014    9       24     3  41    6.75   576.5    4.2      53.971
2014    9       24     3  46    6.75   576.6    4.2      53.987
2014    9       24     3  51    6.75   576.7    4.2      54.003
2014    9       24     3  57    6.75   576.8    4.2      54.019
2014    9       24     4   2    6.75   576.9    4.2      54.036
2014    9       24     4   7    6.75   577.0    4.2      54.054
2014    9       24     4  12    6.75   577.1    4.2      54.072
2014    9       24     4  18    6.75   577.1    4.2      54.090
2014    9       24     4  23    6.75   577.2    4.2      54.109
2014    9       24     4  28    6.76   577.3    4.2      54.129
2014    9       24     4  34    6.76   577.4    4.2      54.150
2014    9       24     4  39    6.76   577.5    4.2      54.172
2014    9       24     4  44    6.76   577.6    4.2      54.194
2014    9       24     4  49    6.76   577.7    4.2      54.218
2014    9       24     4  55    6.76   577.8    4.2      54.243
2014    9       24     5   0    6.76   577.9    4.2      54.269
2014    9       24     5   5    6.76   578.0    4.2      54.296
2014    9       24     5  11    6.76   578.1    4.2      54.324
2014    9       24     5  16    6.76   578.2    4.2      54.354
2014    9       24     5  21    6.76   578.3    4.2      54.385
2014    9       24     5  26    6.76   578.4    4.2      54.418
2014    9       24     5  32    6.76   578.5    4.2      54.451
2014    9       24     5  37    6.76   578.6    4.2      54.485
2014    9       24     5  42    6.76   578.7    4.2      54.520
2014    9       24     5  48    6.76   578.8    4.2      54.556
2014    9       24     5  53    6.76   578.9    4.2      54.592
2014    9       24     5  58    6.76   579.0    4.2      54.628
2014    9       24     6   4    6.77   579.1    4.2      54.665
2014    9       24     6   9    6.77   579.2    4.2      54.702
2014    9       24     6  14    6.77   579.3    4.2      54.741
2014    9       24     6  19    6.77   579.4    4.2      54.780
2014    9       24     6  25    6.77   579.5    4.2      54.820
2014    9       24     6  30    6.77   579.6    4.2      54.861
2014    9       24     6  35    6.77   579.7    4.2      54.904
2014    9       24     6  41    6.77   579.8    4.2      54.948
2014    9       24     6  46    6.77   579.9    4.2      54.992
2014    9       24     6  51    6.77   580.0    4.2      55.039
2014    9       24     6  56    6.77   580.1    4.2      55.086
2014    9       24     7   2    6.77   580.3    4.2      55.136
2014    9       24     7   7    6.77   580.4    4.2      55.186
2014    9       24     7  12    6.77   580.5    4.2      55.238
2014    9       24     7  18    6.77   580.6    4.2      55.290
2014    9       24     7  23    6.77   580.8    4.2      55.341
2014    9       24     7  28    6.77   580.9    4.2      55.391
2014    9       24     7  33    6.77   581.0    4.2      55.439
2014    9       24     7  39    6.77   581.2    4.2      55.485
2014    9       24     7  44    6.77   581.3    4.2      55.529
2014    9       24     7  49    6.77   581.4    4.2      55.572
2014    9       24     7  55    6.77   581.6    4.2      55.613
2014    9       24     8   0    6.78   581.7    4.2      55.652
2014    9       24     8   5    6.78   581.8    4.2      55.689
2014    9       24     8  10    6.78   582.0    4.2      55.725
2014    9       24     8  16    6.78   582.1    4.2      55.759
2014    9       24     8  21    6.78   582.2    4.2      55.792
2014    9       24     8  26    6.78   582.3    4.2      55.824
2014    9       24     8  32    6.78   582.5    4.2      55.854
2014    9       24     8  37    6.78   582.6    4.2      55.883
2014    9       24     8  42    6.78   582.7    4.2      55.911
2014    9       24     8  47    6.78   582.9    4.2      55.938
2014    9       24     8  53    6.78   583.0    4.2      55.964
2014    9       24     8  58    6.78   583.1    4.1      55.988
2014    9       24     9   3    6.78   583.3    4.1      56.012
2014    9       24     9   9    6.78   583.4    4.1      56.035
2014    9       24     9  14    6.78   583.6    4.1      56.057
2014    9       24     9  19    6.78   583.7    4.1      56.079
2014    9       24     9  25    6.78   583.8    4.1      56.100
2014    9       24     9  30    6.78   584.0    4.1      56.120
2014    9       24     9  35    6.78   584.1    4.1      56.140
2014    9       24     9  40    6.78   584.2    4.1      56.159
2014    9       24     9  46    6.78   584.4    4.1      56.178
2014    9       24     9  51    6.78   584.5    4.1      56.197
2014    9       24     9  56    6.78   584.7    4.1      56.215
2014    9       24    10   2    6.78   584.8    4.1      56.233
2014    9       24    10   7    6.78   584.9    4.1      56.250
2014    9       24    10  12    6.79   585.1    4.1      56.268
2014    9       24    10  17    6.79   585.2    4.1      56.285
2014    9       24    10  23    6.79   585.3    4.1      56.302
2014    9       24    10  28    6.79   585.5    4.1      56.319
2014    9       24    10  33    6.79   585.6    4.1      56.336
2014    9       24    10  39    6.79   585.8    4.1      56.353
2014    9       24    10  44    6.79   585.9    4.1      56.370
2014    9       24    10  49    6.79   586.1    4.1      56.388
2014    9       24    10  54    6.79   586.2    4.1      56.405
2014    9       24    11   0    6.79   586.4    4.1      56.422
2014    9       24    11   5    6.79   586.5    4.1      56.441
2014    9       24    11  10    6.79   586.7    4.1      56.459
2014    9       24    11  16    6.79   586.8    4.1      56.479
2014    9       24    11  21    6.79   587.0    4.1      56.499
2014    9       24    11  26    6.79   587.1    4.1      56.521
2014    9       24    11  31    6.79   587.3    4.1      56.543
2014    9       24    11  37    6.79   587.4    4.1      56.567
2014    9       24    11  42    6.79   587.6    4.1      56.592
2014    9       24    11  47    6.79   587.7    4.1      56.618
2014    9       24    11  53    6.79   587.9    4.1      56.645
2014    9       24    11  58    6.79   588.1    4.1      56.673
2014    9       24    12   3    6.80   588.2    4.1      56.702
2014    9       24    12   8    6.80   588.4    4.1      56.732
2014    9       24    12  14    6.80   588.5    4.1      56.763
2014    9       24    12  19    6.80   588.7    4.1      56.796
2014    9       24    12  24    6.80   588.9    4.1      56.831
2014    9       24    12  30    6.80   589.0    4.1      56.867
2014    9       24    12  35    6.80   589.2    4.1      56.905
2014    9       24    12  40    6.80   589.4    4.1      56.945
2014    9       24    12  46    6.80   589.6    4.1      56.986
2014    9       24    12  51    6.80   589.7    4.1      57.029
2014    9       24    12  56    6.80   589.9    4.1      57.074
2014    9       24    13   1    6.80   590.1    4.1      57.120
2014    9       24    13   7    6.80   590.3    4.1      57.168
2014    9       24    13  12    6.80   590.5    4.1      57.218
2014    9       24    13  17    6.80   590.6    4.1      57.268
2014    9       24    13  23    6.80   590.8    4.1      57.319
2014    9       24    13  28    6.80   591.0    4.1      57.371
2014    9       24    13  33    6.80   591.2    4.1      57.423
2014    9       24    13  38    6.80   591.4    4.1      57.476
2014    9       24    13  44    6.80   591.6    4.1      57.528
2014    9       24    13  49    6.80   591.8    4.1      57.581
2014    9       24    13  54    6.80   591.9    4.1      57.633
2014    9       24    14   0    6.80   592.1    4.0      57.686
2014    9       24    14   5    6.80   592.3    4.0      57.740
2014    9       24    14  10    6.80   592.5    4.0      57.794
2014    9       24    14  15    6.80   592.7    4.0      57.848
2014    9       24    14  21    6.80   592.9    4.0      57.903
2014    9       24    14  26    6.80   593.1    4.0      57.957
2014    9       24    14  31    6.80   593.3    4.0      58.010
2014    9       24    14  37    6.80   593.5    4.0      58.061
2014    9       24    14  42    6.80   593.7    4.0      58.110
2014    9       24    14  47    6.80   593.9    4.0      58.158
2014    9       24    14  52    6.80   594.1    4.0      58.204
2014    9       24    14  58    6.79   594.3    4.0      58.248
2014    9       24    15   3    6.79   594.5    4.0      58.291
2014    9       24    15   8    6.79   594.7    4.0      58.332
2014    9       24    15  14    6.79   594.9    4.0      58.371
2014    9       24    15  19    6.79   595.1    4.0      58.409
2014    9       24    15  24    6.79   595.3    4.0      58.446
2014    9       24    15  29    6.79   595.5    4.0      58.480
2014    9       24    15  35    6.79   595.7    4.0      58.514
2014    9       24    15  40    6.79   595.9    4.0      58.546
2014    9       24    15  45    6.79   596.0    4.0      58.577
2014    9       24    15  51    6.79   596.2    4.0      58.607
2014    9       24    15  56    6.79   596.4    4.0      58.635
2014    9       24    16   1    6.79   596.6    4.0      58.663
2014    9       24    16   6    6.79   596.8    4.0      58.689
2014    9       24    16  12    6.79   597.0    4.0      58.714
2014    9       24    16  17    6.79   597.2    4.0      58.738
2014    9       24    16  22    6.79   597.4    4.0      58.762
2014    9       24    16  28    6.79   597.6    4.0      58.785
2014    9       24    16  33    6.79   597.8    4.0      58.806
2014    9       24    16  38    6.79   598.0    4.0      58.827
2014    9       24    16  43    6.78   598.2    4.0      58.848
2014    9       24    16  49    6.78   598.4    4.0      58.868
2014    9       24    16  54    6.78   598.5    4.0      58.887
2014    9       24    16  59    6.78   598.7    4.0      58.906
2014    9       24    17   5    6.78   598.9    3.9      58.924
2014    9       24    17  10    6.78   599.1    3.9      58.941
2014    9       24    17  15    6.78   599.3    3.9      58.959
2014    9       24    17  20    6.78   599.5    3.9      58.976
2014    9       24    17  26    6.78   599.7    3.9      58.993
2014    9       24    17  31    6.78   599.9    3.9      59.009
2014    9       24    17  36    6.78   600.0    3.9      59.026
2014    9       24    17  42    6.78   600.2    3.9      59.042
2014    9       24    17  47    6.78   600.4    3.9      59.058
2014    9       24    17  52    6.78   600.6    3.9      59.074
2014    9       24    17  58    6.78   600.8    3.9      59.091
2014    9       24    18   3    6.77   601.0    3.9      59.108
2014    9       24    18   8    6.77   601.2    3.9      59.125
2014    9       24    18  13    6.77   601.3    3.9      59.143
2014    9       24    18  19    6.77   601.5    3.9      59.162
2014    9       24    18  24    6.77   601.7    3.9      59.182
2014    9       24    18  29    6.77   601.9    3.9      59.203
2014    9       24    18  35    6.77   602.1    3.9      59.226
2014    9       24    18  40    6.77   602.3    3.9      59.249
2014    9       24    18  45    6.77   602.5    3.9      59.275
2014    9       24    18  50    6.77   602.7    3.9      59.301
2014    9       24    18  56    6.77   602.9    3.9      59.328
2014    9       24    19   1    6.77   603.1    3.9      59.355
2014    9       24    19   6    6.76   603.3    3.9      59.384
2014    9       24    19  12    6.76   603.5    3.9      59.414
2014    9       24    19  17    6.76   603.7    3.9      59.445
2014    9       24    19  22    6.76   603.9    3.9      59.478
2014    9       24    19  27    6.76   604.1    3.9      59.511
2014    9       24    19  33    6.76   604.3    3.9      59.547
2014    9       24    19  38    6.76   604.5    3.9      59.583
2014    9       24    19  43    6.76   604.7    3.9      59.622
2014    9       24    19  49    6.76   604.9    3.9      59.662
2014    9       24    19  54    6.75   605.1    3.9      59.705
2014    9       24    19  59    6.75   605.3    3.9      59.749
2014    9       24    20   4    6.75   605.5    3.8      59.795
2014    9       24    20  10    6.75   605.7    3.8      59.843
2014    9       24    20  15    6.75   606.0    3.8      59.892
2014    9       24    20  20    6.75   606.2    3.8      59.941
2014    9       24    20  26    6.75   606.4    3.8      59.991
2014    9       24    20  31    6.74   606.6    3.8      60.040
2014    9       24    20  36    6.74   606.8    3.8      60.088
2014    9       24    20  41    6.74   607.0    3.8      60.135
2014    9       24    20  47    6.74   607.2    3.8      60.181
2014    9       24    20  52    6.74   607.4    3.8      60.226
2014    9       24    20  57    6.74   607.7    3.8      60.270
2014    9       24    21   3    6.73   607.9    3.8      60.313
2014    9       24    21   8    6.73   608.1    3.8      60.355
2014    9       24    21  13    6.73   608.3    3.8      60.395
2014    9       24    21  18    6.73   608.5    3.8      60.434
2014    9       24    21  24    6.73   608.7    3.8      60.473
2014    9       24    21  29    6.72   608.9    3.8      60.510
2014    9       24    21  34    6.72   609.1    3.8      60.545
2014    9       24    21  40    6.72   609.3    3.8      60.580
2014    9       24    21  45    6.72   609.5    3.8      60.613
2014    9       24    21  50    6.72   609.7    3.8      60.645
2014    9       24    21  55    6.71   609.9    3.8      60.675
2014    9       24    22   1    6.71   610.1    3.8      60.705
2014    9       24    22   6    6.71   610.3    3.8      60.733
2014    9       24    22  11    6.71   610.5    3.8      60.760
2014    9       24    22  17    6.71   610.7    3.8      60.786
2014    9       24    22  22    6.70   610.9    3.8      60.811
2014    9       24    22  27    6.70   611.1    3.8      60.835
2014    9       24    22  32    6.70   611.3    3.7      60.857
2014    9       24    22  38    6.70   611.5    3.7      60.879
2014    9       24    22  43    6.70   611.6    3.7      60.899
2014    9       24    22  48    6.69   611.8    3.7      60.918
2014    9       24    22  54    6.69   612.0    3.7      60.936
2014    9       24    22  59    6.69   612.2    3.7      60.953
2014    9       24    23   4    6.69   612.4    3.7      60.968
2014    9       24    23  10    6.69   612.6    3.7      60.983
2014    9       24    23  15    6.68   612.7    3.7      60.997
2014    9       24    23  20    6.68   612.9    3.7      61.010
2014    9       24    23  25    6.68   613.1    3.7      61.022
2014    9       24    23  31    6.68   613.3    3.7      61.033
2014    9       24    23  36    6.67   613.4    3.7      61.043
2014    9       24    23  41    6.67   613.6    3.7      61.053
2014    9       24    23  47    6.67   613.8    3.7      61.061
2014    9       24    23  52    6.67   613.9    3.7      61.069
2014    9       24    23  57    6.67   614.1    3.7      61.075
2014    9       25     0   2    6.66   614.3    3.7      61.081
2014    9       25     0   8    6.66   614.4    3.7      61.086
2014    9       25     0  13    6.66   614.6    3.7      61.091
2014    9       25     0  18    6.66   614.7    3.7      61.095
2014    9       25     0  24    6.65   614.9    3.7      61.098
2014    9       25     0  29    6.65   615.0    3.7      61.102
2014    9       25     0  34    6.65   615.2    3.7      61.104
2014    9       25     0  39    6.65   615.4    3.7      61.106
2014    9       25     0  45    6.65   615.5    3.6      61.108
2014    9       25     0  50    6.64   615.7    3.6      61.110
2014    9       25     0  55    6.64   615.8    3.6      61.111
2014    9       25     1   1    6.64   616.0    3.6      61.113
2014    9       25     1   6    6.64   616.1    3.6      61.114
2014    9       25     1  11    6.63   616.2    3.6      61.115
2014    9       25     1  16    6.63   616.4    3.6      61.117
2014    9       25     1  22    6.63   616.5    3.6      61.119
2014    9       25     1  27    6.63   616.7    3.6      61.121
2014    9       25     1  32    6.62   616.8    3.6      61.123
2014    9       25     1  38    6.62   617.0    3.6      61.126
2014    9       25     1  43    6.62   617.1    3.6      61.129
2014    9       25     1  48    6.62   617.2    3.6      61.133
2014    9       25     1  54    6.61   617.4    3.6      61.138
2014    9       25     1  59    6.61   617.5    3.6      61.143
2014    9       25     2   4    6.61   617.6    3.6      61.150
2014    9       25     2   9    6.61   617.8    3.6      61.157
2014    9       25     2  15    6.60   617.9    3.6      61.166
2014    9       25     2  20    6.60   618.0    3.6      61.175
2014    9       25     2  25    6.60   618.2    3.6      61.185
2014    9       25     2  31    6.60   618.3    3.6      61.197
2014    9       25     2  36    6.59   618.4    3.6      61.210
2014    9       25     2  41    6.59   618.6    3.6      61.225
2014    9       25     2  46    6.59   618.7    3.6      61.241
2014    9       25     2  52    6.59   618.8    3.6      61.258
2014    9       25     2  57    6.58   619.0    3.6      61.276
2014    9       25     3   2    6.58   619.1    3.6      61.296
2014    9       25     3   8    6.58   619.2    3.6      61.316
2014    9       25     3  13    6.57   619.4    3.6      61.337
2014    9       25     3  18    6.57   619.5    3.6      61.359
2014    9       25     3  23    6.57   619.6    3.5      61.381
2014    9       25     3  29    6.57   619.7    3.5      61.404
2014    9       25     3  34    6.56   619.9    3.5      61.427
2014    9       25     3  39    6.56   620.0    3.5      61.450
2014    9       25     3  45    6.56   620.1    3.5      61.473
2014    9       25     3  50    6.56   620.2    3.5      61.496
2014    9       25     3  55    6.55   620.4    3.5      61.519
2014    9       25     4   1    6.55   620.5    3.5      61.542
2014    9       25     4   6    6.55   620.6    3.5      61.564
2014    9       25     4  11    6.54   620.7    3.5      61.587
2014    9       25     4  16    6.54   620.8    3.5      61.609
2014    9       25     4  22    6.54   621.0    3.5      61.630
2014    9       25     4  27    6.54   621.1    3.5      61.650
2014    9       25     4  32    6.53   621.2    3.5      61.670
2014    9       25     4  38    6.53   621.3    3.5      61.689
2014    9       25     4  43    6.53   621.4    3.5      61.707
2014    9       25     4  48    6.52   621.5    3.5      61.724
2014    9       25     4  53    6.52   621.6    3.5      61.741
2014    9       25     4  59    6.52   621.7    3.5      61.756
2014    9       25     5   4    6.52   621.8    3.5      61.771
2014    9       25     5   9    6.51   621.9    3.5      61.785
2014    9       25     5  15    6.51   622.1    3.5      61.798
2014    9       25     5  20    6.51   622.2    3.5      61.810
2014    9       25     5  25    6.50   622.3    3.5      61.821
2014    9       25     5  30    6.50   622.4    3.5      61.831
2014    9       25     5  36    6.50   622.5    3.5      61.839
2014    9       25     5  41    6.50   622.6    3.5      61.847
2014    9       25     5  46    6.49   622.7    3.5      61.853
2014    9       25     5  52    6.49   622.8    3.5      61.858
2014    9       25     5  57    6.49   622.9    3.5      61.862
2014    9       25     6   2    6.49   623.0    3.5      61.865
2014    9       25     6   7    6.48   623.0    3.5      61.866
2014    9       25     6  13    6.48   623.1    3.5      61.867
2014    9       25     6  18    6.48   623.2    3.5      61.866
2014    9       25     6  23    6.47   623.3    3.5      61.865
2014    9       25     6  29    6.47   623.4    3.5      61.862
2014    9       25     6  34    6.47   623.5    3.4      61.859
2014    9       25     6  39    6.47   623.6    3.4      61.854
2014    9       25     6  45    6.46   623.7    3.4      61.849
2014    9       25     6  50    6.46   623.8    3.4      61.843
2014    9       25     6  55    6.46   623.8    3.4      61.836
2014    9       25     7   0    6.46   623.9    3.4      61.828
2014    9       25     7   6    6.45   624.0    3.4      61.819
2014    9       25     7  11    6.45   624.1    3.4      61.810
2014    9       25     7  16    6.45   624.1    3.4      61.800
2014    9       25     7  22    6.45   624.2    3.4      61.789
2014    9       25     7  27    6.44   624.3    3.4      61.778
2014    9       25     7  32    6.44   624.4    3.4      61.767
2014    9       25     7  37    6.44   624.4    3.4      61.755
2014    9       25     7  43    6.43   624.5    3.4      61.742
2014    9       25     7  48    6.43   624.6    3.4      61.730
2014    9       25     7  53    6.43   624.7    3.4      61.716
2014    9       25     7  59    6.43   624.7    3.4      61.703
2014    9       25     8   4    6.42   624.8    3.4      61.689
2014    9       25     8   9    6.42   624.9    3.4      61.675
2014    9       25     8  14    6.42   624.9    3.4      61.661
2014    9       25     8  20    6.42   625.0    3.4      61.647
2014    9       25     8  25    6.41   625.1    3.4      61.632
2014    9       25     8  30    6.41   625.1    3.4      61.618
2014    9       25     8  36    6.41   625.2    3.4      61.603
2014    9       25     8  41    6.41   625.3    3.4      61.589
2014    9       25     8  46    6.40   625.3    3.4      61.574
2014    9       25     8  51    6.40   625.4    3.4      61.560
2014    9       25     8  57    6.40   625.4    3.4      61.546
2014    9       25     9   2    6.39   625.5    3.4      61.532
2014    9       25     9   7    6.39   625.5    3.4      61.519
2014    9       25     9  13    6.39   625.6    3.4      61.506
2014    9       25     9  18    6.39   625.6    3.4      61.494
2014    9       25     9  23    6.38   625.7    3.4      61.482
2014    9       25     9  29    6.38   625.7    3.4      61.471
2014    9       25     9  34    6.38   625.8    3.4      61.460
2014    9       25     9  39    6.38   625.8    3.3      61.450
2014    9       25     9  44    6.37   625.9    3.3      61.441
2014    9       25     9  50    6.37   625.9    3.3      61.433
2014    9       25     9  55    6.37   626.0    3.3      61.426
2014    9       25    10   0    6.36   626.0    3.3      61.420
2014    9       25    10   6    6.36   626.1    3.3      61.415
2014    9       25    10  11    6.36   626.1    3.3      61.410
2014    9       25    10  16    6.36   626.1    3.3      61.407
2014    9       25    10  21    6.35   626.2    3.3      61.404
2014    9       25    10  27    6.35   626.2    3.3      61.403
2014    9       25    10  32    6.35   626.2    3.3      61.403
2014    9       25    10  37    6.35   626.3    3.3      61.403
2014    9       25    10  43    6.34   626.3    3.3      61.405
2014    9       25    10  48    6.34   626.4    3.3      61.407
2014    9       25    10  53    6.34   626.4    3.3      61.410
2014    9       25    10  59    6.34   626.4    3.3      61.414
2014    9       25    11   4    6.33   626.5    3.3      61.418
2014    9       25    11   9    6.33   626.5    3.3      61.423
2014    9       25    11  14    6.33   626.5    3.3      61.429
2014    9       25    11  20    6.33   626.6    3.3      61.436
2014    9       25    11  25    6.32   626.6    3.3      61.443
2014    9       25    11  30    6.32   626.6    3.3      61.450
2014    9       25    11  36    6.32   626.7    3.3      61.458
2014    9       25    11  41    6.31   626.7    3.3      61.465
2014    9       25    11  46    6.31   626.7    3.3      61.473
2014    9       25    11  51    6.31   626.7    3.3      61.481
2014    9       25    11  57    6.31   626.8    3.3      61.489
2014    9       25    12   2    6.30   626.8    3.3      61.497
2014    9       25    12   7    6.30   626.8    3.3      61.505
2014    9       25    12  13    6.30   626.9    3.3      61.513
2014    9       25    12  18    6.30   626.9    3.3      61.521
2014    9       25    12  23    6.29   626.9    3.3      61.529
2014    9       25    12  28    6.29   626.9    3.3      61.536
2014    9       25    12  34    6.29   626.9    3.3      61.542
2014    9       25    12  39    6.29   627.0    3.3      61.547
2014    9       25    12  44    6.29   627.0    3.3      61.551
2014    9       25    12  50    6.28   627.0    3.3      61.555
2014    9       25    12  55    6.28   627.0    3.3      61.557
2014    9       25    13   0    6.28   627.1    3.3      61.558
2014    9       25    13   5    6.28   627.1    3.3      61.559
2014    9       25    13  11    6.27   627.1    3.3      61.558
2014    9       25    13  16    6.27   627.1    3.3      61.557
2014    9       25    13  21    6.27   627.2    3.3      61.555
2014    9       25    13  27    6.27   627.2    3.3      61.552
2014    9       25    13  32    6.27   627.2    3.3      61.548
2014    9       25    13  37    6.26   627.2    3.3      61.544
2014    9       25    13  42    6.26   627.3    3.3      61.539
2014    9       25    13  48    6.26   627.3    3.3      61.533
2014    9       25    13  53    6.26   627.3    3.3      61.527
2014    9       25    13  58    6.25   627.3    3.3      61.520
2014    9       25    14   4    6.25   627.4    3.3      61.512
2014    9       25    14   9    6.25   627.4    3.3      61.504
2014    9       25    14  14    6.25   627.4    3.3      61.495
2014    9       25    14  20    6.25   627.4    3.3      61.486
2014    9       25    14  25    6.24   627.4    3.3      61.476
2014    9       25    14  30    6.24   627.5    3.3      61.466
2014    9       25    14  35    6.24   627.5    3.3      61.455
2014    9       25    14  41    6.24   627.5    3.3      61.444
2014    9       25    14  46    6.23   627.5    3.3      61.433
2014    9       25    14  51    6.23   627.5    3.3      61.421
2014    9       25    14  57    6.23   627.6    3.3      61.408
2014    9       25    15   2    6.23   627.6    3.3      61.395
2014    9       25    15   7    6.23   627.6    3.3      61.382
2014    9       25    15  12    6.22   627.6    3.3      61.368
2014    9       25    15  18    6.22   627.6    3.3      61.354
2014    9       25    15  23    6.22   627.7    3.3      61.340
2014    9       25    15  28    6.22   627.7    3.3      61.325
2014    9       25    15  34    6.21   627.7    3.3      61.310
2014    9       25    15  39    6.21   627.7    3.3      61.295
2014    9       25    15  44    6.21   627.7    3.3      61.279
2014    9       25    15  49    6.21   627.7    3.2      61.264
2014    9       25    15  55    6.20   627.8    3.2      61.248
2014    9       25    16   0    6.20   627.8    3.2      61.232
2014    9       25    16   5    6.20   627.8    3.2      61.216
2014    9       25    16  11    6.20   627.8    3.2      61.200
2014    9       25    16  16    6.19   627.8    3.2      61.184
2014    9       25    16  21    6.19   627.8    3.2      61.169
2014    9       25    16  26    6.19   627.8    3.2      61.153
2014    9       25    16  32    6.19   627.8    3.2      61.138
2014    9       25    16  37    6.19   627.8    3.2      61.123
2014    9       25    16  42    6.18   627.9    3.2      61.108
2014    9       25    16  48    6.18   627.9    3.2      61.094
2014    9       25    16  53    6.18   627.9    3.2      61.080
2014    9       25    16  58    6.18   627.9    3.2      61.067
2014    9       25    17   4    6.17   627.9    3.2      61.054
2014    9       25    17   9    6.17   627.9    3.2      61.041
2014    9       25    17  14    6.17   627.9    3.2      61.030
2014    9       25    17  19    6.17   627.9    3.2      61.018
2014    9       25    17  25    6.16   627.9    3.2      61.008
2014    9       25    17  30    6.16   627.9    3.2      60.998
2014    9       25    17  35    6.16   627.9    3.2      60.988
2014    9       25    17  41    6.16   627.9    3.2      60.980
2014    9       25    17  46    6.15   627.9    3.2      60.971
2014    9       25    17  51    6.15   627.9    3.2      60.964
2014    9       25    17  56    6.15   627.9    3.2      60.957
2014    9       25    18   2    6.15   627.9    3.2      60.950
2014    9       25    18   7    6.14   627.9    3.2      60.944
2014    9       25    18  12    6.14   627.9    3.2      60.939
2014    9       25    18  18    6.14   627.9    3.2      60.934
2014    9       25    18  23    6.14   627.9    3.2      60.929
2014    9       25    18  28    6.13   627.9    3.2      60.925
2014    9       25    18  33    6.13   627.9    3.2      60.921
2014    9       25    18  39    6.13   627.9    3.2      60.918
2014    9       25    18  44    6.13   627.9    3.2      60.915
2014    9       25    18  49    6.13   627.9    3.2      60.913
2014    9       25    18  55    6.12   627.9    3.2      60.910
2014    9       25    19   0    6.12   627.9    3.2      60.908
2014    9       25    19   5    6.12   627.9    3.2      60.907
2014    9       25    19  11    6.12   627.9    3.2      60.905
2014    9       25    19  16    6.11   627.8    3.2      60.904
2014    9       25    19  21    6.11   627.8    3.2      60.903
2014    9       25    19  26    6.11   627.8    3.2      60.902
2014    9       25    19  32    6.11   627.8    3.2      60.901
2014    9       25    19  37    6.10   627.8    3.2      60.901
2014    9       25    19  42    6.10   627.8    3.2      60.900
2014    9       25    19  48    6.10   627.7    3.2      60.899
2014    9       25    19  53    6.10   627.7    3.2      60.898
2014    9       25    19  58    6.10   627.7    3.2      60.897
2014    9       25    20   3    6.09   627.7    3.2      60.895
2014    9       25    20   9    6.09   627.6    3.2      60.894
2014    9       25    20  14    6.09   627.6    3.2      60.893
2014    9       25    20  19    6.09   627.6    3.2      60.891
2014    9       25    20  25    6.08   627.6    3.2      60.889
2014    9       25    20  30    6.08   627.6    3.2      60.888
2014    9       25    20  35    6.08   627.5    3.2      60.886
2014    9       25    20  40    6.08   627.5    3.2      60.884
2014    9       25    20  46    6.08   627.5    3.2      60.882
2014    9       25    20  51    6.07   627.5    3.2      60.878
2014    9       25    20  56    6.07   627.4    3.2      60.875
2014    9       25    21   2    6.07   627.4    3.2      60.870
2014    9       25    21   7    6.07   627.4    3.2      60.866
2014    9       25    21  12    6.07   627.4    3.2      60.860
2014    9       25    21  17    6.06   627.4    3.2      60.854
2014    9       25    21  23    6.06   627.3    3.2      60.848
2014    9       25    21  28    6.06   627.3    3.2      60.840
2014    9       25    21  33    6.06   627.3    3.2      60.832
2014    9       25    21  39    6.06   627.3    3.2      60.823
2014    9       25    21  44    6.05   627.3    3.2      60.814
2014    9       25    21  49    6.05   627.2    3.2      60.803
2014    9       25    21  54    6.05   627.2    3.2      60.792
2014    9       25    22   0    6.05   627.2    3.2      60.781
2014    9       25    22   5    6.05   627.2    3.2      60.768
2014    9       25    22  10    6.04   627.2    3.2      60.756
2014    9       25    22  16    6.04   627.1    3.2      60.742
2014    9       25    22  21    6.04   627.1    3.2      60.728
2014    9       25    22  26    6.04   627.1    3.2      60.714
2014    9       25    22  32    6.04   627.1    3.2      60.699
2014    9       25    22  37    6.03   627.1    3.2      60.684
2014    9       25    22  42    6.03   627.0    3.2      60.668
2014    9       25    22  47    6.03   627.0    3.2      60.651
2014    9       25    22  53    6.03   627.0    3.2      60.635
2014    9       25    22  58    6.02   627.0    3.2      60.617
2014    9       25    23   3    6.02   627.0    3.2      60.600
2014    9       25    23   9    6.02   627.0    3.2      60.582
2014    9       25    23  14    6.02   626.9    3.2      60.564
2014    9       25    23  19    6.02   626.9    3.2      60.545
2014    9       25    23  24    6.01   626.9    3.2      60.526
2014    9       25    23  30    6.01   626.9    3.2      60.508
2014    9       25    23  35    6.01   626.9    3.2      60.488
2014    9       25    23  40    6.01   626.8    3.2      60.469
2014    9       25    23  46    6.00   626.8    3.2      60.449
2014    9       25    23  51    6.00   626.8    3.2      60.429
2014    9       25    23  56    6.00   626.8    3.2      60.409
2014    9       26     0   1    6.00   626.8    3.2      60.389
2014    9       26     0   7    5.99   626.7    3.2      60.369
2014    9       26     0  12    5.99   626.7    3.1      60.349
2014    9       26     0  17    5.99   626.7    3.1      60.329
2014    9       26     0  23    5.99   626.7    3.1      60.309
2014    9       26     0  28    5.98   626.6    3.1      60.290
2014    9       26     0  33    5.98   626.6    3.1      60.270
2014    9       26     0  39    5.98   626.6    3.1      60.251
2014    9       26     0  44    5.98   626.5    3.1      60.233
2014    9       26     0  49    5.97   626.5    3.1      60.214
2014    9       26     0  54    5.97   626.5    3.1      60.196
2014    9       26     1   0    5.97   626.5    3.1      60.179
2014    9       26     1   5    5.97   626.4    3.1      60.162
2014    9       26     1  10    5.96   626.4    3.1      60.146
2014    9       26     1  16    5.96   626.3    3.1      60.130
2014    9       26     1  21    5.96   626.3    3.1      60.115
2014    9       26     1  26    5.96   626.3    3.1      60.101
2014    9       26     1  31    5.96   626.2    3.1      60.088
2014    9       26     1  37    5.95   626.2    3.1      60.075
2014    9       26     1  42    5.95   626.1    3.1      60.063
2014    9       26     1  47    5.95   626.1    3.1      60.052
2014    9       26     1  53    5.95   626.0    3.1      60.042
2014    9       26     1  58    5.94   626.0    3.1      60.032
2014    9       26     2   3    5.94   626.0    3.1      60.024
2014    9       26     2   8    5.94   625.9    3.1      60.017
2014    9       26     2  14    5.94   625.9    3.1      60.011
2014    9       26     2  19    5.93   625.8    3.1      60.005
2014    9       26     2  24    5.93   625.8    3.1      60.000
2014    9       26     2  30    5.93   625.7    3.1      59.996
2014    9       26     2  35    5.93   625.7    3.1      59.994
2014    9       26     2  40    5.93   625.6    3.1      59.992
2014    9       26     2  45    5.92   625.6    3.1      59.991
2014    9       26     2  51    5.92   625.5    3.1      59.991
2014    9       26     2  56    5.92   625.4    3.1      59.991
2014    9       26     3   1    5.92   625.4    3.1      59.992
2014    9       26     3   7    5.91   625.3    3.1      59.992
2014    9       26     3  12    5.91   625.3    3.1      59.992
2014    9       26     3  17    5.91   625.2    3.1      59.992
2014    9       26     3  23    5.91   625.2    3.1      59.992
2014    9       26     3  28    5.91   625.1    3.1      59.991
2014    9       26     3  33    5.90   625.1    3.1      59.990
2014    9       26     3  38    5.90   625.0    3.1      59.987
2014    9       26     3  44    5.90   625.0    3.1      59.984
2014    9       26     3  49    5.90   624.9    3.1      59.980
2014    9       26     3  54    5.90   624.9    3.1      59.975
2014    9       26     4   0    5.89   624.8    3.1      59.969
2014    9       26     4   5    5.89   624.8    3.1      59.962
2014    9       26     4  10    5.89   624.7    3.1      59.954
2014    9       26     4  15    5.89   624.7    3.1      59.945
2014    9       26     4  21    5.88   624.6    3.1      59.935
2014    9       26     4  26    5.88   624.5    3.1      59.924
2014    9       26     4  31    5.88   624.5    3.1      59.912
2014    9       26     4  37    5.88   624.4    3.1      59.898
2014    9       26     4  42    5.88   624.4    3.1      59.884
2014    9       26     4  47    5.87   624.3    3.1      59.868
2014    9       26     4  52    5.87   624.3    3.1      59.852
2014    9       26     4  58    5.87   624.2    3.1      59.835
2014    9       26     5   3    5.87   624.1    3.1      59.817
2014    9       26     5   8    5.86   624.1    3.1      59.798
2014    9       26     5  14    5.86   624.0    3.1      59.778
2014    9       26     5  19    5.86   624.0    3.1      59.758
2014    9       26     5  24    5.86   623.9    3.1      59.737
2014    9       26     5  29    5.85   623.8    3.1      59.715
2014    9       26     5  35    5.85   623.8    3.1      59.692
2014    9       26     5  40    5.85   623.7    3.1      59.669
2014    9       26     5  45    5.85   623.6    3.1      59.645
2014    9       26     5  51    5.85   623.6    3.1      59.620
2014    9       26     5  56    5.84   623.5    3.1      59.595
2014    9       26     6   1    5.84   623.4    3.1      59.569
2014    9       26     6   6    5.84   623.4    3.1      59.542
2014    9       26     6  12    5.84   623.3    3.1      59.515
2014    9       26     6  17    5.83   623.2    3.1      59.487
2014    9       26     6  22    5.83   623.2    3.1      59.459
2014    9       26     6  28    5.83   623.1    3.1      59.430
2014    9       26     6  33    5.83   623.0    3.1      59.401
2014    9       26     6  38    5.82   622.9    3.1      59.371
2014    9       26     6  44    5.82   622.9    3.1      59.341
2014    9       26     6  49    5.82   622.8    3.1      59.310
2014    9       26     6  54    5.82   622.7    3.1      59.279
2014    9       26     6  59    5.81   622.6    3.1      59.248
2014    9       26     7   5    5.81   622.6    3.1      59.216
2014    9       26     7  10    5.81   622.5    3.1      59.184
2014    9       26     7  15    5.81   622.4    3.1      59.151
2014    9       26     7  21    5.81   622.3    3.1      59.119
2014    9       26     7  26    5.80   622.2    3.1      59.087
2014    9       26     7  31    5.80   622.1    3.1      59.055
2014    9       26     7  36    5.80   622.0    3.1      59.023
2014    9       26     7  42    5.80   622.0    3.1      58.991
2014    9       26     7  47    5.79   621.9    3.1      58.960
2014    9       26     7  52    5.79   621.8    3.1      58.930
2014    9       26     7  58    5.79   621.7    3.1      58.901
2014    9       26     8   3    5.79   621.6    3.1      58.872
2014    9       26     8   8    5.78   621.5    3.1      58.845
2014    9       26     8  13    5.78   621.4    3.1      58.818
2014    9       26     8  19    5.78   621.3    3.1      58.793
2014    9       26     8  24    5.78   621.2    3.1      58.769
2014    9       26     8  29    5.78   621.1    3.1      58.747
2014    9       26     8  35    5.77   621.0    3.1      58.725
2014    9       26     8  40    5.77   621.0    3.1      58.706
2014    9       26     8  45    5.77   620.9    3.1      58.687
2014    9       26     8  50    5.77   620.8    3.1      58.670
2014    9       26     8  56    5.77   620.7    3.1      58.655
2014    9       26     9   1    5.76   620.6    3.1      58.641
2014    9       26     9   6    5.76   620.5    3.1      58.628
2014    9       26     9  12    5.76   620.5    3.1      58.616
2014    9       26     9  17    5.76   620.4    3.1      58.605
2014    9       26     9  22    5.75   620.3    3.1      58.595
2014    9       26     9  28    5.75   620.2    3.1      58.586
2014    9       26     9  33    5.75   620.1    3.1      58.578
2014    9       26     9  38    5.75   620.0    3.1      58.570
2014    9       26     9  43    5.74   619.9    3.1      58.562
2014    9       26     9  49    5.74   619.9    3.1      58.555
2014    9       26     9  54    5.74   619.8    3.1      58.547
2014    9       26     9  59    5.74   619.7    3.1      58.539
2014    9       26    10   5    5.74   619.6    3.1      58.530
2014    9       26    10  10    5.73   619.5    3.1      58.520
2014    9       26    10  15    5.73   619.4    3.1      58.509
2014    9       26    10  20    5.73   619.3    3.1      58.498
2014    9       26    10  26    5.73   619.2    3.1      58.485
2014    9       26    10  31    5.72   619.2    3.1      58.472
2014    9       26    10  36    5.72   619.1    3.1      58.458
2014    9       26    10  42    5.72   619.0    3.1      58.443
2014    9       26    10  47    5.72   618.9    3.1      58.428
2014    9       26    10  52    5.71   618.8    3.1      58.411
2014    9       26    10  57    5.71   618.7    3.1      58.395
2014    9       26    11   3    5.71   618.6    3.1      58.377
2014    9       26    11   8    5.70   618.5    3.1      58.359
2014    9       26    11  13    5.70   618.4    3.1      58.340
2014    9       26    11  19    5.70   618.3    3.1      58.321
2014    9       26    11  24    5.70   618.2    3.1      58.302
2014    9       26    11  29    5.69   618.1    3.1      58.282
2014    9       26    11  34    5.69   618.0    3.1      58.262
2014    9       26    11  40    5.69   617.8    3.1      58.242
2014    9       26    11  45    5.69   617.7    3.1      58.221
2014    9       26    11  50    5.68   617.6    3.1      58.201
2014    9       26    11  56    5.68   617.5    3.1      58.181
2014    9       26    12   1    5.68   617.4    3.1      58.160
2014    9       26    12   6    5.68   617.3    3.1      58.140
2014    9       26    12  11    5.68   617.2    3.1      58.120
2014    9       26    12  17    5.67   617.1    3.1      58.100
2014    9       26    12  22    5.67   616.9    3.1      58.081
2014    9       26    12  27    5.67   616.8    3.1      58.061
2014    9       26    12  33    5.67   616.7    3.1      58.043
2014    9       26    12  38    5.66   616.6    3.1      58.025
2014    9       26    12  43    5.66   616.5    3.1      58.007
2014    9       26    12  49    5.66   616.4    3.1      57.991
2014    9       26    12  54    5.66   616.2    3.1      57.974
2014    9       26    12  59    5.66   616.1    3.1      57.958
2014    9       26    13   4    5.65   616.0    3.1      57.943
2014    9       26    13  10    5.65   615.9    3.1      57.929
2014    9       26    13  15    5.65   615.8    3.1      57.915
2014    9       26    13  20    5.65   615.7    3.1      57.902
2014    9       26    13  26    5.65   615.5    3.1      57.889
2014    9       26    13  31    5.64   615.4    3.1      57.876
2014    9       26    13  36    5.64   615.3    3.1      57.861
2014    9       26    13  41    5.64   615.2    3.1      57.846
2014    9       26    13  47    5.64   615.1    3.1      57.830
2014    9       26    13  52    5.64   615.0    3.1      57.812
2014    9       26    13  57    5.63   614.9    3.1      57.794
2014    9       26    14   3    5.63   614.8    3.1      57.775
2014    9       26    14   8    5.63   614.7    3.1      57.755
2014    9       26    14  13    5.63   614.6    3.1      57.734
2014    9       26    14  18    5.63   614.5    3.1      57.712
2014    9       26    14  24    5.62   614.4    3.1      57.689
2014    9       26    14  29    5.62   614.3    3.1      57.665
2014    9       26    14  34    5.62   614.1    3.1      57.640
2014    9       26    14  40    5.62   614.0    3.1      57.614
2014    9       26    14  45    5.61   613.9    3.1      57.588
2014    9       26    14  50    5.61   613.8    3.1      57.560
2014    9       26    14  55    5.61   613.7    3.1      57.533
2014    9       26    15   1    5.61   613.6    3.1      57.505
2014    9       26    15   6    5.61   613.5    3.1      57.476
2014    9       26    15  11    5.60   613.3    3.1      57.448
2014    9       26    15  17    5.60   613.2    3.1      57.419
2014    9       26    15  22    5.60   613.1    3.1      57.391
2014    9       26    15  27    5.60   613.0    3.1      57.362
2014    9       26    15  33    5.59   612.8    3.0      57.333
2014    9       26    15  38    5.59   612.7    3.0      57.304
2014    9       26    15  43    5.59   612.6    3.0      57.275
2014    9       26    15  48    5.59   612.5    3.0      57.247
2014    9       26    15  54    5.58   612.3    3.0      57.218
2014    9       26    15  59    5.58   612.2    3.0      57.189
2014    9       26    16   4    5.58   612.1    3.0      57.160
2014    9       26    16  10    5.58   612.0    3.0      57.130
2014    9       26    16  15    5.58   611.8    3.0      57.100
2014    9       26    16  20    5.57   611.7    3.0      57.070
2014    9       26    16  25    5.57   611.6    3.0      57.040
2014    9       26    16  31    5.57   611.4    3.0      57.010
2014    9       26    16  36    5.57   611.3    3.0      56.979
2014    9       26    16  41    5.56   611.2    3.0      56.947
2014    9       26    16  47    5.56   611.0    3.0      56.916
2014    9       26    16  52    5.56   610.9    3.0      56.884
2014    9       26    16  57    5.55   610.7    3.0      56.851
2014    9       26    17   2    5.55   610.6    3.0      56.819
2014    9       26    17   8    5.55   610.4    3.0      56.786
2014    9       26    17  13    5.55   610.3    3.0      56.753
2014    9       26    17  18    5.54   610.1    3.0      56.720
2014    9       26    17  24    5.54   610.0    3.0      56.687
2014    9       26    17  29    5.54   609.8    3.0      56.654
2014    9       26    17  34    5.54   609.7    3.0      56.622
2014    9       26    17  39    5.53   609.5    3.0      56.589
2014    9       26    17  45    5.53   609.4    3.0      56.556
2014    9       26    17  50    5.53   609.2    3.0      56.524
2014    9       26    17  55    5.53   609.1    3.0      56.492
2014    9       26    18   1    5.52   608.9    3.0      56.461
2014    9       26    18   6    5.52   608.8    3.0      56.429
2014    9       26    18  11    5.52   608.6    3.0      56.399
2014    9       26    18  16    5.52   608.5    3.0      56.368
2014    9       26    18  22    5.52   608.3    3.0      56.339
2014    9       26    18  27    5.51   608.2    3.0      56.310
2014    9       26    18  32    5.51   608.0    3.0      56.282
2014    9       26    18  38    5.51   607.9    3.0      56.254
2014    9       26    18  43    5.51   607.7    3.0      56.227
2014    9       26    18  48    5.50   607.6    3.0      56.202
2014    9       26    18  54    5.50   607.4    3.0      56.177
2014    9       26    18  59    5.50   607.3    3.0      56.153
2014    9       26    19   4    5.50   607.1    3.0      56.130
2014    9       26    19   9    5.50   607.0    3.0      56.108
2014    9       26    19  15    5.49   606.8    3.0      56.087
2014    9       26    19  20    5.49   606.7    3.0      56.068
2014    9       26    19  25    5.49   606.5    3.0      56.049
2014    9       26    19  31    5.49   606.4    3.0      56.032
2014    9       26    19  36    5.48   606.2    3.0      56.017
2014    9       26    19  41    5.48   606.1    3.0      56.002
2014    9       26    19  46    5.48   605.9    3.0      55.989
2014    9       26    19  52    5.48   605.8    3.0      55.977
2014    9       26    19  57    5.48   605.7    3.0      55.966
2014    9       26    20   2    5.47   605.5    3.0      55.957
2014    9       26    20   8    5.47   605.4    3.0      55.948
2014    9       26    20  13    5.47   605.2    3.0      55.940
2014    9       26    20  18    5.47   605.1    3.0      55.933
2014    9       26    20  23    5.47   605.0    3.0      55.925
2014    9       26    20  29    5.46   604.8    3.0      55.916
2014    9       26    20  34    5.46   604.7    3.0      55.907
2014    9       26    20  39    5.46   604.6    3.0      55.898
2014    9       26    20  45    5.46   604.4    3.0      55.888
2014    9       26    20  50    5.46   604.3    3.0      55.878
2014    9       26    20  55    5.45   604.2    3.0      55.867
2014    9       26    21   0    5.45   604.0    3.0      55.856
2014    9       26    21   6    5.45   603.9    3.0      55.844
2014    9       26    21  11    5.45   603.8    3.0      55.832
2014    9       26    21  16    5.45   603.6    3.0      55.819
2014    9       26    21  22    5.44   603.5    3.0      55.805
2014    9       26    21  27    5.44   603.3    3.0      55.790
2014    9       26    21  32    5.44   603.2    3.0      55.775
2014    9       26    21  37    5.44   603.0    3.0      55.759
2014    9       26    21  43    5.43   602.9    3.0      55.742
2014    9       26    21  48    5.43   602.7    3.0      55.725
2014    9       26    21  53    5.43   602.6    3.0      55.707
2014    9       26    21  59    5.43   602.4    3.0      55.689
2014    9       26    22   4    5.43   602.3    3.0      55.670
2014    9       26    22   9    5.42   602.1    3.0      55.651
2014    9       26    22  15    5.42   602.0    3.0      55.631
2014    9       26    22  20    5.42   601.8    3.0      55.611
2014    9       26    22  25    5.42   601.7    3.0      55.590
2014    9       26    22  30    5.42   601.5    3.0      55.569
2014    9       26    22  36    5.41   601.3    3.0      55.547
2014    9       26    22  41    5.41   601.2    3.0      55.525
2014    9       26    22  46    5.41   601.0    3.0      55.503
2014    9       26    22  52    5.41   600.9    3.0      55.481
2014    9       26    22  57    5.41   600.7    3.0      55.458
2014    9       26    23   2    5.40   600.5    3.0      55.435
2014    9       26    23   7    5.40   600.4    3.0      55.413
2014    9       26    23  13    5.40   600.2    3.0      55.391
2014    9       26    23  18    5.40   600.0    3.0      55.368
2014    9       26    23  23    5.40   599.9    3.0      55.347
2014    9       26    23  29    5.39   599.7    3.0      55.326
2014    9       26    23  34    5.39   599.6    3.0      55.304
2014    9       26    23  39    5.39   599.4    3.0      55.282
2014    9       26    23  44    5.39   599.3    3.0      55.260
2014    9       26    23  50    5.39   599.1    3.0      55.237
2014    9       26    23  55    5.38   599.0    3.0      55.213
2014    9       27     0   0    5.38   598.8    3.0      55.190
2014    9       27     0   6    5.38   598.6    3.0      55.165
2014    9       27     0  11    5.38   598.5    3.0      55.141
2014    9       27     0  16    5.38   598.3    3.0      55.116
2014    9       27     0  21    5.38   598.2    3.0      55.090
2014    9       27     0  27    5.37   598.0    3.0      55.065
2014    9       27     0  32    5.37   597.9    3.0      55.038
2014    9       27     0  37    5.37   597.7    3.0      55.012
2014    9       27     0  43    5.37   597.6    3.0      54.984
2014    9       27     0  48    5.37   597.4    3.0      54.956
2014    9       27     0  53    5.36   597.3    3.0      54.927
2014    9       27     0  58    5.36   597.1    3.0      54.898
2014    9       27     1   4    5.36   597.0    3.0      54.868
2014    9       27     1   9    5.36   596.8    3.0      54.838
2014    9       27     1  14    5.36   596.7    3.0      54.807
2014    9       27     1  20    5.35   596.5    3.0      54.776
2014    9       27     1  25    5.35   596.4    3.0      54.745
2014    9       27     1  30    5.35   596.2    3.0      54.713
2014    9       27     1  36    5.35   596.1    3.0      54.681
2014    9       27     1  41    5.35   595.9    3.0      54.649
2014    9       27     1  46    5.35   595.7    3.0      54.616
2014    9       27     1  51    5.34   595.6    3.0      54.583
2014    9       27     1  57    5.34   595.4    3.0      54.550
2014    9       27     2   2    5.34   595.3    3.0      54.517
2014    9       27     2   7    5.34   595.1    3.0      54.484
2014    9       27     2  13    5.34   594.9    3.0      54.451
2014    9       27     2  18    5.33   594.8    3.0      54.417
2014    9       27     2  23    5.33   594.6    3.0      54.384
2014    9       27     2  28    5.33   594.4    3.0      54.350
2014    9       27     2  34    5.33   594.3    3.0      54.316
2014    9       27     2  39    5.33   594.1    3.0      54.282
2014    9       27     2  44    5.32   593.9    3.0      54.247
2014    9       27     2  50    5.32   593.8    3.0      54.213
2014    9       27     2  55    5.32   593.6    3.0      54.178
2014    9       27     3   0    5.32   593.4    3.0      54.144
2014    9       27     3   5    5.32   593.2    3.0      54.109
2014    9       27     3  11    5.31   593.0    3.0      54.075
2014    9       27     3  16    5.31   592.9    3.0      54.040
2014    9       27     3  21    5.31   592.7    3.0      54.006
2014    9       27     3  27    5.31   592.5    3.0      53.971
2014    9       27     3  32    5.31   592.3    3.0      53.937
2014    9       27     3  37    5.30   592.1    3.0      53.903
2014    9       27     3  42    5.30   591.9    3.0      53.870
2014    9       27     3  48    5.30   591.7    3.0      53.836
2014    9       27     3  53    5.30   591.5    3.0      53.803
2014    9       27     3  58    5.29   591.3    3.0      53.771
2014    9       27     4   4    5.29   591.1    3.0      53.739
2014    9       27     4   9    5.29   590.9    3.0      53.708
2014    9       27     4  14    5.29   590.7    3.0      53.677
2014    9       27     4  19    5.29   590.5    3.0      53.647
2014    9       27     4  25    5.28   590.3    3.0      53.617
2014    9       27     4  30    5.28   590.1    3.0      53.588
2014    9       27     4  35    5.28   589.9    3.0      53.560
2014    9       27     4  41    5.28   589.7    3.0      53.533
2014    9       27     4  46    5.28   589.5    3.0      53.506
2014    9       27     4  51    5.27   589.3    3.0      53.481
2014    9       27     4  56    5.27   589.1    3.0      53.456
2014    9       27     5   2    5.27   588.9    3.0      53.432
2014    9       27     5   7    5.27   588.7    3.0      53.409
2014    9       27     5  12    5.27   588.5    3.0      53.387
2014    9       27     5  18    5.27   588.3    3.0      53.366
2014    9       27     5  23    5.26   588.1    3.0      53.346
2014    9       27     5  28    5.26   588.0    3.0      53.327
2014    9       27     5  34    5.26   587.8    3.0      53.309
2014    9       27     5  39    5.26   587.6    3.0      53.292
2014    9       27     5  44    5.26   587.4    3.0      53.276
2014    9       27     5  49    5.26   587.2    3.0      53.260
2014    9       27     5  55    5.25   587.0    3.0      53.245
2014    9       27     6   0    5.25   586.8    3.0      53.230
2014    9       27     6   5    5.25   586.7    3.0      53.216
2014    9       27     6  11    5.25   586.5    3.0      53.203
2014    9       27     6  16    5.25   586.3    3.0      53.190
2014    9       27     6  21    5.25   586.1    3.0      53.177
2014    9       27     6  26    5.24   585.9    3.0      53.165
2014    9       27     6  32    5.24   585.8    3.0      53.153
2014    9       27     6  37    5.24   585.6    3.0      53.141
2014    9       27     6  42    5.24   585.4    3.0      53.130
2014    9       27     6  48    5.24   585.3    3.0      53.119
2014    9       27     6  53    5.23   585.1    3.1      53.108
2014    9       27     6  58    5.23   584.9    3.1      53.097
2014    9       27     7   3    5.23   584.7    3.1      53.086
2014    9       27     7   9    5.23   584.6    3.1      53.075
2014    9       27     7  14    5.23   584.4    3.1      53.064
2014    9       27     7  19    5.23   584.2    3.1      53.052
2014    9       27     7  25    5.22   584.1    3.1      53.040
2014    9       27     7  30    5.22   583.9    3.1      53.027
2014    9       27     7  35    5.22   583.7    3.1      53.014
2014    9       27     7  40    5.22   583.5    3.1      52.999
2014    9       27     7  46    5.22   583.3    3.1      52.985
2014    9       27     7  51    5.21   583.2    3.1      52.969
2014    9       27     7  56    5.21   583.0    3.1      52.953
2014    9       27     8   2    5.21   582.8    3.1      52.937
2014    9       27     8   7    5.21   582.6    3.1      52.919
2014    9       27     8  12    5.21   582.4    3.1      52.902
2014    9       27     8  17    5.20   582.3    3.1      52.883
2014    9       27     8  23    5.20   582.1    3.1      52.865
2014    9       27     8  28    5.20   581.9    3.1      52.845
2014    9       27     8  33    5.20   581.7    3.1      52.826
2014    9       27     8  39    5.20   581.5    3.1      52.805
2014    9       27     8  44    5.19   581.3    3.1      52.784
2014    9       27     8  49    5.19   581.1    3.1      52.762
2014    9       27     8  55    5.19   581.0    3.1      52.740
2014    9       27     9   0    5.19   580.8    3.1      52.717
2014    9       27     9   5    5.19   580.6    3.1      52.693
2014    9       27     9  10    5.18   580.4    3.1      52.669
2014    9       27     9  16    5.18   580.2    3.1      52.644
2014    9       27     9  21    5.18   580.0    3.1      52.618
2014    9       27     9  26    5.18   579.8    3.1      52.592
2014    9       27     9  32    5.18   579.7    3.1      52.565
2014    9       27     9  37    5.17   579.5    3.1      52.537
2014    9       27     9  42    5.17   579.3    3.1      52.508
2014    9       27     9  47    5.17   579.1    3.1      52.479
2014    9       27     9  53    5.17   578.9    3.1      52.450
2014    9       27     9  58    5.17   578.7    3.1      52.420
2014    9       27    10   3    5.16   578.5    3.1      52.389
2014    9       27    10   9    5.16   578.3    3.1      52.358
2014    9       27    10  14    5.16   578.1    3.1      52.326
2014    9       27    10  19    5.16   577.9    3.1      52.294
2014    9       27    10  24    5.16   577.7    3.1      52.261
2014    9       27    10  30    5.16   577.6    3.1      52.229
2014    9       27    10  35    5.15   577.4    3.1      52.196
2014    9       27    10  40    5.15   577.2    3.1      52.162
2014    9       27    10  46    5.15   577.0    3.1      52.129
2014    9       27    10  51    5.15   576.8    3.1      52.095
2014    9       27    10  56    5.15   576.6    3.1      52.062
2014    9       27    11   1    5.14   576.4    3.1      52.028
2014    9       27    11   7    5.14   576.2    3.1      51.994
2014    9       27    11  12    5.14   576.0    3.1      51.961
2014    9       27    11  17    5.14   575.8    3.1      51.927
2014    9       27    11  23    5.14   575.6    3.1      51.894
2014    9       27    11  28    5.14   575.4    3.1      51.860
2014    9       27    11  33    5.13   575.2    3.1      51.827
2014    9       27    11  38    5.13   575.0    3.1      51.794
2014    9       27    11  44    5.13   574.8    3.1      51.761
2014    9       27    11  49    5.13   574.5    3.1      51.728
2014    9       27    11  54    5.13   574.3    3.1      51.696
2014    9       27    12   0    5.12   574.1    3.1      51.664
2014    9       27    12   5    5.12   573.9    3.1      51.633
2014    9       27    12  10    5.12   573.7    3.1      51.601
2014    9       27    12  16    5.12   573.5    3.1      51.571
2014    9       27    12  21    5.12   573.3    3.1      51.540
2014    9       27    12  26    5.12   573.1    3.1      51.510
2014    9       27    12  31    5.11   572.9    3.1      51.480
2014    9       27    12  37    5.11   572.7    3.1      51.451
2014    9       27    12  42    5.11   572.5    3.1      51.422
2014    9       27    12  47    5.11   572.3    3.1      51.394
2014    9       27    12  53    5.11   572.1    3.1      51.367
2014    9       27    12  58    5.11   571.9    3.1      51.339
2014    9       27    13   3    5.10   571.7    3.1      51.313
2014    9       27    13   8    5.10   571.5    3.1      51.286
2014    9       27    13  14    5.10   571.3    3.1      51.260
2014    9       27    13  19    5.10   571.1    3.1      51.235
2014    9       27    13  24    5.10   570.8    3.1      51.210
2014    9       27    13  30    5.10   570.6    3.1      51.186
2014    9       27    13  35    5.09   570.4    3.1      51.162
2014    9       27    13  40    5.09   570.2    3.1      51.138
2014    9       27    13  45    5.09   570.0    3.1      51.115
2014    9       27    13  51    5.09   569.8    3.1      51.093
2014    9       27    13  56    5.09   569.6    3.1      51.071
2014    9       27    14   1    5.09   569.4    3.1      51.049
2014    9       27    14   7    5.09   569.2    3.1      51.028
2014    9       27    14  12    5.08   569.0    3.1      51.007
2014    9       27    14  17    5.08   568.8    3.1      50.987
2014    9       27    14  22    5.08   568.5    3.1      50.968
2014    9       27    14  28    5.08   568.3    3.1      50.949
2014    9       27    14  33    5.08   568.1    3.1      50.931
2014    9       27    14  38    5.08   567.9    3.1      50.913
2014    9       27    14  44    5.08   567.7    3.1      50.896
2014    9       27    14  49    5.07   567.5    3.1      50.880
2014    9       27    14  54    5.07   567.3    3.1      50.864
2014    9       27    14  59    5.07   567.1    3.1      50.849
2014    9       27    15   5    5.07   566.9    3.1      50.835
2014    9       27    15  10    5.07   566.7    3.1      50.821
2014    9       27    15  15    5.07   566.5    3.1      50.807
2014    9       27    15  21    5.07   566.3    3.1      50.794
2014    9       27    15  26    5.06   566.1    3.1      50.781
2014    9       27    15  31    5.06   565.9    3.1      50.769
2014    9       27    15  36    5.06   565.7    3.1      50.756
2014    9       27    15  42    5.06   565.5    3.1      50.744
2014    9       27    15  47    5.06   565.2    3.1      50.732
2014    9       27    15  52    5.06   565.0    3.1      50.719
2014    9       27    15  58    5.06   564.8    3.1      50.707
2014    9       27    16   3    5.05   564.6    3.1      50.695
2014    9       27    16   8    5.05   564.4    3.1      50.682
2014    9       27    16  14    5.05   564.2    3.1      50.669
2014    9       27    16  19    5.05   564.0    3.1      50.656
2014    9       27    16  24    5.05   563.8    3.1      50.643
2014    9       27    16  29    5.05   563.6    3.1      50.630
2014    9       27    16  35    5.04   563.4    3.1      50.616
2014    9       27    16  40    5.04   563.1    3.1      50.603
2014    9       27    16  45    5.04   562.9    3.1      50.589
2014    9       27    16  51    5.04   562.7    3.1      50.575
2014    9       27    16  56    5.04   562.5    3.1      50.560
2014    9       27    17   1    5.04   562.3    3.1      50.546
2014    9       27    17   6    5.04   562.1    3.1      50.531
2014    9       27    17  12    5.03   561.8    3.1      50.517
2014    9       27    17  17    5.03   561.6    3.2      50.503
2014    9       27    17  22    5.03   561.4    3.2      50.489
2014    9       27    17  28    5.03   561.2    3.2      50.475
2014    9       27    17  33    5.03   561.0    3.2      50.462
2014    9       27    17  38    5.03   560.8    3.2      50.448
2014    9       27    17  43    5.03   560.6    3.2      50.435
2014    9       27    17  49    5.02   560.3    3.2      50.421
2014    9       27    17  54    5.02   560.1    3.2      50.407
2014    9       27    17  59    5.02   559.9    3.2      50.394
2014    9       27    18   5    5.02   559.7    3.2      50.381
2014    9       27    18  10    5.02   559.5    3.2      50.367
2014    9       27    18  15    5.02   559.3    3.2      50.354
2014    9       27    18  20    5.02   559.1    3.2      50.341
2014    9       27    18  26    5.02   558.9    3.2      50.328
2014    9       27    18  31    5.01   558.7    3.2      50.315
2014    9       27    18  36    5.01   558.5    3.2      50.303
2014    9       27    18  42    5.01   558.3    3.2      50.290
2014    9       27    18  47    5.01   558.1    3.2      50.277
2014    9       27    18  52    5.01   557.9    3.2      50.264
2014    9       27    18  57    5.01   557.7    3.2      50.251
2014    9       27    19   3    5.01   557.5    3.2      50.237
2014    9       27    19   8    5.01   557.3    3.2      50.224
2014    9       27    19  13    5.01   557.1    3.2      50.211
2014    9       27    19  19    5.00   556.9    3.2      50.198
2014    9       27    19  24    5.00   556.7    3.2      50.184
2014    9       27    19  29    5.00   556.5    3.2      50.170
2014    9       27    19  35    5.00   556.3    3.2      50.156
2014    9       27    19  40    5.00   556.1    3.2      50.142
2014    9       27    19  45    5.00   555.9    3.2      50.128
2014    9       27    19  50    5.00   555.7    3.2      50.113
2014    9       27    19  56    5.00   555.5    3.2      50.099
2014    9       27    20   1    4.99   555.3    3.2      50.084
2014    9       27    20   6    4.99   555.1    3.2      50.069
2014    9       27    20  12    4.99   554.9    3.2      50.054
2014    9       27    20  17    4.99   554.7    3.2      50.038
2014    9       27    20  22    4.99   554.5    3.2      50.022
2014    9       27    20  27    4.99   554.3    3.2      50.005
2014    9       27    20  33    4.99   554.1    3.2      49.988
2014    9       27    20  38    4.99   553.9    3.2      49.970
2014    9       27    20  43    4.98   553.7    3.2      49.951
2014    9       27    20  49    4.98   553.5    3.2      49.932
2014    9       27    20  54    4.98   553.3    3.2      49.913
2014    9       27    20  59    4.98   553.1    3.2      49.893
2014    9       27    21   4    4.98   552.9    3.2      49.872
2014    9       27    21  10    4.98   552.7    3.2      49.851
2014    9       27    21  15    4.98   552.5    3.2      49.830
2014    9       27    21  20    4.98   552.3    3.2      49.808
2014    9       27    21  26    4.97   552.1    3.2      49.786
2014    9       27    21  31    4.97   551.9    3.2      49.763
2014    9       27    21  36    4.97   551.7    3.2      49.741
2014    9       27    21  41    4.97   551.5    3.2      49.718
2014    9       27    21  47    4.97   551.3    3.2      49.695
2014    9       27    21  52    4.97   551.1    3.2      49.671
2014    9       27    21  57    4.97   550.9    3.2      49.648
2014    9       27    22   3    4.96   550.7    3.2      49.624
2014    9       27    22   8    4.96   550.5    3.2      49.601
2014    9       27    22  13    4.96   550.3    3.2      49.577
2014    9       27    22  18    4.96   550.1    3.2      49.553
2014    9       27    22  24    4.96   549.9    3.2      49.530
2014    9       27    22  29    4.96   549.7    3.2      49.506
2014    9       27    22  34    4.96   549.5    3.2      49.482
2014    9       27    22  40    4.96   549.3    3.2      49.459
2014    9       27    22  45    4.95   549.1    3.2      49.435
2014    9       27    22  50    4.95   548.9    3.2      49.412
2014    9       27    22  55    4.95   548.7    3.2      49.389
2014    9       27    23   1    4.95   548.5    3.2      49.366
2014    9       27    23   6    4.95   548.3    3.2      49.343
2014    9       27    23  11    4.95   548.0    3.2      49.320
2014    9       27    23  17    4.95   547.8    3.2      49.298
2014    9       27    23  22    4.94   547.6    3.2      49.276
2014    9       27    23  27    4.94   547.4    3.2      49.253
2014    9       27    23  33    4.94   547.2    3.3      49.232
2014    9       27    23  38    4.94   547.0    3.3      49.210
2014    9       27    23  43    4.94   546.8    3.3      49.189
2014    9       27    23  48    4.94   546.6    3.3      49.168
2014    9       27    23  54    4.94   546.4    3.3      49.147
2014    9       27    23  59    4.94   546.1    3.3      49.127
2014    9       28     0   4    4.94   545.9    3.3      49.106
2014    9       28     0  10    4.93   545.7    3.3      49.087
2014    9       28     0  15    4.93   545.5    3.3      49.067
2014    9       28     0  20    4.93   545.3    3.3      49.048
2014    9       28     0  25    4.93   545.1    3.3      49.030
2014    9       28     0  31    4.93   544.9    3.3      49.011
2014    9       28     0  36    4.93   544.7    3.3      48.993
2014    9       28     0  41    4.93   544.5    3.3      48.976
2014    9       28     0  47    4.93   544.3    3.3      48.959
2014    9       28     0  52    4.93   544.0    3.3      48.942
2014    9       28     0  57    4.93   543.8    3.3      48.926
2014    9       28     1   2    4.92   543.6    3.3      48.910
2014    9       28     1   8    4.92   543.4    3.3      48.894
2014    9       28     1  13    4.92   543.2    3.3      48.879
2014    9       28     1  18    4.92   543.0    3.3      48.864
2014    9       28     1  24    4.92   542.8    3.3      48.850
2014    9       28     1  29    4.92   542.6    3.3      48.837
2014    9       28     1  34    4.92   542.4    3.3      48.825
2014    9       28     1  39    4.92   542.2    3.3      48.813
2014    9       28     1  45    4.92   542.0    3.3      48.802
2014    9       28     1  50    4.92   541.7    3.3      48.791
2014    9       28     1  55    4.92   541.5    3.3      48.781
2014    9       28     2   1    4.92   541.3    3.3      48.770
2014    9       28     2   6    4.91   541.1    3.3      48.760
2014    9       28     2  11    4.91   540.9    3.3      48.750
2014    9       28     2  16    4.91   540.7    3.3      48.740
2014    9       28     2  22    4.91   540.5    3.3      48.730
2014    9       28     2  27    4.91   540.3    3.3      48.720
2014    9       28     2  32    4.91   540.1    3.3      48.710
2014    9       28     2  38    4.91   539.9    3.3      48.701
2014    9       28     2  43    4.91   539.7    3.3      48.692
2014    9       28     2  48    4.91   539.5    3.3      48.682
2014    9       28     2  53    4.91   539.3    3.3      48.673
2014    9       28     2  59    4.91   539.1    3.3      48.664
2014    9       28     3   4    4.91   538.9    3.3      48.655
2014    9       28     3   9    4.91   538.7    3.3      48.646
2014    9       28     3  15    4.91   538.5    3.3      48.637
2014    9       28     3  20    4.91   538.4    3.3      48.627
2014    9       28     3  25    4.90   538.2    3.3      48.618
2014    9       28     3  31    4.90   538.0    3.3      48.609
2014    9       28     3  36    4.90   537.8    3.4      48.599
2014    9       28     3  41    4.90   537.6    3.4      48.590
2014    9       28     3  46    4.90   537.4    3.4      48.579
2014    9       28     3  52    4.90   537.2    3.4      48.569
2014    9       28     3  57    4.90   537.0    3.4      48.557
2014    9       28     4   2    4.90   536.8    3.4      48.546
2014    9       28     4   8    4.90   536.7    3.4      48.534
2014    9       28     4  13    4.90   536.5    3.4      48.522
2014    9       28     4  18    4.90   536.3    3.4      48.510
2014    9       28     4  23    4.90   536.1    3.4      48.497
2014    9       28     4  29    4.89   535.9    3.4      48.484
2014    9       28     4  34    4.89   535.7    3.4      48.470
2014    9       28     4  39    4.89   535.5    3.4      48.457
2014    9       28     4  45    4.89   535.3    3.4      48.442
2014    9       28     4  50    4.89   535.1    3.4      48.428
2014    9       28     4  55    4.89   535.0    3.4      48.413
2014    9       28     5   0    4.89   534.8    3.4      48.398
2014    9       28     5   6    4.89   534.6    3.4      48.382
2014    9       28     5  11    4.89   534.4    3.4      48.366
2014    9       28     5  16    4.89   534.2    3.4      48.350
2014    9       28     5  22    4.89   534.0    3.4      48.334
2014    9       28     5  27    4.88   533.8    3.4      48.317
2014    9       28     5  32    4.88   533.6    3.4      48.300
2014    9       28     5  37    4.88   533.4    3.4      48.283
2014    9       28     5  43    4.88   533.3    3.4      48.265
2014    9       28     5  48    4.88   533.1    3.4      48.247
2014    9       28     5  53    4.88   532.9    3.4      48.229
2014    9       28     5  59    4.88   532.7    3.4      48.211
2014    9       28     6   4    4.88   532.5    3.4      48.193
2014    9       28     6   9    4.88   532.3    3.4      48.174
2014    9       28     6  14    4.88   532.1    3.4      48.155
2014    9       28     6  20    4.88   531.9    3.4      48.136
2014    9       28     6  25    4.87   531.7    3.4      48.116
2014    9       28     6  30    4.87   531.6    3.4      48.096
2014    9       28     6  36    4.87   531.4    3.4      48.075
2014    9       28     6  41    4.87   531.2    3.4      48.055
2014    9       28     6  46    4.87   531.0    3.4      48.034
2014    9       28     6  51    4.87   530.8    3.4      48.012
2014    9       28     6  57    4.87   530.6    3.4      47.990
2014    9       28     7   2    4.87   530.4    3.4      47.968
2014    9       28     7   7    4.87   530.2    3.4      47.946
2014    9       28     7  13    4.87   530.0    3.4      47.923
2014    9       28     7  18    4.86   529.8    3.4      47.901
2014    9       28     7  23    4.86   529.6    3.4      47.877
2014    9       28     7  29    4.86   529.4    3.4      47.854
2014    9       28     7  34    4.86   529.2    3.4      47.830
2014    9       28     7  39    4.86   529.0    3.4      47.806
2014    9       28     7  44    4.86   528.8    3.4      47.782
2014    9       28     7  50    4.86   528.7    3.4      47.757
2014    9       28     7  55    4.86   528.5    3.4      47.733
2014    9       28     8   0    4.86   528.3    3.4      47.708
2014    9       28     8   6    4.86   528.1    3.4      47.683
2014    9       28     8  11    4.86   527.9    3.4      47.658
2014    9       28     8  16    4.86   527.7    3.4      47.633
2014    9       28     8  21    4.85   527.5    3.4      47.608
2014    9       28     8  27    4.85   527.3    3.4      47.583
2014    9       28     8  32    4.85   527.1    3.4      47.557
2014    9       28     8  37    4.85   526.9    3.4      47.532
2014    9       28     8  43    4.85   526.7    3.4      47.507
2014    9       28     8  48    4.85   526.5    3.4      47.483
2014    9       28     8  53    4.85   526.3    3.4      47.458
2014    9       28     8  58    4.85   526.1    3.4      47.433
2014    9       28     9   4    4.85   525.9    3.4      47.408
2014    9       28     9   9    4.85   525.7    3.4      47.384
2014    9       28     9  14    4.85   525.5    3.4      47.359
2014    9       28     9  20    4.85   525.3    3.4      47.335
2014    9       28     9  25    4.85   525.1    3.4      47.311
2014    9       28     9  30    4.85   524.9    3.4      47.287
2014    9       28     9  35    4.84   524.7    3.5      47.263
2014    9       28     9  41    4.84   524.5    3.5      47.240
2014    9       28     9  46    4.84   524.4    3.5      47.216
2014    9       28     9  51    4.84   524.2    3.5      47.193
2014    9       28     9  57    4.84   524.0    3.5      47.170
2014    9       28    10   2    4.84   523.8    3.5      47.147
2014    9       28    10   7    4.84   523.6    3.5      47.124
2014    9       28    10  12    4.84   523.4    3.5      47.101
2014    9       28    10  18    4.84   523.2    3.5      47.078
2014    9       28    10  23    4.84   523.0    3.5      47.056
2014    9       28    10  28    4.84   522.8    3.5      47.034
2014    9       28    10  34    4.84   522.7    3.5      47.011
2014    9       28    10  39    4.84   522.5    3.5      46.989
2014    9       28    10  44    4.84   522.3    3.5      46.968
2014    9       28    10  49    4.84   522.1    3.5      46.946
2014    9       28    10  55    4.84   521.9    3.5      46.924
2014    9       28    11   0    4.84   521.7    3.5      46.903
2014    9       28    11   5    4.83   521.6    3.5      46.882
2014    9       28    11  11    4.83   521.4    3.5      46.861
2014    9       28    11  16    4.83   521.2    3.5      46.840
2014    9       28    11  21    4.83   521.0    3.5      46.819
2014    9       28    11  27    4.83   520.8    3.5      46.798
2014    9       28    11  32    4.83   520.7    3.5      46.778
2014    9       28    11  37    4.83   520.5    3.5      46.757
2014    9       28    11  42    4.83   520.3    3.5      46.737
2014    9       28    11  48    4.83   520.1    3.5      46.716
2014    9       28    11  53    4.83   519.9    3.5      46.696
2014    9       28    11  58    4.83   519.8    3.5      46.676
2014    9       28    12   4    4.83   519.6    3.5      46.655
2014    9       28    12   9    4.83   519.4    3.5      46.635
2014    9       28    12  14    4.82   519.2    3.5      46.615
2014    9       28    12  19    4.82   519.0    3.5      46.594
2014    9       28    12  25    4.82   518.9    3.5      46.574
2014    9       28    12  30    4.82   518.7    3.5      46.554
2014    9       28    12  35    4.82   518.5    3.5      46.533
2014    9       28    12  41    4.82   518.3    3.5      46.513
2014    9       28    12  46    4.82   518.1    3.5      46.492
2014    9       28    12  51    4.82   518.0    3.5      46.472
2014    9       28    12  56    4.82   517.8    3.5      46.452
2014    9       28    13   2    4.82   517.6    3.5      46.431
2014    9       28    13   7    4.82   517.4    3.5      46.411
2014    9       28    13  12    4.81   517.2    3.5      46.390
2014    9       28    13  18    4.81   517.0    3.5      46.370
2014    9       28    13  23    4.81   516.9    3.5      46.349
2014    9       28    13  28    4.81   516.7    3.5      46.329
2014    9       28    13  33    4.81   516.5    3.5      46.309
2014    9       28    13  39    4.81   516.3    3.5      46.289
2014    9       28    13  44    4.81   516.1    3.5      46.268
2014    9       28    13  49    4.81   515.9    3.5      46.248
2014    9       28    13  55    4.81   515.7    3.5      46.228
2014    9       28    14   0    4.81   515.6    3.5      46.208
2014    9       28    14   5    4.81   515.4    3.5      46.188
2014    9       28    14  10    4.81   515.2    3.5      46.168
2014    9       28    14  16    4.80   515.0    3.5      46.148
2014    9       28    14  21    4.80   514.8    3.6      46.129
2014    9       28    14  26    4.80   514.6    3.6      46.109
2014    9       28    14  32    4.80   514.4    3.6      46.090
2014    9       28    14  37    4.80   514.2    3.6      46.071
2014    9       28    14  42    4.80   514.1    3.6      46.051
2014    9       28    14  47    4.80   513.9    3.6      46.032
2014    9       28    14  53    4.80   513.7    3.6      46.013
2014    9       28    14  58    4.80   513.5    3.6      45.995
2014    9       28    15   3    4.80   513.3    3.6      45.976
2014    9       28    15   9    4.80   513.1    3.6      45.957
2014    9       28    15  14    4.80   512.9    3.6      45.938
2014    9       28    15  19    4.80   512.7    3.6      45.918
2014    9       28    15  24    4.79   512.6    3.6      45.899
2014    9       28    15  30    4.79   512.4    3.6      45.880
2014    9       28    15  35    4.79   512.2    3.6      45.860
2014    9       28    15  40    4.79   512.0    3.6      45.840
2014    9       28    15  46    4.79   511.8    3.6      45.820
2014    9       28    15  51    4.79   511.6    3.6      45.800
2014    9       28    15  56    4.79   511.4    3.6      45.780
2014    9       28    16   2    4.79   511.2    3.6      45.759
2014    9       28    16   7    4.79   511.0    3.6      45.738
2014    9       28    16  12    4.79   510.9    3.6      45.717
2014    9       28    16  17    4.79   510.7    3.6      45.696
2014    9       28    16  23    4.79   510.5    3.6      45.675
2014    9       28    16  28    4.79   510.3    3.6      45.653
2014    9       28    16  33    4.79   510.1    3.6      45.632
2014    9       28    16  39    4.79   509.9    3.6      45.610
2014    9       28    16  44    4.79   509.7    3.6      45.588
2014    9       28    16  49    4.78   509.5    3.6      45.566
2014    9       28    16  54    4.78   509.3    3.6      45.544
2014    9       28    17   0    4.78   509.1    3.6      45.521
2014    9       28    17   5    4.78   508.9    3.6      45.499
2014    9       28    17  10    4.78   508.8    3.6      45.477
2014    9       28    17  16    4.78   508.6    3.6      45.454
2014    9       28    17  21    4.78   508.4    3.6      45.432
2014    9       28    17  26    4.78   508.2    3.6      45.409
2014    9       28    17  31    4.78   508.0    3.6      45.387
2014    9       28    17  37    4.78   507.8    3.6      45.364
2014    9       28    17  42    4.78   507.6    3.6      45.342
2014    9       28    17  47    4.78   507.4    3.6      45.319
2014    9       28    17  53    4.78   507.2    3.6      45.297
2014    9       28    17  58    4.78   507.0    3.6      45.274
2014    9       28    18   3    4.78   506.9    3.6      45.251
2014    9       28    18   8    4.78   506.7    3.6      45.228
2014    9       28    18  14    4.78   506.5    3.6      45.206
2014    9       28    18  19    4.78   506.3    3.6      45.183
2014    9       28    18  24    4.78   506.1    3.6      45.160
2014    9       28    18  30    4.77   505.9    3.6      45.136
2014    9       28    18  35    4.77   505.7    3.6      45.113
2014    9       28    18  40    4.77   505.5    3.6      45.090
2014    9       28    18  45    4.77   505.4    3.6      45.066
2014    9       28    18  51    4.77   505.2    3.6      45.043
2014    9       28    18  56    4.77   505.0    3.6      45.019
2014    9       28    19   1    4.77   504.8    3.6      44.995
2014    9       28    19   7    4.77   504.6    3.6      44.971
2014    9       28    19  12    4.77   504.4    3.6      44.947
2014    9       28    19  17    4.77   504.2    3.6      44.922
2014    9       28    19  22    4.77   504.0    3.6      44.898
2014    9       28    19  28    4.77   503.8    3.6      44.873
2014    9       28    19  33    4.77   503.7    3.6      44.848
2014    9       28    19  38    4.77   503.5    3.6      44.822
2014    9       28    19  44    4.77   503.3    3.6      44.797
2014    9       28    19  49    4.77   503.1    3.7      44.771
2014    9       28    19  54    4.77   502.9    3.7      44.745
2014    9       28    19  59    4.76   502.7    3.7      44.719
2014    9       28    20   5    4.76   502.5    3.7      44.692
2014    9       28    20  10    4.76   502.3    3.7      44.666
2014    9       28    20  15    4.76   502.2    3.7      44.639
2014    9       28    20  21    4.76   502.0    3.7      44.612
2014    9       28    20  26    4.76   501.8    3.7      44.585
2014    9       28    20  31    4.76   501.6    3.7      44.558
2014    9       28    20  37    4.76   501.4    3.7      44.531
2014    9       28    20  42    4.76   501.2    3.7      44.503
2014    9       28    20  47    4.76   501.0    3.7      44.476
2014    9       28    20  52    4.76   500.8    3.7      44.448
2014    9       28    20  58    4.76   500.6    3.7      44.420
2014    9       28    21   3    4.76   500.4    3.7      44.393
2014    9       28    21   8    4.76   500.3    3.7      44.365
2014    9       28    21  14    4.76   500.1    3.7      44.338
2014    9       28    21  19    4.75   499.9    3.7      44.310
2014    9       28    21  24    4.75   499.7    3.7      44.283
2014    9       28    21  29    4.75   499.5    3.7      44.256
2014    9       28    21  35    4.75   499.3    3.7      44.229
2014    9       28    21  40    4.75   499.1    3.7      44.203
2014    9       28    21  45    4.75   498.9    3.7      44.176
2014    9       28    21  51    4.75   498.7    3.7      44.150
2014    9       28    21  56    4.75   498.5    3.7      44.125
2014    9       28    22   1    4.75   498.3    3.7      44.099
2014    9       28    22   6    4.75   498.1    3.7      44.074
2014    9       28    22  12    4.75   498.0    3.7      44.050
2014    9       28    22  17    4.75   497.8    3.7      44.026
2014    9       28    22  22    4.75   497.6    3.7      44.002
2014    9       28    22  28    4.75   497.4    3.7      43.978
2014    9       28    22  33    4.75   497.2    3.7      43.955
2014    9       28    22  38    4.75   497.0    3.7      43.931
2014    9       28    22  43    4.74   496.8    3.7      43.908
2014    9       28    22  49    4.74   496.6    3.7      43.886
2014    9       28    22  54    4.74   496.4    3.7      43.863
2014    9       28    22  59    4.74   496.2    3.7      43.840
2014    9       28    23   5    4.74   496.0    3.7      43.818
2014    9       28    23  10    4.74   495.9    3.7      43.795
2014    9       28    23  15    4.74   495.7    3.7      43.773
2014    9       28    23  20    4.74   495.5    3.7      43.751
2014    9       28    23  26    4.74   495.3    3.7      43.729
2014    9       28    23  31    4.74   495.1    3.7      43.707
2014    9       28    23  36    4.74   494.9    3.7      43.685
2014    9       28    23  42    4.74   494.7    3.7      43.663
2014    9       28    23  47    4.74   494.5    3.7      43.641
2014    9       28    23  52    4.74   494.3    3.7      43.620
2014    9       28    23  57    4.74   494.1    3.7      43.598
2014    9       29     0   3    4.74   493.9    3.7      43.577
2014    9       29     0   8    4.74   493.7    3.7      43.555
2014    9       29     0  13    4.74   493.5    3.7      43.534
2014    9       29     0  19    4.73   493.3    3.7      43.513
2014    9       29     0  24    4.73   493.1    3.8      43.492
2014    9       29     0  29    4.73   492.9    3.8      43.472
2014    9       29     0  35    4.73   492.7    3.8      43.451
2014    9       29     0  40    4.73   492.5    3.8      43.431
2014    9       29     0  45    4.73   492.3    3.8      43.411
2014    9       29     0  50    4.73   492.1    3.8      43.391
2014    9       29     0  56    4.73   491.9    3.8      43.371
2014    9       29     1   1    4.73   491.7    3.8      43.352
2014    9       29     1   6    4.73   491.5    3.8      43.332
2014    9       29     1  12    4.73   491.3    3.8      43.313
2014    9       29     1  17    4.73   491.1    3.8      43.294
2014    9       29     1  22    4.73   490.9    3.8      43.275
2014    9       29     1  27    4.73   490.7    3.8      43.256
2014    9       29     1  33    4.73   490.5    3.8      43.237
2014    9       29     1  38    4.73   490.4    3.8      43.218
2014    9       29     1  43    4.73   490.2    3.8      43.199
2014    9       29     1  49    4.73   490.0    3.8      43.180
2014    9       29     1  54    4.73   489.8    3.8      43.160
2014    9       29     1  59    4.73   489.6    3.8      43.141
2014    9       29     2   4    4.73   489.4    3.8      43.122
2014    9       29     2  10    4.73   489.2    3.8      43.103
2014    9       29     2  15    4.73   489.0    3.8      43.083
2014    9       29     2  20    4.73   488.8    3.8      43.063
2014    9       29     2  26    4.73   488.6    3.8      43.043
2014    9       29     2  31    4.73   488.4    3.8      43.023
2014    9       29     2  36    4.73   488.2    3.8      43.002
2014    9       29     2  41    4.72   488.0    3.8      42.982
2014    9       29     2  47    4.72   487.8    3.8      42.961
2014    9       29     2  52    4.72   487.6    3.8      42.939
2014    9       29     2  57    4.72   487.4    3.8      42.918
2014    9       29     3   3    4.72   487.2    3.8      42.896
2014    9       29     3   8    4.72   487.0    3.8      42.873
2014    9       29     3  13    4.72   486.8    3.8      42.851
2014    9       29     3  18    4.72   486.6    3.8      42.828
2014    9       29     3  24    4.72   486.4    3.8      42.805
2014    9       29     3  29    4.72   486.2    3.8      42.782
2014    9       29     3  34    4.72   486.0    3.8      42.759
2014    9       29     3  40    4.72   485.8    3.8      42.735
2014    9       29     3  45    4.72   485.6    3.8      42.711
2014    9       29     3  50    4.72   485.4    3.8      42.687
2014    9       29     3  55    4.72   485.2    3.8      42.662
2014    9       29     4   1    4.72   485.0    3.8      42.638
2014    9       29     4   6    4.72   484.8    3.8      42.613
2014    9       29     4  11    4.72   484.6    3.9      42.588
2014    9       29     4  17    4.72   484.4    3.9      42.563
2014    9       29     4  22    4.72   484.2    3.9      42.538
2014    9       29     4  27    4.72   484.0    3.9      42.512
2014    9       29     4  32    4.72   483.8    3.9      42.487
2014    9       29     4  38    4.72   483.6    3.9      42.461
2014    9       29     4  43    4.72   483.4    3.9      42.435
2014    9       29     4  48    4.72   483.2    3.9      42.409
2014    9       29     4  54    4.72   483.0    3.9      42.382
2014    9       29     4  59    4.72   482.9    3.9      42.356
2014    9       29     5   4    4.72   482.7    3.9      42.329
2014    9       29     5   9    4.72   482.5    3.9      42.302
2014    9       29     5  15    4.71   482.3    3.9      42.275
2014    9       29     5  20    4.71   482.1    3.9      42.248
2014    9       29     5  25    4.71   481.9    3.9      42.221
2014    9       29     5  31    4.71   481.7    3.9      42.193
2014    9       29     5  36    4.71   481.5    3.9      42.165
2014    9       29     5  41    4.71   481.3    3.9      42.138
2014    9       29     5  47    4.71   481.1    3.9      42.110
2014    9       29     5  52    4.71   480.9    3.9      42.082
2014    9       29     5  57    4.71   480.7    3.9      42.054
2014    9       29     6   2    4.71   480.5    3.9      42.025
2014    9       29     6   8    4.71   480.3    3.9      41.997
2014    9       29     6  13    4.71   480.1    3.9      41.969
2014    9       29     6  18    4.71   479.9    3.9      41.940
2014    9       29     6  24    4.71   479.7    3.9      41.912
2014    9       29     6  29    4.71   479.5    3.9      41.883
2014    9       29     6  34    4.71   479.2    3.9      41.855
2014    9       29     6  39    4.71   479.0    3.9      41.827
2014    9       29     6  45    4.71   478.8    3.9      41.798
2014    9       29     6  50    4.71   478.6    3.9      41.770
2014    9       29     6  55    4.71   478.4    3.9      41.742
2014    9       29     7   1    4.71   478.2    3.9      41.714
2014    9       29     7   6    4.71   478.0    3.9      41.687
2014    9       29     7  11    4.71   477.8    3.9      41.659
2014    9       29     7  16    4.71   477.6    3.9      41.632
2014    9       29     7  22    4.71   477.4    3.9      41.605
2014    9       29     7  27    4.70   477.2    3.9      41.578
2014    9       29     7  32    4.70   477.0    3.9      41.551
2014    9       29     7  38    4.70   476.8    3.9      41.525
2014    9       29     7  43    4.70   476.6    3.9      41.499
2014    9       29     7  48    4.70   476.4    3.9      41.474
2014    9       29     7  53    4.70   476.2    3.9      41.449
2014    9       29     7  59    4.70   476.0    3.9      41.424
2014    9       29     8   4    4.70   475.8    3.9      41.399
2014    9       29     8   9    4.70   475.6    3.9      41.374
2014    9       29     8  15    4.70   475.4    3.9      41.350
2014    9       29     8  20    4.70   475.2    3.9      41.326
2014    9       29     8  25    4.70   475.0    4.0      41.303
2014    9       29     8  30    4.70   474.8    4.0      41.279
2014    9       29     8  36    4.70   474.6    4.0      41.256
2014    9       29     8  41    4.70   474.4    4.0      41.233
2014    9       29     8  46    4.70   474.2    4.0      41.210
2014    9       29     8  52    4.70   474.0    4.0      41.187
2014    9       29     8  57    4.70   473.8    4.0      41.164
2014    9       29     9   2    4.70   473.6    4.0      41.142
2014    9       29     9   7    4.70   473.4    4.0      41.119
2014    9       29     9  13    4.70   473.2    4.0      41.097
2014    9       29     9  18    4.70   473.0    4.0      41.075
2014    9       29     9  23    4.70   472.8    4.0      41.053
2014    9       29     9  29    4.70   472.6    4.0      41.030
2014    9       29     9  34    4.70   472.4    4.0      41.008
2014    9       29     9  39    4.70   472.2    4.0      40.986
2014    9       29     9  44    4.70   472.0    4.0      40.964
2014    9       29     9  50    4.70   471.8    4.0      40.941
2014    9       29     9  55    4.70   471.6    4.0      40.919
2014    9       29    10   0    4.70   471.4    4.0      40.897
2014    9       29    10   6    4.70   471.2    4.0      40.875
2014    9       29    10  11    4.70   471.0    4.0      40.852
2014    9       29    10  16    4.70   470.8    4.0      40.830
2014    9       29    10  21    4.70   470.6    4.0      40.807
2014    9       29    10  27    4.70   470.4    4.0      40.785
2014    9       29    10  32    4.70   470.2    4.0      40.762
2014    9       29    10  37    4.70   470.0    4.0      40.739
2014    9       29    10  43    4.70   469.8    4.0      40.716
2014    9       29    10  48    4.70   469.5    4.0      40.693
2014    9       29    10  53    4.70   469.3    4.0      40.670
2014    9       29    10  59    4.70   469.1    4.0      40.647
2014    9       29    11   4    4.70   468.9    4.0      40.624
2014    9       29    11   9    4.70   468.7    4.1      40.600
2014    9       29    11  14    4.70   468.5    4.1      40.577
2014    9       29    11  20    4.70   468.3    4.1      40.553
2014    9       29    11  25    4.70   468.1    4.1      40.529
2014    9       29    11  30    4.70   467.9    4.1      40.505
2014    9       29    11  36    4.70   467.7    4.1      40.481
2014    9       29    11  41    4.70   467.5    4.1      40.457
2014    9       29    11  46    4.70   467.3    4.1      40.433
2014    9       29    11  51    4.70   467.1    4.1      40.408
2014    9       29    11  57    4.70   466.9    4.1      40.384
2014    9       29    12   2    4.70   466.7    4.1      40.359
2014    9       29    12   7    4.70   466.5    4.1      40.334
2014    9       29    12  13    4.70   466.3    4.1      40.309
2014    9       29    12  18    4.70   466.1    4.1      40.284
2014    9       29    12  23    4.70   465.9    4.1      40.259
2014    9       29    12  28    4.70   465.6    4.1      40.233
2014    9       29    12  34    4.70   465.4    4.1      40.208
2014    9       29    12  39    4.70   465.2    4.1      40.182
2014    9       29    12  44    4.70   465.0    4.1      40.157
2014    9       29    12  50    4.70   464.8    4.1      40.131
2014    9       29    12  55    4.70   464.6    4.1      40.105
2014    9       29    13   0    4.70   464.4    4.1      40.079
2014    9       29    13   5    4.70   464.2    4.1      40.053
2014    9       29    13  11    4.70   464.0    4.1      40.026
2014    9       29    13  16    4.70   463.8    4.1      40.000
2014    9       29    13  21    4.70   463.5    4.1      39.974
2014    9       29    13  27    4.70   463.3    4.1      39.947
2014    9       29    13  32    4.70   463.1    4.1      39.921
2014    9       29    13  37    4.70   462.9    4.1      39.894
2014    9       29    13  42    4.70   462.7    4.1      39.867
2014    9       29    13  48    4.70   462.5    4.1      39.840
2014    9       29    13  53    4.70   462.3    4.1      39.813
2014    9       29    13  58    4.70   462.1    4.1      39.786
2014    9       29    14   4    4.70   461.9    4.1      39.759
2014    9       29    14   9    4.70   461.6    4.1      39.732
2014    9       29    14  14    4.70   461.4    4.2      39.705
2014    9       29    14  19    4.70   461.2    4.2      39.678
2014    9       29    14  25    4.70   461.0    4.2      39.651
2014    9       29    14  30    4.70   460.8    4.2      39.623
2014    9       29    14  35    4.70   460.6    4.2      39.596
2014    9       29    14  41    4.70   460.4    4.2      39.569
2014    9       29    14  46    4.70   460.2    4.2      39.541
2014    9       29    14  51    4.70   459.9    4.2      39.514
2014    9       29    14  56    4.70   459.7    4.2      39.487
2014    9       29    15   2    4.70   459.5    4.2      39.459
2014    9       29    15   7    4.70   459.3    4.2      39.432
2014    9       29    15  12    4.70   459.1    4.2      39.405
2014    9       29    15  18    4.70   458.9    4.2      39.378
2014    9       29    15  23    4.70   458.7    4.2      39.351
2014    9       29    15  28    4.70   458.5    4.2      39.324
2014    9       29    15  34    4.70   458.2    4.2      39.297
2014    9       29    15  39    4.71   458.0    4.2      39.270
2014    9       29    15  44    4.71   457.8    4.2      39.243
2014    9       29    15  49    4.71   457.6    4.2      39.216
2014    9       29    15  55    4.71   457.4    4.2      39.189
2014    9       29    16   0    4.71   457.2    4.2      39.162
2014    9       29    16   5    4.71   457.0    4.2      39.136
2014    9       29    16  11    4.71   456.8    4.2      39.109
2014    9       29    16  16    4.71   456.5    4.2      39.083
2014    9       29    16  21    4.71   456.3    4.2      39.056
2014    9       29    16  26    4.71   456.1    4.2      39.030
2014    9       29    16  32    4.71   455.9    4.2      39.004
2014    9       29    16  37    4.71   455.7    4.2      38.978
2014    9       29    16  42    4.71   455.5    4.2      38.952
2014    9       29    16  48    4.71   455.3    4.2      38.926
2014    9       29    16  53    4.71   455.1    4.2      38.901
2014    9       29    16  58    4.71   454.8    4.3      38.875
2014    9       29    17   3    4.71   454.6    4.3      38.849
2014    9       29    17   9    4.71   454.4    4.3      38.824
2014    9       29    17  14    4.71   454.2    4.3      38.798
2014    9       29    17  19    4.71   454.0    4.3      38.773
2014    9       29    17  25    4.71   453.8    4.3      38.748
2014    9       29    17  30    4.71   453.6    4.3      38.723
2014    9       29    17  35    4.71   453.4    4.3      38.698
2014    9       29    17  40    4.72   453.2    4.3      38.673
2014    9       29    17  46    4.72   452.9    4.3      38.648
2014    9       29    17  51    4.72   452.7    4.3      38.623
2014    9       29    17  56    4.72   452.5    4.3      38.598
2014    9       29    18   2    4.72   452.3    4.3      38.574
2014    9       29    18   7    4.72   452.1    4.3      38.549
2014    9       29    18  12    4.72   451.9    4.3      38.524
2014    9       29    18  17    4.72   451.7    4.3      38.500
2014    9       29    18  23    4.72   451.5    4.3      38.475
2014    9       29    18  28    4.72   451.3    4.3      38.451
2014    9       29    18  33    4.72   451.0    4.3      38.426
2014    9       29    18  39    4.72   450.8    4.3      38.402
2014    9       29    18  44    4.72   450.6    4.3      38.377
2014    9       29    18  49    4.72   450.4    4.3      38.353
2014    9       29    18  54    4.72   450.2    4.3      38.328
2014    9       29    19   0    4.72   450.0    4.3      38.304
2014    9       29    19   5    4.72   449.8    4.4      38.280
2014    9       29    19  10    4.73   449.6    4.4      38.255
2014    9       29    19  16    4.73   449.3    4.4      38.231
2014    9       29    19  21    4.73   449.1    4.4      38.206
2014    9       29    19  26    4.73   448.9    4.4      38.182
2014    9       29    19  31    4.73   448.7    4.4      38.157
2014    9       29    19  37    4.73   448.5    4.4      38.133
2014    9       29    19  42    4.73   448.3    4.4      38.108
2014    9       29    19  47    4.73   448.1    4.4      38.084
2014    9       29    19  53    4.73   447.9    4.4      38.059
2014    9       29    19  58    4.73   447.6    4.4      38.035
2014    9       29    20   3    4.73   447.4    4.4      38.010
2014    9       29    20   8    4.73   447.2    4.4      37.985
2014    9       29    20  14    4.73   447.0    4.4      37.961
2014    9       29    20  19    4.73   446.8    4.4      37.936
2014    9       29    20  24    4.73   446.6    4.4      37.911
2014    9       29    20  30    4.73   446.4    4.4      37.886
2014    9       29    20  35    4.74   446.1    4.4      37.861
2014    9       29    20  40    4.74   445.9    4.4      37.836
2014    9       29    20  46    4.74   445.7    4.4      37.812
2014    9       29    20  51    4.74   445.5    4.4      37.786
2014    9       29    20  56    4.74   445.3    4.4      37.761
2014    9       29    21   1    4.74   445.1    4.5      37.736
2014    9       29    21   7    4.74   444.9    4.5      37.711
2014    9       29    21  12    4.74   444.6    4.5      37.686
2014    9       29    21  17    4.74   444.4    4.5      37.661
2014    9       29    21  23    4.74   444.2    4.5      37.636
2014    9       29    21  28    4.74   444.0    4.5      37.611
2014    9       29    21  33    4.74   443.8    4.5      37.586
2014    9       29    21  38    4.74   443.6    4.5      37.560
2014    9       29    21  44    4.74   443.3    4.5      37.535
2014    9       29    21  49    4.75   443.1    4.5      37.510
2014    9       29    21  54    4.75   442.9    4.5      37.485
2014    9       29    22   0    4.75   442.7    4.5      37.459
2014    9       29    22   5    4.75   442.5    4.5      37.434
2014    9       29    22  10    4.75   442.3    4.5      37.409
2014    9       29    22  15    4.75   442.0    4.5      37.384
2014    9       29    22  21    4.75   441.8    4.5      37.359
2014    9       29    22  26    4.75   441.6    4.5      37.334
2014    9       29    22  31    4.75   441.4    4.5      37.309
2014    9       29    22  37    4.75   441.2    4.5      37.284
2014    9       29    22  42    4.75   441.0    4.5      37.258
2014    9       29    22  47    4.76   440.7    4.5      37.233
2014    9       29    22  52    4.76   440.5    4.6      37.209
2014    9       29    22  58    4.76   440.3    4.6      37.184
2014    9       29    23   3    4.76   440.1    4.6      37.159
2014    9       29    23   8    4.76   439.9    4.6      37.134
2014    9       29    23  14    4.76   439.7    4.6      37.109
2014    9       29    23  19    4.76   439.4    4.6      37.084
2014    9       29    23  24    4.76   439.2    4.6      37.059
2014    9       29    23  29    4.76   439.0    4.6      37.035
2014    9       29    23  35    4.77   438.8    4.6      37.010
2014    9       29    23  40    4.77   438.6    4.6      36.986
2014    9       29    23  45    4.77   438.4    4.6      36.961
2014    9       29    23  51    4.77   438.1    4.6      36.937
2014    9       29    23  56    4.77   437.9    4.6      36.912
2014    9       30     0   1    4.77   437.7    4.6      36.888
2014    9       30     0   6    4.77   437.5    4.6      36.863
2014    9       30     0  12    4.77   437.3    4.6      36.839
2014    9       30     0  17    4.78   437.1    4.6      36.815
2014    9       30     0  22    4.78   436.9    4.6      36.790
2014    9       30     0  28    4.78   436.6    4.6      36.766
2014    9       30     0  33    4.78   436.4    4.6      36.742
2014    9       30     0  38    4.78   436.2    4.7      36.718
2014    9       30     0  43    4.78   436.0    4.7      36.694
2014    9       30     0  49    4.78   435.8    4.7      36.670
2014    9       30     0  54    4.79   435.6    4.7      36.646
2014    9       30     0  59    4.79   435.4    4.7      36.622
2014    9       30     1   5    4.79   435.2    4.7      36.598
2014    9       30     1  10    4.79   434.9    4.7      36.574
2014    9       30     1  15    4.79   434.7    4.7      36.550
2014    9       30     1  20    4.79   434.5    4.7      36.527
2014    9       30     1  26    4.79   434.3    4.7      36.503
2014    9       30     1  31    4.80   434.1    4.7      36.480
2014    9       30     1  36    4.80   433.9    4.7      36.456
2014    9       30     1  42    4.80   433.7    4.7      36.433
2014    9       30     1  47    4.80   433.5    4.7      36.409
2014    9       30     1  52    4.80   433.2    4.7      36.386
2014    9       30     1  57    4.80   433.0    4.7      36.362
2014    9       30     2   3    4.81   432.8    4.7      36.339
2014    9       30     2   8    4.81   432.6    4.7      36.316
2014    9       30     2  13    4.81   432.4    4.8      36.293
2014    9       30     2  19    4.81   432.2    4.8      36.270
2014    9       30     2  24    4.81   432.0    4.8      36.247
2014    9       30     2  29    4.81   431.8    4.8      36.224
2014    9       30     2  35    4.82   431.6    4.8      36.201
2014    9       30     2  40    4.82   431.4    4.8      36.178
2014    9       30     2  45    4.82   431.2    4.8      36.155
2014    9       30     2  50    4.82   430.9    4.8      36.132
2014    9       30     2  56    4.82   430.7    4.8      36.110
2014    9       30     3   1    4.82   430.5    4.8      36.087
2014    9       30     3   6    4.83   430.3    4.8      36.065
2014    9       30     3  12    4.83   430.1    4.8      36.042
2014    9       30     3  17    4.83   429.9    4.8      36.020
2014    9       30     3  22    4.83   429.7    4.8      35.997
2014    9       30     3  27    4.83   429.5    4.8      35.975
2014    9       30     3  33    4.83   429.3    4.8      35.953
2014    9       30     3  38    4.84   429.1    4.8      35.930
2014    9       30     3  43    4.84   428.9    4.9      35.908
2014    9       30     3  49    4.84   428.7    4.9      35.886
2014    9       30     3  54    4.84   428.5    4.9      35.864
2014    9       30     3  59    4.84   428.3    4.9      35.842
2014    9       30     4   4    4.85   428.1    4.9      35.820
2014    9       30     4  10    4.85   427.9    4.9      35.798
2014    9       30     4  15    4.85   427.6    4.9      35.777
2014    9       30     4  20    4.85   427.4    4.9      35.755
2014    9       30     4  26    4.85   427.2    4.9      35.733
2014    9       30     4  31    4.86   427.0    4.9      35.712
2014    9       30     4  36    4.86   426.8    4.9      35.691
2014    9       30     4  41    4.86   426.6    4.9      35.669
2014    9       30     4  47    4.86   426.4    4.9      35.648
2014    9       30     4  52    4.86   426.2    4.9      35.627
2014    9       30     4  57    4.87   426.0    4.9      35.606
2014    9       30     5   3    4.87   425.8    5.0      35.585
2014    9       30     5   8    4.87   425.6    5.0      35.564
2014    9       30     5  13    4.87   425.4    5.0      35.543
2014    9       30     5  18    4.88   425.2    5.0      35.523
2014    9       30     5  24    4.88   425.0    5.0      35.502
2014    9       30     5  29    4.88   424.8    5.0      35.481
2014    9       30     5  34    4.88   424.6    5.0      35.461
2014    9       30     5  40    4.88   424.4    5.0      35.441
2014    9       30     5  45    4.89   424.2    5.0      35.421
2014    9       30     5  50    4.89   424.0    5.0      35.401
2014    9       30     5  55    4.89   423.8    5.0      35.381
2014    9       30     6   1    4.89   423.6    5.0      35.361
2014    9       30     6   6    4.90   423.4    5.0      35.342
2014    9       30     6  11    4.90   423.2    5.0      35.323
2014    9       30     6  17    4.90   423.0    5.0      35.303
2014    9       30     6  22    4.90   422.8    5.1      35.285
2014    9       30     6  27    4.91   422.6    5.1      35.266
2014    9       30     6  33    4.91   422.4    5.1      35.247
2014    9       30     6  38    4.91   422.2    5.1      35.228
2014    9       30     6  43    4.91   422.0    5.1      35.210
2014    9       30     6  48    4.92   421.8    5.1      35.192
2014    9       30     6  54    4.92   421.6    5.1      35.174
2014    9       30     6  59    4.92   421.4    5.1      35.157
2014    9       30     7   4    4.92   421.2    5.1      35.139
2014    9       30     7  10    4.93   421.0    5.1      35.122
2014    9       30     7  15    4.93   420.9    5.1      35.104
2014    9       30     7  20    4.93   420.7    5.1      35.087
2014    9       30     7  25    4.94   420.5    5.1      35.071
2014    9       30     7  31    4.94   420.3    5.2      35.054
2014    9       30     7  36    4.94   420.1    5.2      35.038
2014    9       30     7  41    4.94   419.9    5.2      35.021
2014    9       30     7  47    4.95   419.7    5.2      35.005
2014    9       30     7  52    4.95   419.5    5.2      34.989
2014    9       30     7  57    4.95   419.3    5.2      34.973
2014    9       30     8   2    4.95   419.1    5.2      34.958
2014    9       30     8   8    4.96   419.0    5.2      34.942
2014    9       30     8  13    4.96   418.8    5.2      34.927
2014    9       30     8  18    4.96   418.6    5.2      34.911
2014    9       30     8  24    4.97   418.4    5.2      34.896
2014    9       30     8  29    4.97   418.2    5.2      34.881
2014    9       30     8  34    4.97   418.0    5.2      34.866
2014    9       30     8  39    4.98   417.8    5.3      34.852
2014    9       30     8  45    4.98   417.7    5.3      34.837
2014    9       30     8  50    4.98   417.5    5.3      34.822
2014    9       30     8  55    4.98   417.3    5.3      34.808
2014    9       30     9   1    4.99   417.1    5.3      34.793
2014    9       30     9   6    4.99   416.9    5.3      34.779
2014    9       30     9  11    4.99   416.8    5.3      34.765
2014    9       30     9  16    5.00   416.6    5.3      34.750
2014    9       30     9  22    5.00   416.4    5.3      34.736
2014    9       30     9  27    5.00   416.2    5.3      34.722
2014    9       30     9  32    5.01   416.0    5.3      34.709
2014    9       30     9  38    5.01   415.9    5.3      34.695
2014    9       30     9  43    5.01   415.7    5.4      34.681
2014    9       30     9  48    5.02   415.5    5.4      34.668
2014    9       30     9  53    5.02   415.3    5.4      34.654
2014    9       30     9  59    5.02   415.2    5.4      34.641
2014    9       30    10   4    5.03   415.0    5.4      34.628
2014    9       30    10   9    5.03   414.8    5.4      34.615
2014    9       30    10  15    5.03   414.6    5.4      34.602
2014    9       30    10  20    5.04   414.5    5.4      34.589
2014    9       30    10  25    5.04   414.3    5.4      34.577
2014    9       30    10  30    5.04   414.1    5.4      34.564
2014    9       30    10  36    5.05   414.0    5.4      34.552
2014    9       30    10  41    5.05   413.8    5.4      34.540
2014    9       30    10  46    5.05   413.6    5.5      34.528
2014    9       30    10  52    5.06   413.5    5.5      34.517
2014    9       30    10  57    5.06   413.3    5.5      34.505
2014    9       30    11   2    5.06   413.1    5.5      34.494
2014    9       30    11   7    5.07   413.0    5.5      34.483
2014    9       30    11  13    5.07   412.8    5.5      34.472
2014    9       30    11  18    5.07   412.6    5.5      34.462
2014    9       30    11  23    5.08   412.5    5.5      34.451
2014    9       30    11  29    5.08   412.3    5.5      34.441
2014    9       30    11  34    5.08   412.1    5.5      34.431
2014    9       30    11  39    5.09   412.0    5.5      34.421
2014    9       30    11  45    5.09   411.8    5.5      34.412
2014    9       30    11  50    5.10   411.7    5.6      34.403
2014    9       30    11  55    5.10   411.5    5.6      34.393
2014    9       30    12   0    5.10   411.3    5.6      34.385
2014    9       30    12   6    5.11   411.2    5.6      34.376
2014    9       30    12  11    5.11   411.0    5.6      34.367
2014    9       30    12  16    5.12   410.9    5.6      34.359
2014    9       30    12  22    5.12   410.7    5.6      34.351
2014    9       30    12  27    5.12   410.6    5.6      34.343
2014    9       30    12  32    5.13   410.4    5.6      34.336
2014    9       30    12  37    5.13   410.3    5.6      34.328
2014    9       30    12  43    5.13   410.1    5.6      34.321
2014    9       30    12  48    5.14   410.0    5.7      34.314
2014    9       30    12  53    5.14   409.8    5.7      34.307
2014    9       30    12  59    5.15   409.7    5.7      34.300
2014    9       30    13   4    5.15   409.5    5.7      34.294
2014    9       30    13   9    5.15   409.4    5.7      34.288
2014    9       30    13  14    5.16   409.2    5.7      34.282
2014    9       30    13  20    5.16   409.1    5.7      34.276
2014    9       30    13  25    5.17   409.0    5.7      34.270
2014    9       30    13  30    5.17   408.8    5.7      34.265
2014    9       30    13  36    5.18   408.7    5.7      34.260
2014    9       30    13  41    5.18   408.5    5.7      34.255
2014    9       30    13  46    5.18   408.4    5.8      34.250
2014    9       30    13  51    5.19   408.2    5.8      34.245
2014    9       30    13  57    5.19   408.1    5.8      34.241
2014    9       30    14   2    5.20   408.0    5.8      34.236
2014    9       30    14   7    5.20   407.8    5.8      34.233
2014    9       30    14  13    5.20   407.7    5.8      34.229
2014    9       30    14  18    5.21   407.6    5.8      34.225
2014    9       30    14  23    5.21   407.4    5.8      34.222
2014    9       30    14  28    5.22   407.3    5.8      34.219
2014    9       30    14  34    5.22   407.2    5.8      34.216
2014    9       30    14  39    5.23   407.0    5.9      34.213
2014    9       30    14  44    5.23   406.9    5.9      34.211
2014    9       30    14  50    5.23   406.8    5.9      34.209
2014    9       30    14  55    5.24   406.6    5.9      34.206
2014    9       30    15   0    5.24   406.5    5.9      34.205
2014    9       30    15   5    5.25   406.4    5.9      34.203
2014    9       30    15  11    5.25   406.3    5.9      34.202
2014    9       30    15  16    5.26   406.1    5.9      34.200
2014    9       30    15  21    5.26   406.0    5.9      34.199
2014    9       30    15  27    5.27   405.9    5.9      34.198
2014    9       30    15  32    5.27   405.8    5.9      34.198
2014    9       30    15  37    5.27   405.6    6.0      34.197
2014    9       30    15  42    5.28   405.5    6.0      34.197
2014    9       30    15  48    5.28   405.4    6.0      34.197
2014    9       30    15  53    5.29   405.3    6.0      34.197
2014    9       30    15  58    5.29   405.2    6.0      34.197
2014    9       30    16   4    5.30   405.0    6.0      34.198
2014    9       30    16   9    5.30   404.9    6.0      34.199
2014    9       30    16  14    5.31   404.8    6.0      34.200
2014    9       30    16  19    5.31   404.7    6.0      34.201
2014    9       30    16  25    5.32   404.6    6.0      34.202
2014    9       30    16  30    5.32   404.5    6.1      34.204
2014    9       30    16  35    5.33   404.3    6.1      34.206
2014    9       30    16  41    5.33   404.2    6.1      34.208
2014    9       30    16  46    5.33   404.1    6.1      34.210
2014    9       30    16  51    5.34   404.0    6.1      34.213
2014    9       30    16  56    5.34   403.9    6.1      34.215
2014    9       30    17   2    5.35   403.8    6.1      34.218
2014    9       30    17   7    5.35   403.7    6.1      34.221
2014    9       30    17  12    5.36   403.6    6.1      34.225
2014    9       30    17  18    5.36   403.5    6.1      34.229
2014    9       30    17  23    5.37   403.4    6.2      34.233
2014    9       30    17  28    5.37   403.3    6.2      34.238
2014    9       30    17  34    5.38   403.2    6.2      34.242
2014    9       30    17  39    5.38   403.1    6.2      34.248
2014    9       30    17  44    5.39   403.0    6.2      34.253
2014    9       30    17  49    5.39   402.9    6.2      34.260
2014    9       30    17  55    5.40   402.8    6.2      34.266
2014    9       30    18   0    5.40   402.7    6.2      34.273
2014    9       30    18   5    5.41   402.6    6.2      34.280
2014    9       30    18  11    5.41   402.5    6.2      34.287
2014    9       30    18  16    5.42   402.4    6.3      34.294
2014    9       30    18  21    5.42   402.3    6.3      34.302
2014    9       30    18  26    5.43   402.2    6.3      34.309
2014    9       30    18  32    5.43   402.1    6.3      34.317
2014    9       30    18  37    5.44   402.0    6.3      34.325
2014    9       30    18  42    5.44   401.9    6.3      34.332
2014    9       30    18  48    5.45   401.8    6.3      34.340
2014    9       30    18  53    5.45   401.7    6.3      34.347
2014    9       30    18  58    5.46   401.6    6.3      34.355
2014    9       30    19   3    5.46   401.6    6.3      34.362
2014    9       30    19   9    5.47   401.5    6.4      34.370
2014    9       30    19  14    5.47   401.4    6.4      34.378
2014    9       30    19  19    5.48   401.3    6.4      34.385
2014    9       30    19  25    5.48   401.2    6.4      34.393
2014    9       30    19  30    5.49   401.1    6.4      34.401
2014    9       30    19  35    5.49   401.0    6.4      34.408
2014    9       30    19  40    5.50   401.0    6.4      34.416
2014    9       30    19  46    5.50   400.9    6.4      34.423
2014    9       30    19  51    5.51   400.8    6.4      34.431
2014    9       30    19  56    5.51   400.7    6.4      34.438
2014    9       30    20   2    5.52   400.6    6.4      34.446
2014    9       30    20   7    5.52   400.6    6.5      34.453
2014    9       30    20  12    5.53   400.5    6.5      34.461
2014    9       30    20  17    5.53   400.4    6.5      34.468
2014    9       30    20  23    5.54   400.3    6.5      34.475
2014    9       30    20  28    5.54   400.2    6.5      34.483
2014    9       30    20  33    5.55   400.2    6.5      34.490
2014    9       30    20  39    5.56   400.1    6.5      34.497
2014    9       30    20  44    5.56   400.0    6.5      34.504
2014    9       30    20  49    5.57   399.9    6.5      34.511
2014    9       30    20  55    5.57   399.9    6.5      34.518
2014    9       30    21   0    5.58   399.8    6.5      34.526
2014    9       30    21   5    5.58   399.7    6.6      34.533
2014    9       30    21  10    5.59   399.7    6.6      34.540
2014    9       30    21  16    5.59   399.6    6.6      34.547
2014    9       30    21  21    5.60   399.5    6.6      34.554
2014    9       30    21  26    5.60   399.4    6.6      34.562
2014    9       30    21  32    5.61   399.4    6.6      34.569
2014    9       30    21  37    5.61   399.3    6.6      34.576
2014    9       30    21  42    5.62   399.2    6.6      34.584
2014    9       30    21  47    5.62   399.2    6.6      34.592
2014    9       30    21  53    5.63   399.1    6.6      34.599
2014    9       30    21  58    5.63   399.0    6.6      34.607
2014    9       30    22   3    5.64   399.0    6.6      34.615
2014    9       30    22   9    5.64   398.9    6.7      34.624
2014    9       30    22  14    5.65   398.8    6.7      34.632
2014    9       30    22  19    5.65   398.8    6.7      34.641
2014    9       30    22  24    5.66   398.7    6.7      34.650
2014    9       30    22  30    5.67   398.6    6.7      34.659
2014    9       30    22  35    5.67   398.6    6.7      34.669
2014    9       30    22  40    5.68   398.5    6.7      34.679
2014    9       30    22  46    5.68   398.4    6.7      34.689
2014    9       30    22  51    5.69   398.4    6.7      34.699
2014    9       30    22  56    5.69   398.3    6.7      34.710
2014    9       30    23   1    5.70   398.3    6.7      34.721
2014    9       30    23   7    5.70   398.2    6.8      34.733
2014    9       30    23  12    5.71   398.1    6.8      34.745
2014    9       30    23  17    5.71   398.1    6.8      34.757
2014    9       30    23  23    5.72   398.0    6.8      34.770
2014    9       30    23  28    5.73   398.0    6.8      34.783
2014    9       30    23  33    5.73   397.9    6.8      34.797
2014    9       30    23  38    5.74   397.9    6.8      34.811
2014    9       30    23  44    5.74   397.8    6.8      34.825
2014    9       30    23  49    5.75   397.8    6.8      34.840
2014    9       30    23  54    5.75   397.7    6.8      34.855
2014   10        1     0   0    5.76   397.7    6.8      34.871
2014   10        1     0   5    5.76   397.6    6.8      34.887
2014   10        1     0  10    5.77   397.6    6.9      34.903
2014   10        1     0  15    5.78   397.5    6.9      34.919
2014   10        1     0  21    5.78   397.5    6.9      34.936
2014   10        1     0  26    5.79   397.5    6.9      34.953
2014   10        1     0  31    5.79   397.4    6.9      34.970
2014   10        1     0  37    5.80   397.4    6.9      34.987
2014   10        1     0  42    5.80   397.3    6.9      35.005
2014   10        1     0  47    5.81   397.3    6.9      35.022
2014   10        1     0  52    5.81   397.3    6.9      35.040
2014   10        1     0  58    5.82   397.2    6.9      35.058
2014   10        1     1   3    5.82   397.2    6.9      35.077
2014   10        1     1   8    5.83   397.1    6.9      35.095
2014   10        1     1  14    5.84   397.1    7.0      35.113
2014   10        1     1  19    5.84   397.1    7.0      35.131
2014   10        1     1  24    5.85   397.0    7.0      35.149
2014   10        1     1  29    5.85   397.0    7.0      35.167
2014   10        1     1  35    5.86   397.0    7.0      35.185
2014   10        1     1  40    5.86   396.9    7.0      35.203
2014   10        1     1  45    5.87   396.9    7.0      35.220
2014   10        1     1  51    5.87   396.9    7.0      35.238
2014   10        1     1  56    5.88   396.8    7.0      35.255
2014   10        1     2   1    5.88   396.8    7.0      35.272
2014   10        1     2   6    5.89   396.7    7.0      35.288
2014   10        1     2  12    5.89   396.7    7.0      35.305
2014   10        1     2  17    5.90   396.7    7.0      35.321
2014   10        1     2  22    5.91   396.6    7.1      35.337
2014   10        1     2  28    5.91   396.6    7.1      35.354
2014   10        1     2  33    5.92   396.6    7.1      35.370
2014   10        1     2  38    5.92   396.5    7.1      35.386
2014   10        1     2  44    5.93   396.5    7.1      35.401
2014   10        1     2  49    5.93   396.5    7.1      35.417
2014   10        1     2  54    5.94   396.4    7.1      35.432
2014   10        1     2  59    5.94   396.4    7.1      35.448
2014   10        1     3   5    5.95   396.4    7.1      35.463
2014   10        1     3  10    5.95   396.4    7.1      35.479
2014   10        1     3  15    5.96   396.3    7.1      35.494
2014   10        1     3  21    5.96   396.3    7.1      35.509
2014   10        1     3  26    5.97   396.3    7.1      35.524
2014   10        1     3  31    5.97   396.2    7.1      35.539
2014   10        1     3  36    5.98   396.2    7.1      35.555
2014   10        1     3  42    5.99   396.2    7.2      35.570
2014   10        1     3  47    5.99   396.1    7.2      35.585
2014   10        1     3  52    6.00   396.1    7.2      35.600
2014   10        1     3  58    6.00   396.1    7.2      35.616
2014   10        1     4   3    6.01   396.1    7.2      35.631
2014   10        1     4   8    6.01   396.0    7.2      35.647
2014   10        1     4  13    6.02   396.0    7.2      35.663
2014   10        1     4  19    6.02   396.0    7.2      35.679
2014   10        1     4  24    6.03   396.0    7.2      35.695
2014   10        1     4  29    6.03   395.9    7.2      35.711
2014   10        1     4  35    6.04   395.9    7.2      35.727
2014   10        1     4  40    6.04   395.9    7.2      35.744
2014   10        1     4  45    6.05   395.9    7.2      35.761
2014   10        1     4  50    6.06   395.8    7.2      35.778
2014   10        1     4  56    6.06   395.8    7.3      35.796
2014   10        1     5   1    6.07   395.8    7.3      35.814
2014   10        1     5   6    6.07   395.8    7.3      35.832
2014   10        1     5  12    6.08   395.8    7.3      35.851
2014   10        1     5  17    6.08   395.7    7.3      35.871
2014   10        1     5  22    6.09   395.7    7.3      35.891
2014   10        1     5  27    6.09   395.7    7.3      35.911
2014   10        1     5  33    6.10   395.7    7.3      35.932
2014   10        1     5  38    6.11   395.7    7.3      35.954
2014   10        1     5  43    6.11   395.7    7.3      35.976
2014   10        1     5  49    6.12   395.7    7.3      35.999
2014   10        1     5  54    6.12   395.6    7.3      36.023
2014   10        1     5  59    6.13   395.6    7.3      36.047
2014   10        1     6   4    6.13   395.6    7.3      36.071
2014   10        1     6  10    6.14   395.6    7.4      36.096
2014   10        1     6  15    6.14   395.6    7.4      36.122
2014   10        1     6  20    6.15   395.6    7.4      36.147
2014   10        1     6  26    6.15   395.6    7.4      36.173
2014   10        1     6  31    6.16   395.6    7.4      36.200
2014   10        1     6  36    6.17   395.6    7.4      36.226
2014   10        1     6  41    6.17   395.6    7.4      36.253
2014   10        1     6  47    6.18   395.6    7.4      36.280
2014   10        1     6  52    6.18   395.6    7.4      36.307
2014   10        1     6  57    6.19   395.6    7.4      36.334
2014   10        1     7   3    6.19   395.6    7.4      36.362
2014   10        1     7   8    6.20   395.6    7.4      36.389
2014   10        1     7  13    6.20   395.6    7.4      36.417
2014   10        1     7  18    6.21   395.6    7.4      36.445
2014   10        1     7  24    6.21   395.6    7.4      36.472
2014   10        1     7  29    6.22   395.6    7.4      36.500
2014   10        1     7  34    6.22   395.6    7.5      36.528
2014   10        1     7  40    6.23   395.6    7.5      36.556
2014   10        1     7  45    6.23   395.6    7.5      36.583
2014   10        1     7  50    6.24   395.6    7.5      36.610
2014   10        1     7  56    6.24   395.6    7.5      36.638
2014   10        1     8   1    6.25   395.6    7.5      36.664
2014   10        1     8   6    6.25   395.6    7.5      36.691
2014   10        1     8  11    6.26   395.7    7.5      36.718
2014   10        1     8  17    6.26   395.7    7.5      36.744
2014   10        1     8  22    6.27   395.7    7.5      36.770
2014   10        1     8  27    6.27   395.7    7.5      36.796
2014   10        1     8  33    6.28   395.7    7.5      36.822
2014   10        1     8  38    6.28   395.7    7.5      36.847
2014   10        1     8  43    6.29   395.7    7.5      36.873
2014   10        1     8  48    6.29   395.7    7.5      36.898
2014   10        1     8  54    6.30   395.7    7.5      36.922
2014   10        1     8  59    6.30   395.7    7.5      36.947
2014   10        1     9   4    6.31   395.7    7.5      36.971
2014   10        1     9  10    6.31   395.8    7.5      36.996
2014   10        1     9  15    6.32   395.8    7.5      37.020
2014   10        1     9  20    6.32   395.8    7.5      37.044
2014   10        1     9  25    6.32   395.8    7.5      37.067
2014   10        1     9  31    6.33   395.8    7.6      37.091
2014   10        1     9  36    6.33   395.8    7.6      37.114
2014   10        1     9  41    6.34   395.8    7.6      37.138
2014   10        1     9  47    6.34   395.8    7.6      37.161
2014   10        1     9  52    6.35   395.9    7.6      37.184
2014   10        1     9  57    6.35   395.9    7.6      37.207
2014   10        1    10   2    6.36   395.9    7.6      37.230
2014   10        1    10   8    6.36   395.9    7.6      37.253
2014   10        1    10  13    6.37   395.9    7.6      37.276
2014   10        1    10  18    6.37   395.9    7.6      37.298
2014   10        1    10  24    6.38   396.0    7.6      37.321
2014   10        1    10  29    6.38   396.0    7.6      37.344
2014   10        1    10  34    6.39   396.0    7.6      37.367
2014   10        1    10  39    6.39   396.0    7.6      37.389
2014   10        1    10  45    6.39   396.0    7.6      37.412
2014   10        1    10  50    6.40   396.0    7.6      37.435
2014   10        1    10  55    6.40   396.1    7.6      37.458
2014   10        1    11   1    6.41   396.1    7.6      37.481
2014   10        1    11   6    6.41   396.1    7.6      37.504
2014   10        1    11  11    6.42   396.1    7.6      37.528
2014   10        1    11  17    6.42   396.1    7.6      37.551
2014   10        1    11  22    6.43   396.2    7.6      37.574
2014   10        1    11  27    6.43   396.2    7.6      37.598
2014   10        1    11  32    6.44   396.2    7.6      37.622
2014   10        1    11  38    6.44   396.2    7.6      37.647
2014   10        1    11  43    6.45   396.2    7.6      37.671
2014   10        1    11  48    6.45   396.3    7.6      37.696
2014   10        1    11  54    6.45   396.3    7.7      37.721
2014   10        1    11  59    6.46   396.3    7.7      37.746
2014   10        1    12   4    6.46   396.3    7.7      37.772
2014   10        1    12   9    6.47   396.4    7.7      37.799
2014   10        1    12  15    6.47   396.4    7.7      37.826
2014   10        1    12  20    6.48   396.4    7.7      37.853
2014   10        1    12  25    6.48   396.4    7.7      37.881
2014   10        1    12  31    6.49   396.5    7.7      37.910
2014   10        1    12  36    6.49   396.5    7.7      37.939
2014   10        1    12  41    6.50   396.5    7.7      37.969
2014   10        1    12  46    6.50   396.6    7.7      38.000
2014   10        1    12  52    6.51   396.6    7.7      38.031
2014   10        1    12  57    6.51   396.6    7.7      38.063
2014   10        1    13   2    6.51   396.6    7.7      38.095
2014   10        1    13   8    6.52   396.7    7.7      38.128
2014   10        1    13  13    6.52   396.7    7.7      38.161
2014   10        1    13  18    6.53   396.7    7.7      38.195
2014   10        1    13  23    6.53   396.8    7.7      38.230
2014   10        1    13  29    6.54   396.8    7.7      38.264
2014   10        1    13  34    6.54   396.8    7.7      38.299
2014   10        1    13  39    6.55   396.9    7.7      38.334
2014   10        1    13  45    6.55   396.9    7.7      38.370
2014   10        1    13  50    6.55   396.9    7.7      38.405
2014   10        1    13  55    6.56   397.0    7.7      38.442
2014   10        1    14   0    6.56   397.0    7.8      38.478
2014   10        1    14   6    6.57   397.0    7.8      38.516
2014   10        1    14  11    6.57   397.1    7.8      38.553
2014   10        1    14  16    6.57   397.1    7.8      38.591
2014   10        1    14  22    6.58   397.2    7.8      38.629
2014   10        1    14  27    6.58   397.2    7.8      38.668
2014   10        1    14  32    6.59   397.2    7.8      38.706
2014   10        1    14  37    6.59   397.3    7.8      38.745
2014   10        1    14  43    6.59   397.3    7.8      38.783
2014   10        1    14  48    6.60   397.4    7.8      38.821
2014   10        1    14  53    6.60   397.4    7.8      38.858
2014   10        1    14  59    6.61   397.5    7.8      38.895
2014   10        1    15   4    6.61   397.5    7.8      38.932
2014   10        1    15   9    6.61   397.5    7.8      38.968
2014   10        1    15  14    6.62   397.6    7.8      39.004
2014   10        1    15  20    6.62   397.6    7.8      39.040
2014   10        1    15  25    6.62   397.7    7.8      39.075
2014   10        1    15  30    6.63   397.7    7.8      39.109
2014   10        1    15  36    6.63   397.8    7.8      39.144
2014   10        1    15  41    6.64   397.8    7.8      39.177
2014   10        1    15  46    6.64   397.8    7.8      39.211
2014   10        1    15  51    6.64   397.9    7.8      39.244
2014   10        1    15  57    6.65   397.9    7.8      39.277
2014   10        1    16   2    6.65   398.0    7.8      39.309
2014   10        1    16   7    6.65   398.0    7.8      39.342
2014   10        1    16  13    6.66   398.1    7.8      39.373
2014   10        1    16  18    6.66   398.1    7.8      39.405
2014   10        1    16  23    6.66   398.2    7.8      39.436
2014   10        1    16  29    6.67   398.2    7.8      39.467
2014   10        1    16  34    6.67   398.3    7.8      39.498
2014   10        1    16  39    6.67   398.3    7.8      39.528
2014   10        1    16  44    6.68   398.4    7.8      39.558
2014   10        1    16  50    6.68   398.4    7.8      39.588
2014   10        1    16  55    6.68   398.5    7.8      39.618
2014   10        1    17   0    6.69   398.5    7.8      39.648
2014   10        1    17   6    6.69   398.6    7.8      39.677
2014   10        1    17  11    6.69   398.6    7.8      39.707
2014   10        1    17  16    6.70   398.7    7.8      39.736
2014   10        1    17  21    6.70   398.7    7.8      39.765
2014   10        1    17  27    6.70   398.8    7.8      39.794
2014   10        1    17  32    6.70   398.8    7.8      39.822
2014   10        1    17  37    6.71   398.9    7.8      39.851
2014   10        1    17  43    6.71   398.9    7.8      39.879
2014   10        1    17  48    6.71   399.0    7.8      39.907
2014   10        1    17  53    6.72   399.0    7.8      39.935
2014   10        1    17  58    6.72   399.1    7.8      39.964
2014   10        1    18   4    6.72   399.1    7.8      39.992
2014   10        1    18   9    6.73   399.2    7.8      40.020
2014   10        1    18  14    6.73   399.2    7.8      40.048
2014   10        1    18  20    6.73   399.3    7.8      40.076
2014   10        1    18  25    6.74   399.3    7.8      40.104
2014   10        1    18  30    6.74   399.4    7.8      40.132
2014   10        1    18  35    6.74   399.4    7.8      40.161
2014   10        1    18  41    6.75   399.5    7.8      40.189
2014   10        1    18  46    6.75   399.5    7.8      40.218
2014   10        1    18  51    6.75   399.6    7.8      40.247
2014   10        1    18  57    6.76   399.6    7.8      40.276
2014   10        1    19   2    6.76   399.7    7.8      40.305
2014   10        1    19   7    6.76   399.8    7.8      40.334
2014   10        1    19  12    6.77   399.8    7.8      40.364
2014   10        1    19  18    6.77   399.9    7.8      40.395
2014   10        1    19  23    6.77   399.9    7.8      40.426
2014   10        1    19  28    6.78   400.0    7.8      40.457
2014   10        1    19  34    6.78   400.0    7.8      40.489
2014   10        1    19  39    6.78   400.1    7.8      40.521
2014   10        1    19  44    6.79   400.2    7.8      40.554
2014   10        1    19  49    6.79   400.2    7.9      40.588
2014   10        1    19  55    6.79   400.3    7.9      40.623
2014   10        1    20   0    6.80   400.4    7.9      40.658
2014   10        1    20   5    6.80   400.4    7.9      40.695
2014   10        1    20  11    6.80   400.5    7.9      40.732
2014   10        1    20  16    6.81   400.6    7.9      40.770
2014   10        1    20  21    6.81   400.7    7.9      40.810
2014   10        1    20  26    6.81   400.7    7.9      40.850
2014   10        1    20  32    6.81   400.8    7.9      40.891
2014   10        1    20  37    6.82   400.9    7.9      40.932
2014   10        1    20  42    6.82   401.0    7.9      40.974
2014   10        1    20  48    6.82   401.0    7.9      41.015
2014   10        1    20  53    6.83   401.1    7.9      41.057
2014   10        1    20  58    6.83   401.2    7.9      41.098
2014   10        1    21   3    6.83   401.3    7.9      41.139
2014   10        1    21   9    6.83   401.4    7.9      41.181
2014   10        1    21  14    6.83   401.4    7.9      41.222
2014   10        1    21  19    6.84   401.5    7.9      41.264
2014   10        1    21  25    6.84   401.6    7.9      41.306
2014   10        1    21  30    6.84   401.7    7.9      41.348
2014   10        1    21  35    6.84   401.8    7.9      41.390
2014   10        1    21  40    6.85   401.9    7.9      41.431
2014   10        1    21  46    6.85   401.9    7.9      41.473
2014   10        1    21  51    6.85   402.0    7.9      41.514
2014   10        1    21  56    6.85   402.1    7.9      41.554
2014   10        1    22   2    6.85   402.2    7.9      41.594
2014   10        1    22   7    6.86   402.3    7.9      41.634
2014   10        1    22  12    6.86   402.4    7.9      41.673
2014   10        1    22  18    6.86   402.4    7.9      41.711
2014   10        1    22  23    6.86   402.5    7.9      41.749
2014   10        1    22  28    6.86   402.6    7.9      41.787
2014   10        1    22  33    6.87   402.7    7.9      41.824
2014   10        1    22  39    6.87   402.8    7.9      41.860
2014   10        1    22  44    6.87   402.9    7.9      41.896
2014   10        1    22  49    6.87   402.9    7.9      41.932
2014   10        1    22  55    6.87   403.0    7.9      41.967
2014   10        1    23   0    6.87   403.1    7.9      42.002
2014   10        1    23   5    6.88   403.2    7.9      42.036
2014   10        1    23  10    6.88   403.3    7.9      42.070
2014   10        1    23  16    6.88   403.4    7.9      42.104
2014   10        1    23  21    6.88   403.4    7.9      42.137
2014   10        1    23  26    6.88   403.5    7.9      42.170
2014   10        1    23  32    6.88   403.6    7.9      42.202
2014   10        1    23  37    6.88   403.7    7.8      42.235
2014   10        1    23  42    6.89   403.8    7.8      42.267
2014   10        1    23  47    6.89   403.9    7.8      42.298
2014   10        1    23  53    6.89   403.9    7.8      42.330
2014   10        1    23  58    6.89   404.0    7.8      42.361
2014   10        2     0   3    6.89   404.1    7.8      42.392
2014   10        2     0   9    6.89   404.2    7.8      42.423
2014   10        2     0  14    6.90   404.3    7.8      42.453
2014   10        2     0  19    6.90   404.3    7.8      42.484
2014   10        2     0  24    6.90   404.4    7.8      42.514
2014   10        2     0  30    6.90   404.5    7.8      42.544
2014   10        2     0  35    6.90   404.6    7.8      42.574
2014   10        2     0  40    6.90   404.7    7.8      42.604
2014   10        2     0  46    6.90   404.7    7.8      42.634
2014   10        2     0  51    6.91   404.8    7.8      42.664
2014   10        2     0  56    6.91   404.9    7.8      42.694
2014   10        2     1   1    6.91   405.0    7.8      42.724
2014   10        2     1   7    6.91   405.0    7.8      42.754
2014   10        2     1  12    6.91   405.1    7.8      42.785
2014   10        2     1  17    6.92   405.2    7.8      42.817
2014   10        2     1  23    6.92   405.3    7.8      42.848
2014   10        2     1  28    6.92   405.4    7.8      42.881
2014   10        2     1  33    6.92   405.5    7.8      42.913
2014   10        2     1  39    6.92   405.5    7.8      42.946
2014   10        2     1  44    6.92   405.6    7.8      42.979
2014   10        2     1  49    6.93   405.7    7.8      43.013
2014   10        2     1  54    6.93   405.8    7.8      43.047
2014   10        2     2   0    6.93   405.9    7.8      43.083
2014   10        2     2   5    6.93   406.0    7.8      43.119
2014   10        2     2  10    6.93   406.1    7.8      43.155
2014   10        2     2  16    6.93   406.2    7.8      43.192
2014   10        2     2  21    6.94   406.3    7.8      43.229
2014   10        2     2  26    6.94   406.4    7.8      43.267
2014   10        2     2  31    6.94   406.5    7.8      43.304
2014   10        2     2  37    6.94   406.6    7.8      43.341
2014   10        2     2  42    6.94   406.7    7.8      43.378
2014   10        2     2  47    6.94   406.9    7.8      43.414
2014   10        2     2  53    6.94   407.0    7.8      43.449
2014   10        2     2  58    6.94   407.1    7.8      43.484
2014   10        2     3   3    6.94   407.2    7.8      43.518
2014   10        2     3   8    6.94   407.3    7.8      43.551
2014   10        2     3  14    6.95   407.4    7.8      43.584
2014   10        2     3  19    6.95   407.5    7.8      43.617
2014   10        2     3  24    6.95   407.6    7.8      43.649
2014   10        2     3  30    6.95   407.8    7.8      43.680
2014   10        2     3  35    6.95   407.9    7.8      43.712
2014   10        2     3  40    6.95   408.0    7.8      43.742
2014   10        2     3  45    6.95   408.1    7.8      43.773
2014   10        2     3  51    6.95   408.2    7.8      43.804
2014   10        2     3  56    6.95   408.3    7.8      43.834
2014   10        2     4   1    6.95   408.5    7.8      43.865
2014   10        2     4   7    6.95   408.6    7.8      43.895
2014   10        2     4  12    6.95   408.7    7.8      43.925
2014   10        2     4  17    6.95   408.8    7.8      43.955
2014   10        2     4  22    6.95   408.9    7.8      43.985
2014   10        2     4  28    6.95   409.1    7.8      44.015
2014   10        2     4  33    6.95   409.2    7.8      44.045
2014   10        2     4  38    6.95   409.3    7.8      44.076
2014   10        2     4  44    6.95   409.4    7.8      44.106
2014   10        2     4  49    6.95   409.6    7.7      44.137
2014   10        2     4  54    6.95   409.7    7.7      44.168
2014   10        2     4  59    6.95   409.8    7.7      44.199
2014   10        2     5   5    6.95   409.9    7.7      44.230
2014   10        2     5  10    6.95   410.1    7.7      44.260
2014   10        2     5  15    6.95   410.2    7.7      44.291
2014   10        2     5  21    6.95   410.3    7.7      44.321
2014   10        2     5  26    6.95   410.5    7.7      44.351
2014   10        2     5  31    6.95   410.6    7.7      44.381
2014   10        2     5  36    6.95   410.7    7.7      44.411
2014   10        2     5  42    6.95   410.8    7.7      44.440
2014   10        2     5  47    6.95   411.0    7.7      44.469
2014   10        2     5  52    6.95   411.1    7.7      44.499
2014   10        2     5  58    6.94   411.2    7.7      44.528
2014   10        2     6   3    6.94   411.4    7.7      44.556
2014   10        2     6   8    6.94   411.5    7.7      44.585
2014   10        2     6  13    6.94   411.6    7.7      44.613
2014   10        2     6  19    6.94   411.7    7.7      44.641
2014   10        2     6  24    6.94   411.9    7.7      44.669
2014   10        2     6  29    6.94   412.0    7.6      44.697
2014   10        2     6  35    6.94   412.1    7.6      44.724
2014   10        2     6  40    6.94   412.2    7.6      44.751
2014   10        2     6  45    6.94   412.4    7.6      44.778
2014   10        2     6  51    6.94   412.5    7.6      44.805
2014   10        2     6  56    6.93   412.6    7.6      44.831
2014   10        2     7   1    6.93   412.7    7.6      44.857
2014   10        2     7   6    6.93   412.8    7.6      44.883
2014   10        2     7  12    6.93   413.0    7.6      44.909
2014   10        2     7  17    6.93   413.1    7.6      44.935
2014   10        2     7  22    6.93   413.2    7.6      44.960
2014   10        2     7  28    6.93   413.3    7.6      44.985
2014   10        2     7  33    6.93   413.4    7.6      45.010
2014   10        2     7  38    6.93   413.6    7.6      45.034
2014   10        2     7  43    6.92   413.7    7.6      45.058
2014   10        2     7  49    6.92   413.8    7.6      45.082
2014   10        2     7  54    6.92   413.9    7.5      45.106
2014   10        2     7  59    6.92   414.0    7.5      45.130
2014   10        2     8   5    6.92   414.1    7.5      45.153
2014   10        2     8  10    6.92   414.3    7.5      45.177
2014   10        2     8  15    6.92   414.4    7.5      45.200
2014   10        2     8  20    6.91   414.5    7.5      45.223
2014   10        2     8  26    6.91   414.6    7.5      45.247
2014   10        2     8  31    6.91   414.7    7.5      45.270
2014   10        2     8  36    6.91   414.8    7.5      45.293
2014   10        2     8  42    6.91   414.9    7.5      45.316
2014   10        2     8  47    6.91   415.0    7.5      45.339
2014   10        2     8  52    6.91   415.2    7.5      45.362
2014   10        2     8  57    6.90   415.3    7.5      45.386
2014   10        2     9   3    6.90   415.4    7.5      45.409
2014   10        2     9   8    6.90   415.5    7.5      45.432
2014   10        2     9  13    6.90   415.6    7.5      45.456
2014   10        2     9  19    6.90   415.7    7.5      45.479
2014   10        2     9  24    6.90   415.9    7.4      45.502
2014   10        2     9  29    6.89   416.0    7.4      45.525
2014   10        2     9  34    6.89   416.1    7.4      45.547
2014   10        2     9  40    6.89   416.2    7.4      45.569
2014   10        2     9  45    6.89   416.3    7.4      45.590
2014   10        2     9  50    6.89   416.5    7.4      45.611
2014   10        2     9  56    6.88   416.6    7.4      45.631
2014   10        2    10   1    6.88   416.7    7.4      45.651
2014   10        2    10   6    6.88   416.8    7.4      45.670
2014   10        2    10  11    6.88   417.0    7.4      45.689
2014   10        2    10  17    6.87   417.1    7.4      45.707
2014   10        2    10  22    6.87   417.2    7.4      45.724
2014   10        2    10  27    6.87   417.3    7.4      45.741
2014   10        2    10  33    6.87   417.4    7.4      45.758
2014   10        2    10  38    6.86   417.6    7.4      45.774
2014   10        2    10  43    6.86   417.7    7.4      45.789
2014   10        2    10  48    6.86   417.8    7.3      45.804
2014   10        2    10  54    6.85   417.9    7.3      45.819
2014   10        2    10  59    6.85   418.0    7.3      45.832
2014   10        2    11   4    6.85   418.2    7.3      45.846
2014   10        2    11  10    6.84   418.3    7.3      45.859
2014   10        2    11  15    6.84   418.4    7.3      45.871
2014   10        2    11  20    6.84   418.5    7.3      45.884
2014   10        2    11  26    6.83   418.6    7.3      45.895
2014   10        2    11  31    6.83   418.7    7.3      45.907
2014   10        2    11  36    6.83   418.9    7.3      45.918
2014   10        2    11  41    6.82   419.0    7.3      45.928
2014   10        2    11  47    6.82   419.1    7.3      45.939
2014   10        2    11  52    6.82   419.2    7.3      45.949
2014   10        2    11  57    6.81   419.3    7.2      45.958
2014   10        2    12   3    6.81   419.4    7.2      45.967
2014   10        2    12   8    6.81   419.6    7.2      45.976
2014   10        2    12  13    6.80   419.7    7.2      45.985
2014   10        2    12  18    6.80   419.8    7.2      45.994
2014   10        2    12  24    6.80   419.9    7.2      46.002
2014   10        2    12  29    6.79   420.0    7.2      46.010
2014   10        2    12  34    6.79   420.1    7.2      46.017
2014   10        2    12  40    6.78   420.2    7.2      46.025
2014   10        2    12  45    6.78   420.3    7.2      46.032
2014   10        2    12  50    6.78   420.4    7.2      46.039
2014   10        2    12  55    6.77   420.6    7.2      46.047
2014   10        2    13   1    6.77   420.7    7.1      46.053
2014   10        2    13   6    6.77   420.8    7.1      46.060
2014   10        2    13  11    6.76   420.9    7.1      46.066
2014   10        2    13  17    6.76   421.0    7.1      46.073
2014   10        2    13  22    6.75   421.1    7.1      46.079
2014   10        2    13  27    6.75   421.2    7.1      46.085
2014   10        2    13  32    6.74   421.3    7.1      46.091
2014   10        2    13  38    6.74   421.4    7.1      46.096
2014   10        2    13  43    6.74   421.5    7.1      46.102
2014   10        2    13  48    6.73   421.6    7.1      46.107
2014   10        2    13  54    6.73   421.7    7.1      46.111
2014   10        2    13  59    6.72   421.8    7.1      46.116
2014   10        2    14   4    6.72   421.9    7.0      46.120
2014   10        2    14   9    6.71   422.0    7.0      46.124
2014   10        2    14  15    6.71   422.1    7.0      46.128
2014   10        2    14  20    6.71   422.2    7.0      46.131
2014   10        2    14  25    6.70   422.3    7.0      46.134
2014   10        2    14  31    6.70   422.4    7.0      46.136
2014   10        2    14  36    6.69   422.5    7.0      46.138
2014   10        2    14  41    6.69   422.6    7.0      46.140
2014   10        2    14  46    6.68   422.6    7.0      46.141
2014   10        2    14  52    6.68   422.7    7.0      46.142
2014   10        2    14  57    6.67   422.8    7.0      46.142
2014   10        2    15   2    6.67   422.9    6.9      46.142
2014   10        2    15   8    6.66   423.0    6.9      46.142
2014   10        2    15  13    6.66   423.1    6.9      46.141
2014   10        2    15  18    6.65   423.2    6.9      46.140
2014   10        2    15  24    6.65   423.2    6.9      46.138
2014   10        2    15  29    6.64   423.3    6.9      46.136
2014   10        2    15  34    6.64   423.4    6.9      46.133
2014   10        2    15  39    6.63   423.5    6.9      46.130
2014   10        2    15  45    6.63   423.5    6.9      46.127
2014   10        2    15  50    6.62   423.6    6.9      46.123
2014   10        2    15  55    6.62   423.7    6.9      46.118
2014   10        2    16   1    6.61   423.8    6.8      46.114
2014   10        2    16   6    6.61   423.8    6.8      46.108
2014   10        2    16  11    6.60   423.9    6.8      46.103
2014   10        2    16  16    6.60   424.0    6.8      46.097
2014   10        2    16  22    6.59   424.0    6.8      46.090
2014   10        2    16  27    6.59   424.1    6.8      46.083
2014   10        2    16  32    6.58   424.2    6.8      46.075
2014   10        2    16  38    6.58   424.2    6.8      46.068
2014   10        2    16  43    6.57   424.3    6.8      46.059
2014   10        2    16  48    6.57   424.4    6.8      46.050
2014   10        2    16  53    6.56   424.4    6.8      46.041
2014   10        2    16  59    6.56   424.5    6.7      46.031
2014   10        2    17   4    6.55   424.5    6.7      46.021
2014   10        2    17   9    6.55   424.6    6.7      46.010
2014   10        2    17  15    6.54   424.6    6.7      45.999
2014   10        2    17  20    6.54   424.7    6.7      45.988
2014   10        2    17  25    6.53   424.7    6.7      45.976
2014   10        2    17  30    6.53   424.8    6.7      45.964
2014   10        2    17  36    6.52   424.8    6.7      45.952
2014   10        2    17  41    6.52   424.9    6.7      45.939
2014   10        2    17  46    6.51   424.9    6.7      45.926
2014   10        2    17  52    6.50   425.0    6.7      45.912
2014   10        2    17  57    6.50   425.0    6.7      45.898
2014   10        2    18   2    6.49   425.0    6.6      45.884
2014   10        2    18   7    6.49   425.1    6.6      45.869
2014   10        2    18  13    6.48   425.1    6.6      45.854
2014   10        2    18  18    6.48   425.2    6.6      45.839
2014   10        2    18  23    6.47   425.2    6.6      45.824
2014   10        2    18  29    6.47   425.2    6.6      45.808
2014   10        2    18  34    6.46   425.3    6.6      45.792
2014   10        2    18  39    6.45   425.3    6.6      45.775
2014   10        2    18  44    6.45   425.3    6.6      45.758
2014   10        2    18  50    6.44   425.4    6.6      45.742
2014   10        2    18  55    6.44   425.4    6.6      45.725
2014   10        2    19   0    6.43   425.4    6.6      45.707
2014   10        2    19   6    6.43   425.4    6.6      45.690
2014   10        2    19  11    6.42   425.5    6.5      45.672
2014   10        2    19  16    6.42   425.5    6.5      45.654
2014   10        2    19  21    6.41   425.5    6.5      45.636
2014   10        2    19  27    6.40   425.5    6.5      45.618
2014   10        2    19  32    6.40   425.6    6.5      45.599
2014   10        2    19  37    6.39   425.6    6.5      45.581
2014   10        2    19  43    6.39   425.6    6.5      45.562
2014   10        2    19  48    6.38   425.6    6.5      45.544
2014   10        2    19  53    6.38   425.6    6.5      45.525
2014   10        2    19  58    6.37   425.6    6.5      45.506
2014   10        2    20   4    6.37   425.7    6.5      45.487
2014   10        2    20   9    6.36   425.7    6.5      45.468
2014   10        2    20  14    6.35   425.7    6.5      45.448
2014   10        2    20  20    6.35   425.7    6.5      45.429
2014   10        2    20  25    6.34   425.7    6.4      45.410
2014   10        2    20  30    6.34   425.7    6.4      45.390
2014   10        2    20  35    6.33   425.7    6.4      45.371
2014   10        2    20  41    6.33   425.7    6.4      45.351
2014   10        2    20  46    6.32   425.8    6.4      45.332
2014   10        2    20  51    6.32   425.8    6.4      45.312
2014   10        2    20  57    6.31   425.8    6.4      45.292
2014   10        2    21   2    6.30   425.8    6.4      45.273
2014   10        2    21   7    6.30   425.8    6.4      45.253
2014   10        2    21  13    6.29   425.8    6.4      45.233
2014   10        2    21  18    6.29   425.8    6.4      45.213
2014   10        2    21  23    6.28   425.8    6.4      45.193
2014   10        2    21  28    6.28   425.8    6.4      45.173
2014   10        2    21  34    6.27   425.8    6.4      45.152
2014   10        2    21  39    6.27   425.8    6.4      45.132
2014   10        2    21  44    6.26   425.8    6.4      45.112
2014   10        2    21  50    6.25   425.8    6.3      45.091
2014   10        2    21  55    6.25   425.8    6.3      45.071
2014   10        2    22   0    6.24   425.8    6.3      45.050
2014   10        2    22   5    6.24   425.8    6.3      45.029
2014   10        2    22  11    6.23   425.8    6.3      45.008
2014   10        2    22  16    6.23   425.8    6.3      44.986
2014   10        2    22  21    6.22   425.8    6.3      44.965
2014   10        2    22  27    6.22   425.8    6.3      44.942
2014   10        2    22  32    6.21   425.8    6.3      44.920
2014   10        2    22  37    6.20   425.8    6.3      44.897
2014   10        2    22  42    6.20   425.8    6.3      44.874
2014   10        2    22  48    6.19   425.7    6.3      44.850
2014   10        2    22  53    6.19   425.7    6.3      44.827
2014   10        2    22  58    6.18   425.7    6.3      44.803
2014   10        2    23   4    6.18   425.7    6.3      44.779
2014   10        2    23   9    6.17   425.7    6.3      44.754
2014   10        2    23  14    6.16   425.7    6.3      44.729
2014   10        2    23  19    6.16   425.6    6.2      44.703
2014   10        2    23  25    6.15   425.6    6.2      44.678
2014   10        2    23  30    6.15   425.6    6.2      44.651
2014   10        2    23  35    6.14   425.6    6.2      44.625
2014   10        2    23  41    6.14   425.6    6.2      44.598
2014   10        2    23  46    6.13   425.5    6.2      44.571
2014   10        2    23  51    6.13   425.5    6.2      44.543
2014   10        2    23  56    6.12   425.5    6.2      44.516
2014   10        3     0   2    6.11   425.5    6.2      44.487
