year    month   day   hour  minute  B_enl V_enl   n_enl       T_enl
[year] [month] [day] [hour][minute] [nT]  [km/s]  [cm-3]      [kK]
2014    9        6     0   4    4.41   417.5    5.5      35.687
2014    9        6     0   9    4.41   417.4    5.5      35.675
2014    9        6     0  14    4.42   417.3    5.5      35.663
2014    9        6     0  20    4.42   417.2    5.5      35.651
2014    9        6     0  25    4.42   417.0    5.5      35.639
2014    9        6     0  31    4.42   416.9    5.5      35.627
2014    9        6     0  36    4.42   416.8    5.5      35.616
2014    9        6     0  41    4.42   416.6    5.5      35.604
2014    9        6     0  47    4.43   416.5    5.5      35.592
2014    9        6     0  52    4.43   416.4    5.5      35.580
2014    9        6     0  57    4.43   416.3    5.5      35.568
2014    9        6     1   3    4.43   416.1    5.5      35.556
2014    9        6     1   8    4.43   416.0    5.5      35.544
2014    9        6     1  14    4.44   415.9    5.5      35.532
2014    9        6     1  19    4.44   415.8    5.5      35.520
2014    9        6     1  24    4.44   415.6    5.6      35.509
2014    9        6     1  30    4.44   415.5    5.6      35.497
2014    9        6     1  35    4.44   415.4    5.6      35.485
2014    9        6     1  41    4.45   415.3    5.6      35.473
2014    9        6     1  46    4.45   415.1    5.6      35.461
2014    9        6     1  51    4.45   415.0    5.6      35.449
2014    9        6     1  57    4.45   414.9    5.6      35.438
2014    9        6     2   2    4.45   414.8    5.6      35.426
2014    9        6     2   8    4.45   414.7    5.6      35.414
2014    9        6     2  13    4.46   414.5    5.6      35.403
2014    9        6     2  18    4.46   414.4    5.6      35.391
2014    9        6     2  24    4.46   414.3    5.6      35.379
2014    9        6     2  29    4.46   414.2    5.6      35.368
2014    9        6     2  34    4.46   414.1    5.6      35.356
2014    9        6     2  40    4.47   413.9    5.6      35.345
2014    9        6     2  45    4.47   413.8    5.6      35.334
2014    9        6     2  51    4.47   413.7    5.6      35.323
2014    9        6     2  56    4.47   413.6    5.6      35.312
2014    9        6     3   1    4.47   413.5    5.6      35.301
2014    9        6     3   7    4.48   413.4    5.6      35.290
2014    9        6     3  12    4.48   413.2    5.7      35.279
2014    9        6     3  18    4.48   413.1    5.7      35.269
2014    9        6     3  23    4.48   413.0    5.7      35.259
2014    9        6     3  28    4.48   412.9    5.7      35.248
2014    9        6     3  34    4.48   412.8    5.7      35.238
2014    9        6     3  39    4.49   412.7    5.7      35.228
2014    9        6     3  44    4.49   412.6    5.7      35.218
2014    9        6     3  50    4.49   412.4    5.7      35.209
2014    9        6     3  55    4.49   412.3    5.7      35.199
2014    9        6     4   1    4.49   412.2    5.7      35.190
2014    9        6     4   6    4.50   412.1    5.7      35.181
2014    9        6     4  11    4.50   412.0    5.7      35.172
2014    9        6     4  17    4.50   411.9    5.7      35.163
2014    9        6     4  22    4.50   411.8    5.7      35.154
2014    9        6     4  28    4.50   411.7    5.7      35.145
2014    9        6     4  33    4.51   411.6    5.7      35.137
2014    9        6     4  38    4.51   411.5    5.7      35.129
2014    9        6     4  44    4.51   411.3    5.7      35.120
2014    9        6     4  49    4.51   411.2    5.7      35.112
2014    9        6     4  55    4.52   411.1    5.8      35.105
2014    9        6     5   0    4.52   411.0    5.8      35.097
2014    9        6     5   5    4.52   410.9    5.8      35.090
2014    9        6     5  11    4.52   410.8    5.8      35.082
2014    9        6     5  16    4.52   410.7    5.8      35.075
2014    9        6     5  21    4.53   410.6    5.8      35.068
2014    9        6     5  27    4.53   410.5    5.8      35.061
2014    9        6     5  32    4.53   410.4    5.8      35.054
2014    9        6     5  38    4.53   410.3    5.8      35.047
2014    9        6     5  43    4.53   410.2    5.8      35.041
2014    9        6     5  48    4.54   410.1    5.8      35.035
2014    9        6     5  54    4.54   410.0    5.8      35.028
2014    9        6     5  59    4.54   409.9    5.8      35.022
2014    9        6     6   5    4.54   409.8    5.8      35.016
2014    9        6     6  10    4.54   409.7    5.8      35.010
2014    9        6     6  15    4.55   409.6    5.8      35.004
2014    9        6     6  21    4.55   409.5    5.8      34.999
2014    9        6     6  26    4.55   409.4    5.8      34.993
2014    9        6     6  32    4.55   409.3    5.9      34.988
2014    9        6     6  37    4.55   409.2    5.9      34.982
2014    9        6     6  42    4.56   409.1    5.9      34.977
2014    9        6     6  48    4.56   409.0    5.9      34.971
2014    9        6     6  53    4.56   408.9    5.9      34.966
2014    9        6     6  58    4.56   408.8    5.9      34.961
2014    9        6     7   4    4.57   408.7    5.9      34.956
2014    9        6     7   9    4.57   408.6    5.9      34.951
2014    9        6     7  15    4.57   408.5    5.9      34.946
2014    9        6     7  20    4.57   408.4    5.9      34.941
2014    9        6     7  25    4.57   408.3    5.9      34.936
2014    9        6     7  31    4.58   408.2    5.9      34.931
2014    9        6     7  36    4.58   408.1    5.9      34.926
2014    9        6     7  42    4.58   408.0    5.9      34.921
2014    9        6     7  47    4.58   407.9    5.9      34.916
2014    9        6     7  52    4.59   407.8    5.9      34.911
2014    9        6     7  58    4.59   407.8    5.9      34.906
2014    9        6     8   3    4.59   407.7    5.9      34.901
2014    9        6     8   8    4.59   407.6    5.9      34.897
2014    9        6     8  14    4.59   407.5    5.9      34.892
2014    9        6     8  19    4.60   407.4    6.0      34.887
2014    9        6     8  25    4.60   407.3    6.0      34.882
2014    9        6     8  30    4.60   407.2    6.0      34.877
2014    9        6     8  35    4.60   407.1    6.0      34.872
2014    9        6     8  41    4.60   407.0    6.0      34.867
2014    9        6     8  46    4.61   406.9    6.0      34.861
2014    9        6     8  52    4.61   406.9    6.0      34.856
2014    9        6     8  57    4.61   406.8    6.0      34.851
2014    9        6     9   2    4.61   406.7    6.0      34.846
2014    9        6     9   8    4.62   406.6    6.0      34.841
2014    9        6     9  13    4.62   406.5    6.0      34.836
2014    9        6     9  19    4.62   406.4    6.0      34.830
2014    9        6     9  24    4.62   406.3    6.0      34.825
2014    9        6     9  29    4.62   406.3    6.0      34.819
2014    9        6     9  35    4.63   406.2    6.0      34.814
2014    9        6     9  40    4.63   406.1    6.0      34.809
2014    9        6     9  45    4.63   406.0    6.0      34.803
2014    9        6     9  51    4.63   405.9    6.0      34.798
2014    9        6     9  56    4.63   405.8    6.0      34.792
2014    9        6    10   2    4.64   405.7    6.0      34.787
2014    9        6    10   7    4.64   405.7    6.0      34.781
2014    9        6    10  12    4.64   405.6    6.0      34.776
2014    9        6    10  18    4.64   405.5    6.1      34.770
2014    9        6    10  23    4.65   405.4    6.1      34.765
2014    9        6    10  29    4.65   405.3    6.1      34.759
2014    9        6    10  34    4.65   405.2    6.1      34.754
2014    9        6    10  39    4.65   405.1    6.1      34.748
2014    9        6    10  45    4.65   405.1    6.1      34.743
2014    9        6    10  50    4.66   405.0    6.1      34.738
2014    9        6    10  55    4.66   404.9    6.1      34.733
2014    9        6    11   1    4.66   404.8    6.1      34.728
2014    9        6    11   6    4.66   404.7    6.1      34.723
2014    9        6    11  12    4.67   404.6    6.1      34.718
2014    9        6    11  17    4.67   404.6    6.1      34.713
2014    9        6    11  22    4.67   404.5    6.1      34.708
2014    9        6    11  28    4.67   404.4    6.1      34.704
2014    9        6    11  33    4.67   404.3    6.1      34.699
2014    9        6    11  39    4.68   404.2    6.1      34.695
2014    9        6    11  44    4.68   404.2    6.1      34.691
2014    9        6    11  49    4.68   404.1    6.1      34.687
2014    9        6    11  55    4.68   404.0    6.1      34.682
2014    9        6    12   0    4.68   403.9    6.1      34.679
2014    9        6    12   6    4.69   403.8    6.1      34.675
2014    9        6    12  11    4.69   403.7    6.1      34.672
2014    9        6    12  16    4.69   403.7    6.2      34.668
2014    9        6    12  22    4.69   403.6    6.2      34.665
2014    9        6    12  27    4.70   403.5    6.2      34.662
2014    9        6    12  32    4.70   403.4    6.2      34.659
2014    9        6    12  38    4.70   403.3    6.2      34.657
2014    9        6    12  43    4.70   403.3    6.2      34.654
2014    9        6    12  49    4.70   403.2    6.2      34.652
2014    9        6    12  54    4.71   403.1    6.2      34.650
2014    9        6    12  59    4.71   403.0    6.2      34.648
2014    9        6    13   5    4.71   402.9    6.2      34.646
2014    9        6    13  10    4.71   402.9    6.2      34.644
2014    9        6    13  16    4.72   402.8    6.2      34.642
2014    9        6    13  21    4.72   402.7    6.2      34.641
2014    9        6    13  26    4.72   402.6    6.2      34.639
2014    9        6    13  32    4.72   402.6    6.2      34.638
2014    9        6    13  37    4.73   402.5    6.2      34.637
2014    9        6    13  42    4.73   402.4    6.2      34.636
2014    9        6    13  48    4.73   402.3    6.2      34.635
2014    9        6    13  53    4.73   402.3    6.2      34.634
2014    9        6    13  59    4.73   402.2    6.2      34.633
2014    9        6    14   4    4.74   402.1    6.2      34.633
2014    9        6    14   9    4.74   402.0    6.2      34.632
2014    9        6    14  15    4.74   402.0    6.2      34.632
2014    9        6    14  20    4.74   401.9    6.3      34.631
2014    9        6    14  26    4.75   401.8    6.3      34.631
2014    9        6    14  31    4.75   401.7    6.3      34.631
2014    9        6    14  36    4.75   401.7    6.3      34.630
2014    9        6    14  42    4.75   401.6    6.3      34.630
2014    9        6    14  47    4.76   401.5    6.3      34.630
2014    9        6    14  53    4.76   401.5    6.3      34.630
2014    9        6    14  58    4.76   401.4    6.3      34.630
2014    9        6    15   3    4.76   401.3    6.3      34.629
2014    9        6    15   9    4.77   401.3    6.3      34.629
2014    9        6    15  14    4.77   401.2    6.3      34.629
2014    9        6    15  19    4.77   401.1    6.3      34.629
2014    9        6    15  25    4.77   401.0    6.3      34.629
2014    9        6    15  30    4.78   401.0    6.3      34.629
2014    9        6    15  36    4.78   400.9    6.3      34.629
2014    9        6    15  41    4.78   400.8    6.3      34.629
2014    9        6    15  46    4.78   400.8    6.3      34.629
2014    9        6    15  52    4.78   400.7    6.3      34.629
2014    9        6    15  57    4.79   400.6    6.3      34.629
2014    9        6    16   3    4.79   400.6    6.3      34.629
2014    9        6    16   8    4.79   400.5    6.3      34.629
2014    9        6    16  13    4.79   400.4    6.3      34.629
2014    9        6    16  19    4.80   400.4    6.3      34.629
2014    9        6    16  24    4.80   400.3    6.4      34.629
2014    9        6    16  30    4.80   400.2    6.4      34.629
2014    9        6    16  35    4.80   400.2    6.4      34.629
2014    9        6    16  40    4.81   400.1    6.4      34.629
2014    9        6    16  46    4.81   400.0    6.4      34.629
2014    9        6    16  51    4.81   400.0    6.4      34.629
2014    9        6    16  56    4.81   399.9    6.4      34.629
2014    9        6    17   2    4.82   399.9    6.4      34.629
2014    9        6    17   7    4.82   399.8    6.4      34.629
2014    9        6    17  13    4.82   399.7    6.4      34.629
2014    9        6    17  18    4.82   399.7    6.4      34.629
2014    9        6    17  23    4.83   399.6    6.4      34.629
2014    9        6    17  29    4.83   399.5    6.4      34.629
2014    9        6    17  34    4.83   399.5    6.4      34.628
2014    9        6    17  40    4.83   399.4    6.4      34.628
2014    9        6    17  45    4.84   399.4    6.4      34.628
2014    9        6    17  50    4.84   399.3    6.4      34.628
2014    9        6    17  56    4.84   399.2    6.4      34.628
2014    9        6    18   1    4.84   399.2    6.4      34.628
2014    9        6    18   6    4.85   399.1    6.4      34.628
2014    9        6    18  12    4.85   399.1    6.4      34.629
2014    9        6    18  17    4.85   399.0    6.4      34.629
2014    9        6    18  23    4.85   398.9    6.4      34.629
2014    9        6    18  28    4.86   398.9    6.4      34.629
2014    9        6    18  33    4.86   398.8    6.4      34.629
2014    9        6    18  39    4.86   398.7    6.5      34.630
2014    9        6    18  44    4.86   398.7    6.5      34.630
2014    9        6    18  50    4.86   398.6    6.5      34.630
2014    9        6    18  55    4.87   398.6    6.5      34.631
2014    9        6    19   0    4.87   398.5    6.5      34.632
2014    9        6    19   6    4.87   398.4    6.5      34.632
2014    9        6    19  11    4.87   398.4    6.5      34.633
2014    9        6    19  17    4.88   398.3    6.5      34.634
2014    9        6    19  22    4.88   398.3    6.5      34.634
2014    9        6    19  27    4.88   398.2    6.5      34.635
2014    9        6    19  33    4.88   398.1    6.5      34.636
2014    9        6    19  38    4.89   398.1    6.5      34.637
2014    9        6    19  43    4.89   398.0    6.5      34.638
2014    9        6    19  49    4.89   398.0    6.5      34.639
2014    9        6    19  54    4.89   397.9    6.5      34.641
2014    9        6    20   0    4.90   397.8    6.5      34.642
2014    9        6    20   5    4.90   397.8    6.5      34.644
2014    9        6    20  10    4.90   397.7    6.5      34.645
2014    9        6    20  16    4.90   397.7    6.5      34.647
2014    9        6    20  21    4.91   397.6    6.5      34.648
2014    9        6    20  27    4.91   397.6    6.5      34.650
2014    9        6    20  32    4.91   397.5    6.5      34.651
2014    9        6    20  37    4.91   397.4    6.5      34.653
2014    9        6    20  43    4.92   397.4    6.5      34.655
2014    9        6    20  48    4.92   397.3    6.5      34.657
2014    9        6    20  53    4.92   397.3    6.5      34.659
2014    9        6    20  59    4.92   397.2    6.6      34.662
2014    9        6    21   4    4.93   397.2    6.6      34.664
2014    9        6    21  10    4.93   397.1    6.6      34.666
2014    9        6    21  15    4.93   397.0    6.6      34.669
2014    9        6    21  20    4.93   397.0    6.6      34.671
2014    9        6    21  26    4.94   396.9    6.6      34.674
2014    9        6    21  31    4.94   396.9    6.6      34.677
2014    9        6    21  37    4.94   396.8    6.6      34.680
2014    9        6    21  42    4.94   396.8    6.6      34.683
2014    9        6    21  47    4.95   396.7    6.6      34.686
2014    9        6    21  53    4.95   396.7    6.6      34.689
2014    9        6    21  58    4.95   396.6    6.6      34.692
2014    9        6    22   4    4.95   396.5    6.6      34.696
2014    9        6    22   9    4.96   396.5    6.6      34.699
2014    9        6    22  14    4.96   396.4    6.6      34.703
2014    9        6    22  20    4.96   396.4    6.6      34.707
2014    9        6    22  25    4.96   396.3    6.6      34.711
2014    9        6    22  30    4.97   396.3    6.6      34.715
2014    9        6    22  36    4.97   396.2    6.6      34.719
2014    9        6    22  41    4.97   396.2    6.6      34.723
2014    9        6    22  47    4.97   396.1    6.6      34.727
2014    9        6    22  52    4.98   396.1    6.6      34.732
2014    9        6    22  57    4.98   396.0    6.6      34.736
2014    9        6    23   3    4.98   396.0    6.6      34.741
2014    9        6    23   8    4.99   395.9    6.6      34.746
2014    9        6    23  14    4.99   395.9    6.6      34.751
2014    9        6    23  19    4.99   395.8    6.7      34.756
2014    9        6    23  24    4.99   395.8    6.7      34.761
2014    9        6    23  30    5.00   395.7    6.7      34.766
2014    9        6    23  35    5.00   395.7    6.7      34.771
2014    9        6    23  40    5.00   395.7    6.7      34.777
2014    9        6    23  46    5.00   395.6    6.7      34.782
2014    9        6    23  51    5.01   395.6    6.7      34.788
2014    9        6    23  57    5.01   395.5    6.7      34.794
2014    9        7     0   2    5.01   395.5    6.7      34.800
2014    9        7     0   7    5.02   395.4    6.7      34.807
2014    9        7     0  13    5.02   395.4    6.7      34.814
2014    9        7     0  18    5.02   395.3    6.7      34.821
2014    9        7     0  24    5.02   395.3    6.7      34.828
2014    9        7     0  29    5.03   395.3    6.7      34.835
2014    9        7     0  34    5.03   395.2    6.7      34.843
2014    9        7     0  40    5.03   395.2    6.7      34.850
2014    9        7     0  45    5.03   395.1    6.7      34.858
2014    9        7     0  51    5.04   395.1    6.7      34.865
2014    9        7     0  56    5.04   395.1    6.7      34.873
2014    9        7     1   1    5.04   395.0    6.7      34.880
2014    9        7     1   7    5.04   395.0    6.7      34.888
2014    9        7     1  12    5.05   394.9    6.7      34.896
2014    9        7     1  17    5.05   394.9    6.7      34.904
2014    9        7     1  23    5.05   394.9    6.8      34.912
2014    9        7     1  28    5.05   394.8    6.8      34.919
2014    9        7     1  34    5.06   394.8    6.8      34.927
2014    9        7     1  39    5.06   394.8    6.8      34.935
2014    9        7     1  44    5.06   394.7    6.8      34.943
2014    9        7     1  50    5.06   394.7    6.8      34.950
2014    9        7     1  55    5.07   394.6    6.8      34.958
2014    9        7     2   1    5.07   394.6    6.8      34.965
2014    9        7     2   6    5.07   394.6    6.8      34.973
2014    9        7     2  11    5.07   394.5    6.8      34.980
2014    9        7     2  17    5.08   394.5    6.8      34.988
2014    9        7     2  22    5.08   394.5    6.8      34.995
2014    9        7     2  27    5.08   394.4    6.8      35.002
2014    9        7     2  33    5.08   394.4    6.8      35.009
2014    9        7     2  38    5.09   394.4    6.8      35.016
2014    9        7     2  44    5.09   394.3    6.8      35.023
2014    9        7     2  49    5.09   394.3    6.8      35.030
2014    9        7     2  54    5.09   394.3    6.8      35.037
2014    9        7     3   0    5.10   394.2    6.8      35.044
2014    9        7     3   5    5.10   394.2    6.8      35.051
2014    9        7     3  11    5.10   394.1    6.8      35.057
2014    9        7     3  16    5.10   394.1    6.8      35.064
2014    9        7     3  21    5.11   394.1    6.8      35.071
2014    9        7     3  27    5.11   394.0    6.8      35.077
2014    9        7     3  32    5.11   394.0    6.8      35.084
2014    9        7     3  38    5.11   394.0    6.8      35.090
2014    9        7     3  43    5.12   393.9    6.9      35.097
2014    9        7     3  48    5.12   393.9    6.9      35.103
2014    9        7     3  54    5.12   393.9    6.9      35.110
2014    9        7     3  59    5.12   393.8    6.9      35.117
2014    9        7     4   4    5.13   393.8    6.9      35.123
2014    9        7     4  10    5.13   393.8    6.9      35.130
2014    9        7     4  15    5.13   393.8    6.9      35.137
2014    9        7     4  21    5.13   393.7    6.9      35.144
2014    9        7     4  26    5.14   393.7    6.9      35.151
2014    9        7     4  31    5.14   393.7    6.9      35.157
2014    9        7     4  37    5.14   393.6    6.9      35.164
2014    9        7     4  42    5.14   393.6    6.9      35.171
2014    9        7     4  48    5.14   393.6    6.9      35.178
2014    9        7     4  53    5.15   393.5    6.9      35.185
2014    9        7     4  58    5.15   393.5    6.9      35.193
2014    9        7     5   4    5.15   393.5    6.9      35.200
2014    9        7     5   9    5.15   393.4    6.9      35.208
2014    9        7     5  15    5.16   393.4    6.9      35.215
2014    9        7     5  20    5.16   393.4    6.9      35.223
2014    9        7     5  25    5.16   393.4    6.9      35.231
2014    9        7     5  31    5.16   393.3    6.9      35.239
2014    9        7     5  36    5.17   393.3    6.9      35.247
2014    9        7     5  41    5.17   393.3    6.9      35.255
2014    9        7     5  47    5.17   393.2    6.9      35.264
2014    9        7     5  52    5.17   393.2    6.9      35.272
2014    9        7     5  58    5.18   393.2    6.9      35.281
2014    9        7     6   3    5.18   393.2    6.9      35.290
2014    9        7     6   8    5.18   393.1    6.9      35.300
2014    9        7     6  14    5.18   393.1    6.9      35.309
2014    9        7     6  19    5.19   393.1    6.9      35.319
2014    9        7     6  25    5.19   393.1    6.9      35.329
2014    9        7     6  30    5.19   393.0    7.0      35.339
2014    9        7     6  35    5.19   393.0    7.0      35.349
2014    9        7     6  41    5.20   393.0    7.0      35.360
2014    9        7     6  46    5.20   393.0    7.0      35.371
2014    9        7     6  51    5.20   393.0    7.0      35.382
2014    9        7     6  57    5.20   392.9    7.0      35.394
2014    9        7     7   2    5.21   392.9    7.0      35.405
2014    9        7     7   8    5.21   392.9    7.0      35.417
2014    9        7     7  13    5.21   392.9    7.0      35.429
2014    9        7     7  18    5.21   392.9    7.0      35.441
2014    9        7     7  24    5.22   392.8    7.0      35.454
2014    9        7     7  29    5.22   392.8    7.0      35.467
2014    9        7     7  35    5.22   392.8    7.0      35.480
2014    9        7     7  40    5.23   392.8    7.0      35.494
2014    9        7     7  45    5.23   392.8    7.0      35.507
2014    9        7     7  51    5.23   392.8    7.0      35.522
2014    9        7     7  56    5.23   392.8    7.0      35.536
2014    9        7     8   1    5.23   392.8    7.0      35.551
2014    9        7     8   7    5.24   392.7    7.0      35.566
2014    9        7     8  12    5.24   392.7    7.0      35.581
2014    9        7     8  18    5.24   392.7    7.0      35.597
2014    9        7     8  23    5.24   392.7    7.0      35.613
2014    9        7     8  28    5.25   392.7    7.0      35.629
2014    9        7     8  34    5.25   392.7    7.0      35.645
2014    9        7     8  39    5.25   392.7    7.0      35.661
2014    9        7     8  45    5.25   392.7    7.0      35.677
2014    9        7     8  50    5.26   392.7    7.1      35.693
2014    9        7     8  55    5.26   392.7    7.1      35.709
2014    9        7     9   1    5.26   392.7    7.1      35.725
2014    9        7     9   6    5.26   392.7    7.1      35.741
2014    9        7     9  12    5.26   392.6    7.1      35.757
2014    9        7     9  17    5.27   392.6    7.1      35.773
2014    9        7     9  22    5.27   392.6    7.1      35.789
2014    9        7     9  28    5.27   392.6    7.1      35.804
2014    9        7     9  33    5.27   392.6    7.1      35.819
2014    9        7     9  38    5.27   392.6    7.1      35.835
2014    9        7     9  44    5.28   392.6    7.1      35.850
2014    9        7     9  49    5.28   392.6    7.1      35.864
2014    9        7     9  55    5.28   392.6    7.1      35.879
2014    9        7    10   0    5.28   392.6    7.1      35.894
2014    9        7    10   5    5.28   392.6    7.1      35.908
2014    9        7    10  11    5.29   392.6    7.1      35.922
2014    9        7    10  16    5.29   392.6    7.1      35.936
2014    9        7    10  22    5.29   392.6    7.1      35.950
2014    9        7    10  27    5.29   392.6    7.1      35.964
2014    9        7    10  32    5.30   392.5    7.1      35.978
2014    9        7    10  38    5.30   392.5    7.1      35.991
2014    9        7    10  43    5.30   392.5    7.1      36.005
2014    9        7    10  49    5.30   392.5    7.1      36.018
2014    9        7    10  54    5.30   392.5    7.1      36.032
2014    9        7    10  59    5.31   392.5    7.1      36.046
2014    9        7    11   5    5.31   392.5    7.1      36.060
2014    9        7    11  10    5.31   392.5    7.1      36.074
2014    9        7    11  15    5.31   392.5    7.1      36.089
2014    9        7    11  21    5.31   392.5    7.1      36.104
2014    9        7    11  26    5.32   392.5    7.1      36.119
2014    9        7    11  32    5.32   392.5    7.1      36.134
2014    9        7    11  37    5.32   392.5    7.2      36.150
2014    9        7    11  42    5.32   392.5    7.2      36.166
2014    9        7    11  48    5.32   392.5    7.2      36.181
2014    9        7    11  53    5.32   392.5    7.2      36.196
2014    9        7    11  59    5.33   392.5    7.2      36.211
2014    9        7    12   4    5.33   392.5    7.2      36.226
2014    9        7    12   9    5.33   392.5    7.2      36.241
2014    9        7    12  15    5.33   392.5    7.2      36.256
2014    9        7    12  20    5.33   392.5    7.2      36.270
2014    9        7    12  25    5.34   392.5    7.2      36.285
2014    9        7    12  31    5.34   392.5    7.2      36.299
2014    9        7    12  36    5.34   392.5    7.2      36.313
2014    9        7    12  42    5.34   392.5    7.2      36.327
2014    9        7    12  47    5.34   392.5    7.2      36.341
2014    9        7    12  52    5.34   392.5    7.2      36.355
2014    9        7    12  58    5.35   392.5    7.2      36.369
2014    9        7    13   3    5.35   392.5    7.2      36.382
2014    9        7    13   9    5.35   392.5    7.2      36.396
2014    9        7    13  14    5.35   392.5    7.2      36.409
2014    9        7    13  19    5.35   392.5    7.2      36.422
2014    9        7    13  25    5.35   392.5    7.2      36.436
2014    9        7    13  30    5.36   392.5    7.2      36.449
2014    9        7    13  35    5.36   392.5    7.2      36.462
2014    9        7    13  41    5.36   392.5    7.2      36.475
2014    9        7    13  46    5.36   392.5    7.2      36.489
2014    9        7    13  52    5.36   392.5    7.2      36.502
2014    9        7    13  57    5.36   392.5    7.2      36.515
2014    9        7    14   2    5.37   392.5    7.2      36.528
2014    9        7    14   8    5.37   392.5    7.2      36.541
2014    9        7    14  13    5.37   392.5    7.2      36.555
2014    9        7    14  19    5.37   392.5    7.2      36.568
2014    9        7    14  24    5.37   392.5    7.2      36.581
2014    9        7    14  29    5.37   392.5    7.2      36.595
2014    9        7    14  35    5.38   392.5    7.2      36.608
2014    9        7    14  40    5.38   392.5    7.2      36.621
2014    9        7    14  45    5.38   392.5    7.2      36.635
2014    9        7    14  51    5.38   392.6    7.2      36.648
2014    9        7    14  56    5.38   392.6    7.2      36.662
2014    9        7    15   2    5.38   392.6    7.2      36.675
2014    9        7    15   7    5.38   392.6    7.2      36.689
2014    9        7    15  12    5.39   392.6    7.2      36.703
2014    9        7    15  18    5.39   392.6    7.2      36.716
2014    9        7    15  23    5.39   392.6    7.2      36.730
2014    9        7    15  29    5.39   392.6    7.2      36.744
2014    9        7    15  34    5.39   392.6    7.2      36.758
2014    9        7    15  39    5.39   392.6    7.2      36.772
2014    9        7    15  45    5.39   392.6    7.2      36.786
2014    9        7    15  50    5.40   392.6    7.2      36.800
2014    9        7    15  55    5.40   392.6    7.2      36.814
2014    9        7    16   1    5.40   392.6    7.2      36.828
2014    9        7    16   6    5.40   392.6    7.2      36.843
2014    9        7    16  12    5.40   392.6    7.2      36.857
2014    9        7    16  17    5.40   392.6    7.2      36.871
2014    9        7    16  22    5.40   392.7    7.2      36.886
2014    9        7    16  28    5.41   392.7    7.2      36.900
2014    9        7    16  33    5.41   392.7    7.2      36.914
2014    9        7    16  39    5.41   392.7    7.2      36.928
2014    9        7    16  44    5.41   392.7    7.2      36.942
2014    9        7    16  49    5.41   392.7    7.2      36.956
2014    9        7    16  55    5.41   392.7    7.2      36.970
2014    9        7    17   0    5.41   392.7    7.2      36.984
2014    9        7    17   5    5.41   392.7    7.2      36.998
2014    9        7    17  11    5.42   392.7    7.3      37.012
2014    9        7    17  16    5.42   392.7    7.3      37.026
2014    9        7    17  22    5.42   392.7    7.3      37.040
2014    9        7    17  27    5.42   392.7    7.3      37.054
2014    9        7    17  32    5.42   392.7    7.3      37.068
2014    9        7    17  38    5.42   392.8    7.3      37.082
2014    9        7    17  43    5.42   392.8    7.3      37.096
2014    9        7    17  49    5.42   392.8    7.3      37.111
2014    9        7    17  54    5.43   392.8    7.3      37.125
2014    9        7    17  59    5.43   392.8    7.3      37.139
2014    9        7    18   5    5.43   392.8    7.3      37.154
2014    9        7    18  10    5.43   392.8    7.3      37.168
2014    9        7    18  16    5.43   392.8    7.3      37.183
2014    9        7    18  21    5.43   392.8    7.3      37.197
2014    9        7    18  26    5.43   392.8    7.3      37.212
2014    9        7    18  32    5.43   392.8    7.3      37.228
2014    9        7    18  37    5.43   392.9    7.3      37.244
2014    9        7    18  42    5.44   392.9    7.3      37.260
2014    9        7    18  48    5.44   392.9    7.3      37.276
2014    9        7    18  53    5.44   392.9    7.3      37.294
2014    9        7    18  59    5.44   392.9    7.3      37.311
2014    9        7    19   4    5.44   392.9    7.3      37.329
2014    9        7    19   9    5.44   392.9    7.3      37.346
2014    9        7    19  15    5.44   392.9    7.3      37.364
2014    9        7    19  20    5.44   393.0    7.3      37.382
2014    9        7    19  26    5.45   393.0    7.3      37.399
2014    9        7    19  31    5.45   393.0    7.3      37.417
2014    9        7    19  36    5.45   393.0    7.3      37.435
2014    9        7    19  42    5.45   393.0    7.3      37.454
2014    9        7    19  47    5.45   393.0    7.3      37.473
2014    9        7    19  52    5.45   393.1    7.3      37.492
2014    9        7    19  58    5.45   393.1    7.3      37.511
2014    9        7    20   3    5.45   393.1    7.3      37.531
2014    9        7    20   9    5.45   393.1    7.3      37.550
2014    9        7    20  14    5.45   393.1    7.3      37.570
2014    9        7    20  19    5.46   393.1    7.3      37.589
2014    9        7    20  25    5.46   393.2    7.3      37.607
2014    9        7    20  30    5.46   393.2    7.3      37.626
2014    9        7    20  36    5.46   393.2    7.3      37.644
2014    9        7    20  41    5.46   393.2    7.3      37.661
2014    9        7    20  46    5.46   393.2    7.3      37.679
2014    9        7    20  52    5.46   393.2    7.3      37.696
2014    9        7    20  57    5.46   393.3    7.3      37.713
2014    9        7    21   3    5.46   393.3    7.3      37.729
2014    9        7    21   8    5.46   393.3    7.3      37.745
2014    9        7    21  13    5.46   393.3    7.3      37.761
2014    9        7    21  19    5.46   393.3    7.3      37.776
2014    9        7    21  24    5.46   393.3    7.3      37.791
2014    9        7    21  29    5.47   393.3    7.3      37.806
2014    9        7    21  35    5.47   393.4    7.3      37.820
2014    9        7    21  40    5.47   393.4    7.3      37.834
2014    9        7    21  46    5.47   393.4    7.3      37.848
2014    9        7    21  51    5.47   393.4    7.3      37.862
2014    9        7    21  56    5.47   393.4    7.3      37.875
2014    9        7    22   2    5.47   393.4    7.3      37.888
2014    9        7    22   7    5.47   393.4    7.3      37.901
2014    9        7    22  13    5.47   393.4    7.3      37.914
2014    9        7    22  18    5.47   393.4    7.3      37.926
2014    9        7    22  23    5.47   393.5    7.3      37.938
2014    9        7    22  29    5.47   393.5    7.3      37.950
2014    9        7    22  34    5.47   393.5    7.3      37.962
2014    9        7    22  40    5.47   393.5    7.3      37.973
2014    9        7    22  45    5.47   393.5    7.3      37.985
2014    9        7    22  50    5.47   393.5    7.3      37.996
2014    9        7    22  56    5.47   393.5    7.3      38.007
2014    9        7    23   1    5.47   393.5    7.3      38.018
2014    9        7    23   7    5.47   393.5    7.3      38.029
2014    9        7    23  12    5.48   393.5    7.3      38.040
2014    9        7    23  17    5.48   393.6    7.3      38.051
2014    9        7    23  23    5.48   393.6    7.3      38.062
2014    9        7    23  28    5.48   393.6    7.3      38.072
2014    9        7    23  33    5.48   393.6    7.3      38.083
2014    9        7    23  39    5.48   393.6    7.3      38.093
2014    9        7    23  44    5.48   393.6    7.3      38.104
2014    9        7    23  50    5.48   393.6    7.3      38.114
2014    9        7    23  55    5.48   393.6    7.3      38.125
2014    9        8     0   0    5.48   393.6    7.3      38.135
2014    9        8     0   6    5.48   393.6    7.3      38.145
2014    9        8     0  11    5.48   393.6    7.3      38.156
2014    9        8     0  17    5.48   393.6    7.3      38.166
2014    9        8     0  22    5.48   393.7    7.3      38.177
2014    9        8     0  27    5.48   393.7    7.3      38.188
2014    9        8     0  33    5.48   393.7    7.3      38.198
2014    9        8     0  38    5.48   393.7    7.3      38.209
2014    9        8     0  44    5.48   393.7    7.3      38.219
2014    9        8     0  49    5.48   393.7    7.3      38.230
2014    9        8     0  54    5.48   393.7    7.3      38.241
2014    9        8     1   0    5.48   393.7    7.3      38.252
2014    9        8     1   5    5.48   393.7    7.3      38.263
2014    9        8     1  11    5.49   393.7    7.3      38.274
2014    9        8     1  16    5.49   393.7    7.3      38.286
2014    9        8     1  21    5.49   393.7    7.3      38.297
2014    9        8     1  27    5.49   393.8    7.3      38.309
2014    9        8     1  32    5.49   393.8    7.3      38.321
2014    9        8     1  37    5.49   393.8    7.3      38.333
2014    9        8     1  43    5.49   393.8    7.3      38.346
2014    9        8     1  48    5.49   393.8    7.3      38.358
2014    9        8     1  54    5.49   393.8    7.3      38.371
2014    9        8     1  59    5.49   393.8    7.3      38.383
2014    9        8     2   4    5.49   393.8    7.3      38.396
2014    9        8     2  10    5.49   393.8    7.3      38.409
2014    9        8     2  15    5.49   393.9    7.3      38.422
2014    9        8     2  21    5.49   393.9    7.3      38.435
2014    9        8     2  26    5.49   393.9    7.3      38.449
2014    9        8     2  31    5.49   393.9    7.3      38.462
2014    9        8     2  37    5.49   393.9    7.3      38.476
2014    9        8     2  42    5.49   393.9    7.3      38.489
2014    9        8     2  48    5.49   393.9    7.3      38.503
2014    9        8     2  53    5.49   393.9    7.3      38.517
2014    9        8     2  58    5.49   393.9    7.3      38.532
2014    9        8     3   4    5.50   394.0    7.3      38.547
2014    9        8     3   9    5.50   394.0    7.3      38.563
2014    9        8     3  14    5.50   394.0    7.3      38.579
2014    9        8     3  20    5.50   394.0    7.3      38.595
2014    9        8     3  25    5.50   394.0    7.3      38.612
2014    9        8     3  31    5.50   394.0    7.3      38.629
2014    9        8     3  36    5.50   394.1    7.3      38.647
2014    9        8     3  41    5.50   394.1    7.3      38.664
2014    9        8     3  47    5.50   394.1    7.3      38.681
2014    9        8     3  52    5.50   394.1    7.3      38.698
2014    9        8     3  58    5.50   394.1    7.3      38.715
2014    9        8     4   3    5.50   394.1    7.3      38.732
2014    9        8     4   8    5.50   394.2    7.3      38.748
2014    9        8     4  14    5.50   394.2    7.3      38.765
2014    9        8     4  19    5.50   394.2    7.3      38.781
2014    9        8     4  25    5.50   394.2    7.3      38.797
2014    9        8     4  30    5.50   394.2    7.3      38.813
2014    9        8     4  35    5.50   394.2    7.3      38.829
2014    9        8     4  41    5.50   394.3    7.3      38.845
2014    9        8     4  46    5.50   394.3    7.3      38.860
2014    9        8     4  51    5.50   394.3    7.3      38.876
2014    9        8     4  57    5.50   394.3    7.3      38.891
2014    9        8     5   2    5.50   394.3    7.3      38.905
2014    9        8     5   8    5.50   394.3    7.3      38.920
2014    9        8     5  13    5.50   394.4    7.3      38.934
2014    9        8     5  18    5.50   394.4    7.3      38.949
2014    9        8     5  24    5.50   394.4    7.3      38.963
2014    9        8     5  29    5.50   394.4    7.3      38.976
2014    9        8     5  35    5.50   394.4    7.3      38.990
2014    9        8     5  40    5.50   394.4    7.3      39.003
2014    9        8     5  45    5.50   394.4    7.3      39.016
2014    9        8     5  51    5.50   394.5    7.3      39.029
2014    9        8     5  56    5.50   394.5    7.3      39.042
2014    9        8     6   2    5.50   394.5    7.3      39.054
2014    9        8     6   7    5.50   394.5    7.3      39.066
2014    9        8     6  12    5.50   394.5    7.4      39.078
2014    9        8     6  18    5.50   394.5    7.4      39.090
2014    9        8     6  23    5.50   394.5    7.4      39.101
2014    9        8     6  29    5.50   394.5    7.4      39.113
2014    9        8     6  34    5.50   394.6    7.4      39.124
2014    9        8     6  39    5.50   394.6    7.4      39.135
2014    9        8     6  45    5.50   394.6    7.4      39.145
2014    9        8     6  50    5.50   394.6    7.4      39.156
2014    9        8     6  55    5.50   394.6    7.4      39.166
2014    9        8     7   1    5.50   394.6    7.4      39.177
2014    9        8     7   6    5.50   394.6    7.4      39.187
2014    9        8     7  12    5.50   394.6    7.4      39.197
2014    9        8     7  17    5.50   394.6    7.4      39.207
2014    9        8     7  22    5.50   394.7    7.4      39.216
2014    9        8     7  28    5.50   394.7    7.4      39.226
2014    9        8     7  33    5.50   394.7    7.4      39.235
2014    9        8     7  39    5.50   394.7    7.4      39.245
2014    9        8     7  44    5.50   394.7    7.4      39.254
2014    9        8     7  49    5.50   394.7    7.4      39.263
2014    9        8     7  55    5.50   394.7    7.4      39.272
2014    9        8     8   0    5.50   394.7    7.4      39.281
2014    9        8     8   6    5.50   394.7    7.4      39.290
2014    9        8     8  11    5.50   394.7    7.4      39.299
2014    9        8     8  16    5.50   394.8    7.4      39.308
2014    9        8     8  22    5.50   394.8    7.3      39.317
2014    9        8     8  27    5.50   394.8    7.3      39.326
2014    9        8     8  33    5.50   394.8    7.3      39.334
2014    9        8     8  38    5.50   394.8    7.3      39.343
2014    9        8     8  43    5.50   394.8    7.3      39.352
2014    9        8     8  49    5.50   394.8    7.3      39.361
2014    9        8     8  54    5.50   394.8    7.3      39.370
2014    9        8     8  59    5.50   394.8    7.3      39.379
2014    9        8     9   5    5.50   394.8    7.3      39.388
2014    9        8     9  10    5.50   394.9    7.3      39.397
2014    9        8     9  16    5.50   394.9    7.3      39.406
2014    9        8     9  21    5.50   394.9    7.3      39.415
2014    9        8     9  26    5.50   394.9    7.3      39.424
2014    9        8     9  32    5.50   394.9    7.3      39.434
2014    9        8     9  37    5.50   394.9    7.3      39.443
2014    9        8     9  43    5.50   394.9    7.3      39.453
2014    9        8     9  48    5.50   394.9    7.3      39.462
2014    9        8     9  53    5.50   394.9    7.3      39.472
2014    9        8     9  59    5.50   394.9    7.3      39.482
2014    9        8    10   4    5.50   394.9    7.3      39.492
2014    9        8    10   9    5.50   395.0    7.3      39.502
2014    9        8    10  15    5.50   395.0    7.3      39.512
2014    9        8    10  20    5.50   395.0    7.3      39.523
2014    9        8    10  26    5.50   395.0    7.3      39.533
2014    9        8    10  31    5.50   395.0    7.3      39.544
2014    9        8    10  36    5.50   395.0    7.4      39.555
2014    9        8    10  42    5.50   395.0    7.4      39.566
2014    9        8    10  47    5.50   395.0    7.4      39.577
2014    9        8    10  53    5.50   395.0    7.4      39.588
2014    9        8    10  58    5.50   395.1    7.4      39.599
2014    9        8    11   3    5.50   395.1    7.4      39.610
2014    9        8    11   9    5.50   395.1    7.4      39.622
2014    9        8    11  14    5.50   395.1    7.4      39.634
2014    9        8    11  20    5.50   395.1    7.4      39.645
2014    9        8    11  25    5.50   395.1    7.4      39.657
2014    9        8    11  30    5.50   395.1    7.4      39.670
2014    9        8    11  36    5.50   395.1    7.4      39.682
2014    9        8    11  41    5.50   395.1    7.4      39.694
2014    9        8    11  46    5.50   395.2    7.4      39.707
2014    9        8    11  52    5.51   395.2    7.4      39.719
2014    9        8    11  57    5.51   395.2    7.4      39.732
2014    9        8    12   3    5.51   395.2    7.4      39.745
2014    9        8    12   8    5.51   395.2    7.4      39.758
2014    9        8    12  13    5.51   395.2    7.4      39.771
2014    9        8    12  19    5.51   395.2    7.4      39.784
2014    9        8    12  24    5.51   395.2    7.4      39.797
2014    9        8    12  30    5.51   395.2    7.4      39.810
2014    9        8    12  35    5.51   395.3    7.4      39.823
2014    9        8    12  40    5.51   395.3    7.4      39.835
2014    9        8    12  46    5.51   395.3    7.4      39.848
2014    9        8    12  51    5.51   395.3    7.4      39.859
2014    9        8    12  57    5.51   395.3    7.4      39.871
2014    9        8    13   2    5.51   395.3    7.4      39.883
2014    9        8    13   7    5.51   395.4    7.4      39.894
2014    9        8    13  13    5.51   395.4    7.4      39.904
2014    9        8    13  18    5.51   395.4    7.4      39.915
2014    9        8    13  23    5.51   395.4    7.4      39.925
2014    9        8    13  29    5.51   395.4    7.4      39.934
2014    9        8    13  34    5.51   395.4    7.4      39.944
2014    9        8    13  40    5.51   395.4    7.4      39.953
2014    9        8    13  45    5.51   395.5    7.4      39.961
2014    9        8    13  50    5.51   395.5    7.4      39.970
2014    9        8    13  56    5.51   395.5    7.4      39.978
2014    9        8    14   1    5.51   395.5    7.4      39.986
2014    9        8    14   7    5.51   395.5    7.4      39.993
2014    9        8    14  12    5.51   395.5    7.4      40.001
2014    9        8    14  17    5.51   395.5    7.4      40.008
2014    9        8    14  23    5.50   395.6    7.4      40.015
2014    9        8    14  28    5.50   395.6    7.4      40.022
2014    9        8    14  34    5.50   395.6    7.4      40.028
2014    9        8    14  39    5.50   395.6    7.4      40.034
2014    9        8    14  44    5.50   395.6    7.4      40.041
2014    9        8    14  50    5.50   395.6    7.4      40.047
2014    9        8    14  55    5.50   395.6    7.4      40.052
2014    9        8    15   1    5.50   395.6    7.4      40.058
2014    9        8    15   6    5.50   395.7    7.4      40.064
2014    9        8    15  11    5.50   395.7    7.4      40.069
2014    9        8    15  17    5.50   395.7    7.4      40.074
2014    9        8    15  22    5.50   395.7    7.4      40.080
2014    9        8    15  27    5.50   395.7    7.4      40.085
2014    9        8    15  33    5.50   395.7    7.4      40.090
2014    9        8    15  38    5.50   395.7    7.4      40.095
2014    9        8    15  44    5.50   395.7    7.4      40.100
2014    9        8    15  49    5.50   395.7    7.4      40.105
2014    9        8    15  54    5.50   395.7    7.4      40.110
2014    9        8    16   0    5.50   395.8    7.4      40.115
2014    9        8    16   5    5.50   395.8    7.4      40.120
2014    9        8    16  11    5.50   395.8    7.4      40.125
2014    9        8    16  16    5.50   395.8    7.4      40.130
2014    9        8    16  21    5.50   395.8    7.4      40.135
2014    9        8    16  27    5.50   395.8    7.4      40.140
2014    9        8    16  32    5.50   395.8    7.4      40.145
2014    9        8    16  38    5.50   395.8    7.4      40.150
2014    9        8    16  43    5.50   395.8    7.4      40.154
2014    9        8    16  48    5.50   395.8    7.4      40.160
2014    9        8    16  54    5.50   395.8    7.4      40.164
2014    9        8    16  59    5.50   395.9    7.4      40.170
2014    9        8    17   4    5.50   395.9    7.4      40.175
2014    9        8    17  10    5.50   395.9    7.4      40.180
2014    9        8    17  15    5.50   395.9    7.4      40.185
2014    9        8    17  21    5.50   395.9    7.4      40.190
2014    9        8    17  26    5.50   395.9    7.4      40.195
2014    9        8    17  31    5.50   395.9    7.4      40.200
2014    9        8    17  37    5.50   395.9    7.4      40.206
2014    9        8    17  42    5.50   395.9    7.4      40.211
2014    9        8    17  48    5.50   395.9    7.4      40.216
2014    9        8    17  53    5.50   395.9    7.4      40.222
2014    9        8    17  58    5.50   395.9    7.4      40.227
2014    9        8    18   4    5.50   396.0    7.4      40.232
2014    9        8    18   9    5.50   396.0    7.4      40.238
2014    9        8    18  14    5.50   396.0    7.4      40.243
2014    9        8    18  20    5.50   396.0    7.4      40.249
2014    9        8    18  25    5.50   396.0    7.4      40.254
2014    9        8    18  31    5.50   396.0    7.4      40.260
2014    9        8    18  36    5.50   396.0    7.4      40.265
2014    9        8    18  41    5.50   396.0    7.4      40.271
2014    9        8    18  47    5.49   396.0    7.4      40.277
2014    9        8    18  52    5.49   396.0    7.4      40.282
2014    9        8    18  58    5.49   396.0    7.4      40.288
2014    9        8    19   3    5.49   396.0    7.4      40.294
2014    9        8    19   8    5.49   396.0    7.4      40.300
2014    9        8    19  14    5.49   396.0    7.4      40.306
2014    9        8    19  19    5.49   396.0    7.4      40.313
2014    9        8    19  25    5.49   396.0    7.4      40.319
2014    9        8    19  30    5.49   396.1    7.4      40.325
2014    9        8    19  35    5.49   396.1    7.4      40.332
2014    9        8    19  41    5.49   396.1    7.4      40.338
2014    9        8    19  46    5.49   396.1    7.4      40.344
2014    9        8    19  51    5.49   396.1    7.4      40.351
2014    9        8    19  57    5.49   396.1    7.4      40.357
2014    9        8    20   2    5.49   396.1    7.4      40.363
2014    9        8    20   8    5.49   396.1    7.4      40.368
2014    9        8    20  13    5.49   396.1    7.4      40.374
2014    9        8    20  18    5.49   396.1    7.4      40.380
2014    9        8    20  24    5.49   396.1    7.4      40.385
2014    9        8    20  29    5.49   396.1    7.4      40.390
2014    9        8    20  35    5.49   396.2    7.4      40.396
2014    9        8    20  40    5.49   396.2    7.4      40.401
2014    9        8    20  45    5.49   396.2    7.4      40.405
2014    9        8    20  51    5.49   396.2    7.4      40.410
2014    9        8    20  56    5.49   396.2    7.4      40.414
2014    9        8    21   2    5.49   396.2    7.4      40.418
2014    9        8    21   7    5.49   396.2    7.4      40.422
2014    9        8    21  12    5.49   396.2    7.4      40.426
2014    9        8    21  18    5.49   396.2    7.4      40.430
2014    9        8    21  23    5.49   396.2    7.4      40.433
2014    9        8    21  28    5.49   396.2    7.4      40.437
2014    9        8    21  34    5.49   396.3    7.4      40.440
2014    9        8    21  39    5.49   396.3    7.4      40.443
2014    9        8    21  45    5.49   396.3    7.4      40.446
2014    9        8    21  50    5.49   396.3    7.4      40.449
2014    9        8    21  55    5.49   396.3    7.4      40.452
2014    9        8    22   1    5.49   396.3    7.4      40.454
2014    9        8    22   6    5.49   396.3    7.4      40.457
2014    9        8    22  12    5.49   396.3    7.4      40.459
2014    9        8    22  17    5.49   396.3    7.4      40.461
2014    9        8    22  22    5.49   396.3    7.4      40.463
2014    9        8    22  28    5.49   396.3    7.4      40.465
2014    9        8    22  33    5.49   396.3    7.4      40.467
2014    9        8    22  39    5.49   396.3    7.4      40.469
2014    9        8    22  44    5.49   396.3    7.4      40.471
2014    9        8    22  49    5.49   396.3    7.4      40.472
2014    9        8    22  55    5.49   396.3    7.4      40.474
2014    9        8    23   0    5.49   396.3    7.4      40.475
2014    9        8    23   5    5.49   396.4    7.4      40.476
2014    9        8    23  11    5.49   396.4    7.4      40.477
2014    9        8    23  16    5.49   396.4    7.4      40.478
2014    9        8    23  22    5.49   396.4    7.4      40.479
2014    9        8    23  27    5.49   396.4    7.4      40.480
2014    9        8    23  32    5.49   396.4    7.4      40.481
2014    9        8    23  38    5.49   396.4    7.4      40.482
2014    9        8    23  43    5.49   396.4    7.4      40.482
2014    9        8    23  49    5.49   396.4    7.4      40.483
2014    9        8    23  54    5.49   396.4    7.4      40.483
2014    9        8    23  59    5.49   396.4    7.4      40.483
2014    9        9     0   5    5.49   396.4    7.4      40.484
2014    9        9     0  10    5.49   396.4    7.4      40.484
2014    9        9     0  16    5.49   396.4    7.4      40.484
2014    9        9     0  21    5.49   396.4    7.4      40.484
2014    9        9     0  26    5.49   396.4    7.4      40.484
2014    9        9     0  32    5.49   396.4    7.4      40.484
2014    9        9     0  37    5.49   396.4    7.4      40.484
2014    9        9     0  42    5.48   396.4    7.4      40.484
2014    9        9     0  48    5.48   396.4    7.4      40.484
2014    9        9     0  53    5.48   396.4    7.4      40.484
2014    9        9     0  59    5.48   396.4    7.4      40.484
2014    9        9     1   4    5.48   396.4    7.4      40.484
2014    9        9     1   9    5.48   396.4    7.4      40.484
2014    9        9     1  15    5.48   396.4    7.4      40.484
2014    9        9     1  20    5.48   396.4    7.4      40.484
2014    9        9     1  26    5.48   396.4    7.4      40.483
2014    9        9     1  31    5.48   396.3    7.4      40.483
2014    9        9     1  36    5.48   396.3    7.4      40.483
2014    9        9     1  42    5.48   396.3    7.4      40.483
2014    9        9     1  47    5.48   396.3    7.4      40.483
2014    9        9     1  53    5.48   396.3    7.4      40.483
2014    9        9     1  58    5.48   396.3    7.4      40.482
2014    9        9     2   3    5.48   396.3    7.4      40.482
2014    9        9     2   9    5.48   396.3    7.4      40.482
2014    9        9     2  14    5.48   396.3    7.4      40.482
2014    9        9     2  19    5.48   396.3    7.4      40.482
2014    9        9     2  25    5.48   396.3    7.4      40.481
2014    9        9     2  30    5.48   396.3    7.4      40.481
2014    9        9     2  36    5.48   396.3    7.4      40.481
2014    9        9     2  41    5.48   396.3    7.4      40.481
2014    9        9     2  46    5.48   396.3    7.4      40.480
2014    9        9     2  52    5.48   396.3    7.4      40.480
2014    9        9     2  57    5.48   396.3    7.4      40.480
2014    9        9     3   3    5.48   396.3    7.4      40.479
2014    9        9     3   8    5.48   396.3    7.4      40.479
2014    9        9     3  13    5.48   396.3    7.4      40.479
2014    9        9     3  19    5.48   396.3    7.4      40.479
2014    9        9     3  24    5.48   396.3    7.4      40.478
2014    9        9     3  30    5.48   396.3    7.4      40.478
2014    9        9     3  35    5.48   396.3    7.4      40.478
2014    9        9     3  40    5.48   396.3    7.4      40.478
2014    9        9     3  46    5.48   396.3    7.4      40.477
2014    9        9     3  51    5.48   396.2    7.4      40.477
2014    9        9     3  56    5.48   396.2    7.4      40.477
2014    9        9     4   2    5.48   396.2    7.4      40.477
2014    9        9     4   7    5.48   396.2    7.4      40.477
2014    9        9     4  13    5.48   396.2    7.4      40.477
2014    9        9     4  18    5.48   396.2    7.4      40.477
2014    9        9     4  23    5.48   396.2    7.4      40.476
2014    9        9     4  29    5.48   396.2    7.4      40.476
2014    9        9     4  34    5.48   396.2    7.4      40.476
2014    9        9     4  40    5.48   396.2    7.4      40.476
2014    9        9     4  45    5.48   396.2    7.4      40.476
2014    9        9     4  50    5.48   396.2    7.4      40.476
2014    9        9     4  56    5.48   396.2    7.4      40.476
2014    9        9     5   1    5.48   396.2    7.4      40.475
2014    9        9     5   7    5.48   396.2    7.4      40.475
2014    9        9     5  12    5.48   396.2    7.4      40.475
2014    9        9     5  17    5.48   396.2    7.4      40.475
2014    9        9     5  23    5.48   396.2    7.4      40.474
2014    9        9     5  28    5.48   396.2    7.4      40.474
2014    9        9     5  33    5.48   396.2    7.4      40.474
2014    9        9     5  39    5.48   396.2    7.4      40.473
2014    9        9     5  44    5.48   396.1    7.4      40.473
2014    9        9     5  50    5.48   396.1    7.4      40.473
2014    9        9     5  55    5.48   396.1    7.4      40.472
2014    9        9     6   0    5.48   396.1    7.4      40.472
2014    9        9     6   6    5.48   396.1    7.4      40.471
2014    9        9     6  11    5.48   396.1    7.4      40.471
2014    9        9     6  17    5.48   396.1    7.4      40.471
2014    9        9     6  22    5.48   396.1    7.4      40.470
2014    9        9     6  27    5.48   396.1    7.4      40.470
2014    9        9     6  33    5.48   396.1    7.4      40.469
2014    9        9     6  38    5.48   396.1    7.4      40.469
2014    9        9     6  44    5.48   396.1    7.4      40.468
2014    9        9     6  49    5.48   396.1    7.4      40.467
2014    9        9     6  54    5.48   396.1    7.4      40.467
2014    9        9     7   0    5.48   396.0    7.4      40.466
2014    9        9     7   5    5.48   396.0    7.4      40.465
2014    9        9     7  10    5.48   396.0    7.4      40.464
2014    9        9     7  16    5.48   396.0    7.4      40.463
2014    9        9     7  21    5.48   396.0    7.4      40.462
2014    9        9     7  27    5.48   396.0    7.4      40.461
2014    9        9     7  32    5.48   396.0    7.4      40.460
2014    9        9     7  37    5.48   396.0    7.4      40.459
2014    9        9     7  43    5.48   396.0    7.4      40.458
2014    9        9     7  48    5.48   396.0    7.4      40.457
2014    9        9     7  54    5.48   395.9    7.4      40.456
2014    9        9     7  59    5.48   395.9    7.4      40.455
2014    9        9     8   4    5.48   395.9    7.4      40.453
2014    9        9     8  10    5.48   395.9    7.4      40.452
2014    9        9     8  15    5.48   395.9    7.4      40.450
2014    9        9     8  20    5.48   395.9    7.4      40.449
2014    9        9     8  26    5.48   395.9    7.4      40.448
2014    9        9     8  31    5.48   395.9    7.4      40.446
2014    9        9     8  37    5.48   395.9    7.4      40.445
2014    9        9     8  42    5.48   395.8    7.4      40.443
2014    9        9     8  47    5.48   395.8    7.4      40.442
2014    9        9     8  53    5.48   395.8    7.4      40.440
2014    9        9     8  58    5.48   395.8    7.4      40.438
2014    9        9     9   4    5.48   395.8    7.4      40.437
2014    9        9     9   9    5.48   395.8    7.4      40.435
2014    9        9     9  14    5.48   395.8    7.4      40.433
2014    9        9     9  20    5.48   395.7    7.4      40.431
2014    9        9     9  25    5.48   395.7    7.4      40.429
2014    9        9     9  31    5.48   395.7    7.4      40.427
2014    9        9     9  36    5.48   395.7    7.4      40.425
2014    9        9     9  41    5.48   395.7    7.4      40.423
2014    9        9     9  47    5.48   395.7    7.4      40.421
2014    9        9     9  52    5.48   395.6    7.4      40.419
2014    9        9     9  57    5.48   395.6    7.4      40.416
2014    9        9    10   3    5.48   395.6    7.4      40.414
2014    9        9    10   8    5.48   395.6    7.4      40.411
2014    9        9    10  14    5.48   395.6    7.4      40.409
2014    9        9    10  19    5.48   395.6    7.4      40.407
2014    9        9    10  24    5.48   395.5    7.4      40.404
2014    9        9    10  30    5.48   395.5    7.4      40.401
2014    9        9    10  35    5.48   395.5    7.4      40.398
2014    9        9    10  41    5.48   395.5    7.4      40.396
2014    9        9    10  46    5.48   395.5    7.4      40.393
2014    9        9    10  51    5.48   395.4    7.4      40.390
2014    9        9    10  57    5.48   395.4    7.4      40.387
2014    9        9    11   2    5.48   395.4    7.4      40.384
2014    9        9    11   8    5.48   395.4    7.4      40.381
2014    9        9    11  13    5.48   395.4    7.4      40.378
2014    9        9    11  18    5.48   395.4    7.4      40.374
2014    9        9    11  24    5.48   395.3    7.4      40.371
2014    9        9    11  29    5.48   395.3    7.4      40.368
2014    9        9    11  34    5.48   395.3    7.4      40.364
2014    9        9    11  40    5.48   395.3    7.4      40.361
2014    9        9    11  45    5.48   395.2    7.4      40.358
2014    9        9    11  51    5.49   395.2    7.4      40.354
2014    9        9    11  56    5.49   395.2    7.4      40.351
2014    9        9    12   1    5.49   395.2    7.4      40.347
2014    9        9    12   7    5.49   395.1    7.4      40.344
2014    9        9    12  12    5.49   395.1    7.4      40.340
2014    9        9    12  18    5.49   395.1    7.4      40.337
2014    9        9    12  23    5.49   395.1    7.4      40.333
2014    9        9    12  28    5.49   395.0    7.4      40.330
2014    9        9    12  34    5.49   395.0    7.4      40.327
2014    9        9    12  39    5.49   395.0    7.4      40.323
2014    9        9    12  45    5.49   395.0    7.4      40.320
2014    9        9    12  50    5.49   394.9    7.4      40.317
2014    9        9    12  55    5.49   394.9    7.4      40.314
2014    9        9    13   1    5.49   394.9    7.4      40.312
2014    9        9    13   6    5.49   394.9    7.4      40.309
2014    9        9    13  11    5.49   394.8    7.4      40.307
2014    9        9    13  17    5.49   394.8    7.4      40.305
2014    9        9    13  22    5.49   394.8    7.4      40.303
2014    9        9    13  28    5.49   394.8    7.4      40.302
2014    9        9    13  33    5.49   394.7    7.4      40.301
2014    9        9    13  38    5.49   394.7    7.4      40.300
2014    9        9    13  44    5.50   394.7    7.4      40.299
2014    9        9    13  49    5.50   394.6    7.4      40.299
2014    9        9    13  55    5.50   394.6    7.5      40.299
2014    9        9    14   0    5.50   394.6    7.5      40.299
2014    9        9    14   5    5.50   394.6    7.5      40.300
2014    9        9    14  11    5.50   394.5    7.5      40.300
2014    9        9    14  16    5.50   394.5    7.5      40.301
2014    9        9    14  21    5.50   394.5    7.5      40.303
2014    9        9    14  27    5.50   394.5    7.5      40.305
2014    9        9    14  32    5.50   394.4    7.5      40.307
2014    9        9    14  38    5.50   394.4    7.5      40.311
2014    9        9    14  43    5.51   394.4    7.5      40.314
2014    9        9    14  48    5.51   394.4    7.5      40.318
2014    9        9    14  54    5.51   394.4    7.5      40.323
2014    9        9    14  59    5.51   394.3    7.5      40.328
2014    9        9    15   5    5.51   394.3    7.5      40.333
2014    9        9    15  10    5.51   394.3    7.5      40.338
2014    9        9    15  15    5.51   394.3    7.5      40.343
2014    9        9    15  21    5.51   394.2    7.5      40.349
2014    9        9    15  26    5.51   394.2    7.5      40.353
2014    9        9    15  32    5.51   394.2    7.5      40.358
2014    9        9    15  37    5.52   394.2    7.5      40.363
2014    9        9    15  42    5.52   394.1    7.5      40.368
2014    9        9    15  48    5.52   394.1    7.5      40.373
2014    9        9    15  53    5.52   394.1    7.5      40.378
2014    9        9    15  58    5.52   394.1    7.5      40.383
2014    9        9    16   4    5.52   394.1    7.5      40.387
2014    9        9    16   9    5.52   394.0    7.5      40.391
2014    9        9    16  15    5.52   394.0    7.5      40.396
2014    9        9    16  20    5.52   394.0    7.5      40.400
2014    9        9    16  25    5.53   394.0    7.5      40.404
2014    9        9    16  31    5.53   393.9    7.5      40.408
2014    9        9    16  36    5.53   393.9    7.5      40.411
2014    9        9    16  42    5.53   393.9    7.5      40.415
2014    9        9    16  47    5.53   393.9    7.5      40.419
2014    9        9    16  52    5.53   393.8    7.5      40.422
2014    9        9    16  58    5.53   393.8    7.5      40.425
2014    9        9    17   3    5.53   393.8    7.5      40.429
2014    9        9    17   9    5.53   393.8    7.5      40.432
2014    9        9    17  14    5.54   393.8    7.5      40.435
2014    9        9    17  19    5.54   393.7    7.6      40.438
2014    9        9    17  25    5.54   393.7    7.6      40.441
2014    9        9    17  30    5.54   393.7    7.6      40.443
2014    9        9    17  35    5.54   393.7    7.6      40.446
2014    9        9    17  41    5.54   393.6    7.6      40.448
2014    9        9    17  46    5.54   393.6    7.6      40.451
2014    9        9    17  52    5.54   393.6    7.6      40.453
2014    9        9    17  57    5.54   393.6    7.6      40.455
2014    9        9    18   2    5.55   393.5    7.6      40.458
2014    9        9    18   8    5.55   393.5    7.6      40.460
2014    9        9    18  13    5.55   393.5    7.6      40.462
2014    9        9    18  19    5.55   393.5    7.6      40.464
2014    9        9    18  24    5.55   393.4    7.6      40.466
2014    9        9    18  29    5.55   393.4    7.6      40.468
2014    9        9    18  35    5.55   393.4    7.6      40.470
2014    9        9    18  40    5.55   393.4    7.6      40.473
2014    9        9    18  45    5.56   393.3    7.6      40.475
2014    9        9    18  51    5.56   393.3    7.6      40.477
2014    9        9    18  56    5.56   393.3    7.6      40.479
2014    9        9    19   2    5.56   393.3    7.6      40.482
2014    9        9    19   7    5.56   393.2    7.6      40.484
2014    9        9    19  12    5.56   393.2    7.6      40.486
2014    9        9    19  18    5.56   393.2    7.6      40.489
2014    9        9    19  23    5.57   393.1    7.6      40.492
2014    9        9    19  29    5.57   393.1    7.6      40.495
2014    9        9    19  34    5.57   393.1    7.6      40.498
2014    9        9    19  39    5.57   393.1    7.6      40.501
2014    9        9    19  45    5.57   393.0    7.6      40.504
2014    9        9    19  50    5.57   393.0    7.6      40.507
2014    9        9    19  56    5.57   393.0    7.6      40.511
2014    9        9    20   1    5.58   393.0    7.6      40.514
2014    9        9    20   6    5.58   392.9    7.6      40.518
2014    9        9    20  12    5.58   392.9    7.6      40.522
2014    9        9    20  17    5.58   392.9    7.6      40.526
2014    9        9    20  22    5.58   392.9    7.6      40.531
2014    9        9    20  28    5.58   392.9    7.6      40.535
2014    9        9    20  33    5.59   392.8    7.6      40.540
2014    9        9    20  39    5.59   392.8    7.6      40.544
2014    9        9    20  44    5.59   392.8    7.6      40.550
2014    9        9    20  49    5.59   392.8    7.7      40.555
2014    9        9    20  55    5.59   392.7    7.7      40.560
2014    9        9    21   0    5.60   392.7    7.7      40.566
2014    9        9    21   6    5.60   392.7    7.7      40.571
2014    9        9    21  11    5.60   392.7    7.7      40.577
2014    9        9    21  16    5.60   392.6    7.7      40.584
2014    9        9    21  22    5.60   392.6    7.7      40.590
2014    9        9    21  27    5.60   392.6    7.7      40.596
2014    9        9    21  33    5.61   392.6    7.7      40.603
2014    9        9    21  38    5.61   392.6    7.7      40.610
2014    9        9    21  43    5.61   392.5    7.7      40.617
2014    9        9    21  49    5.61   392.5    7.7      40.623
2014    9        9    21  54    5.61   392.5    7.7      40.631
2014    9        9    21  59    5.62   392.5    7.7      40.638
2014    9        9    22   5    5.62   392.5    7.7      40.645
2014    9        9    22  10    5.62   392.5    7.7      40.652
2014    9        9    22  16    5.62   392.4    7.7      40.660
2014    9        9    22  21    5.62   392.4    7.7      40.667
2014    9        9    22  26    5.63   392.4    7.7      40.675
2014    9        9    22  32    5.63   392.4    7.7      40.683
2014    9        9    22  37    5.63   392.4    7.7      40.690
2014    9        9    22  43    5.63   392.4    7.7      40.698
2014    9        9    22  48    5.64   392.3    7.7      40.706
2014    9        9    22  53    5.64   392.3    7.8      40.714
2014    9        9    22  59    5.64   392.3    7.8      40.722
2014    9        9    23   4    5.64   392.3    7.8      40.730
2014    9        9    23   9    5.64   392.3    7.8      40.738
2014    9        9    23  15    5.65   392.3    7.8      40.747
2014    9        9    23  20    5.65   392.3    7.8      40.756
2014    9        9    23  26    5.65   392.3    7.8      40.765
2014    9        9    23  31    5.65   392.2    7.8      40.774
2014    9        9    23  36    5.66   392.2    7.8      40.783
2014    9        9    23  42    5.66   392.2    7.8      40.793
2014    9        9    23  47    5.66   392.2    7.8      40.803
2014    9        9    23  53    5.66   392.2    7.8      40.813
2014    9        9    23  58    5.66   392.2    7.8      40.824
2014    9       10     0   3    5.67   392.2    7.8      40.835
2014    9       10     0   9    5.67   392.2    7.8      40.846
2014    9       10     0  14    5.67   392.2    7.8      40.858
2014    9       10     0  20    5.67   392.2    7.8      40.871
2014    9       10     0  25    5.68   392.2    7.8      40.883
2014    9       10     0  30    5.68   392.2    7.8      40.897
2014    9       10     0  36    5.68   392.2    7.8      40.910
2014    9       10     0  41    5.68   392.2    7.8      40.924
2014    9       10     0  46    5.68   392.2    7.9      40.938
2014    9       10     0  52    5.69   392.2    7.9      40.952
2014    9       10     0  57    5.69   392.2    7.9      40.965
2014    9       10     1   3    5.69   392.2    7.9      40.979
2014    9       10     1   8    5.69   392.2    7.9      40.993
2014    9       10     1  13    5.70   392.2    7.9      41.006
2014    9       10     1  19    5.70   392.2    7.9      41.020
2014    9       10     1  24    5.70   392.2    7.9      41.033
2014    9       10     1  30    5.70   392.2    7.9      41.046
2014    9       10     1  35    5.70   392.2    7.9      41.059
2014    9       10     1  40    5.71   392.2    7.9      41.072
2014    9       10     1  46    5.71   392.2    7.9      41.084
2014    9       10     1  51    5.71   392.2    7.9      41.097
2014    9       10     1  56    5.71   392.2    7.9      41.109
2014    9       10     2   2    5.71   392.2    7.9      41.121
2014    9       10     2   7    5.72   392.2    7.9      41.133
2014    9       10     2  13    5.72   392.2    7.9      41.145
2014    9       10     2  18    5.72   392.2    7.9      41.157
2014    9       10     2  23    5.72   392.2    7.9      41.168
2014    9       10     2  29    5.73   392.2    7.9      41.179
2014    9       10     2  34    5.73   392.2    7.9      41.191
2014    9       10     2  40    5.73   392.2    7.9      41.202
2014    9       10     2  45    5.73   392.2    7.9      41.213
2014    9       10     2  50    5.73   392.2    7.9      41.224
2014    9       10     2  56    5.74   392.2    7.9      41.235
2014    9       10     3   1    5.74   392.2    7.9      41.246
2014    9       10     3   7    5.74   392.2    7.9      41.257
2014    9       10     3  12    5.74   392.2    8.0      41.268
2014    9       10     3  17    5.74   392.2    8.0      41.279
2014    9       10     3  23    5.75   392.3    8.0      41.291
2014    9       10     3  28    5.75   392.3    8.0      41.301
2014    9       10     3  33    5.75   392.3    8.0      41.312
2014    9       10     3  39    5.75   392.3    8.0      41.323
2014    9       10     3  44    5.75   392.3    8.0      41.334
2014    9       10     3  50    5.75   392.3    8.0      41.344
2014    9       10     3  55    5.76   392.3    8.0      41.355
2014    9       10     4   0    5.76   392.3    8.0      41.365
2014    9       10     4   6    5.76   392.3    8.0      41.375
2014    9       10     4  11    5.76   392.3    8.0      41.386
2014    9       10     4  17    5.76   392.4    8.0      41.395
2014    9       10     4  22    5.77   392.4    8.0      41.405
2014    9       10     4  27    5.77   392.4    8.0      41.415
2014    9       10     4  33    5.77   392.4    8.0      41.424
2014    9       10     4  38    5.77   392.4    8.0      41.434
2014    9       10     4  44    5.77   392.4    8.0      41.443
2014    9       10     4  49    5.78   392.4    8.0      41.452
2014    9       10     4  54    5.78   392.4    8.0      41.461
2014    9       10     5   0    5.78   392.5    8.0      41.470
2014    9       10     5   5    5.78   392.5    8.0      41.478
2014    9       10     5  10    5.78   392.5    8.0      41.487
2014    9       10     5  16    5.78   392.5    8.0      41.496
2014    9       10     5  21    5.79   392.5    8.0      41.504
2014    9       10     5  27    5.79   392.5    8.0      41.513
2014    9       10     5  32    5.79   392.5    8.0      41.521
2014    9       10     5  37    5.79   392.6    8.0      41.529
2014    9       10     5  43    5.79   392.6    8.0      41.538
2014    9       10     5  48    5.80   392.6    8.0      41.546
2014    9       10     5  54    5.80   392.6    8.0      41.554
2014    9       10     5  59    5.80   392.6    8.0      41.562
2014    9       10     6   4    5.80   392.6    8.0      41.570
2014    9       10     6  10    5.80   392.6    8.0      41.578
2014    9       10     6  15    5.81   392.7    8.0      41.585
2014    9       10     6  20    5.81   392.7    8.0      41.593
2014    9       10     6  26    5.81   392.7    8.0      41.601
2014    9       10     6  31    5.81   392.7    8.0      41.608
2014    9       10     6  37    5.81   392.7    8.0      41.616
2014    9       10     6  42    5.81   392.8    8.1      41.623
2014    9       10     6  47    5.82   392.8    8.1      41.630
2014    9       10     6  53    5.82   392.8    8.1      41.638
2014    9       10     6  58    5.82   392.8    8.1      41.645
2014    9       10     7   4    5.82   392.8    8.1      41.652
2014    9       10     7   9    5.82   392.9    8.1      41.659
2014    9       10     7  14    5.83   392.9    8.1      41.666
2014    9       10     7  20    5.83   392.9    8.1      41.673
2014    9       10     7  25    5.83   392.9    8.1      41.681
2014    9       10     7  31    5.83   392.9    8.1      41.688
2014    9       10     7  36    5.83   392.9    8.1      41.695
2014    9       10     7  41    5.83   393.0    8.1      41.702
2014    9       10     7  47    5.84   393.0    8.1      41.710
2014    9       10     7  52    5.84   393.0    8.1      41.717
2014    9       10     7  57    5.84   393.0    8.1      41.725
2014    9       10     8   3    5.84   393.0    8.1      41.733
2014    9       10     8   8    5.84   393.1    8.1      41.741
2014    9       10     8  14    5.85   393.1    8.1      41.750
2014    9       10     8  19    5.85   393.1    8.1      41.759
2014    9       10     8  24    5.85   393.1    8.1      41.769
2014    9       10     8  30    5.85   393.2    8.1      41.779
2014    9       10     8  35    5.85   393.2    8.1      41.790
2014    9       10     8  41    5.85   393.2    8.1      41.802
2014    9       10     8  46    5.86   393.2    8.1      41.815
2014    9       10     8  51    5.86   393.3    8.1      41.828
2014    9       10     8  57    5.86   393.3    8.1      41.841
2014    9       10     9   2    5.86   393.3    8.1      41.855
2014    9       10     9   7    5.86   393.4    8.1      41.869
2014    9       10     9  13    5.87   393.4    8.1      41.884
2014    9       10     9  18    5.87   393.4    8.1      41.898
2014    9       10     9  24    5.87   393.5    8.1      41.913
2014    9       10     9  29    5.87   393.5    8.1      41.928
2014    9       10     9  34    5.87   393.5    8.1      41.943
2014    9       10     9  40    5.88   393.6    8.1      41.958
2014    9       10     9  45    5.88   393.6    8.2      41.974
2014    9       10     9  51    5.88   393.6    8.2      41.990
2014    9       10     9  56    5.88   393.7    8.2      42.006
2014    9       10    10   1    5.88   393.7    8.2      42.022
2014    9       10    10   7    5.89   393.8    8.2      42.038
2014    9       10    10  12    5.89   393.8    8.2      42.055
2014    9       10    10  18    5.89   393.8    8.2      42.072
2014    9       10    10  23    5.89   393.9    8.2      42.090
2014    9       10    10  28    5.89   393.9    8.2      42.107
2014    9       10    10  34    5.90   394.0    8.2      42.125
2014    9       10    10  39    5.90   394.0    8.2      42.144
2014    9       10    10  44    5.90   394.0    8.2      42.163
2014    9       10    10  50    5.90   394.1    8.2      42.182
2014    9       10    10  55    5.91   394.1    8.2      42.203
2014    9       10    11   1    5.91   394.2    8.2      42.224
2014    9       10    11   6    5.91   394.3    8.2      42.245
2014    9       10    11  11    5.91   394.3    8.2      42.268
2014    9       10    11  17    5.92   394.4    8.2      42.292
2014    9       10    11  22    5.92   394.4    8.2      42.316
2014    9       10    11  28    5.92   394.5    8.2      42.340
2014    9       10    11  33    5.93   394.6    8.2      42.365
2014    9       10    11  38    5.93   394.6    8.2      42.391
2014    9       10    11  44    5.93   394.7    8.2      42.416
2014    9       10    11  49    5.94   394.8    8.2      42.442
2014    9       10    11  55    5.94   394.8    8.2      42.468
2014    9       10    12   0    5.94   394.9    8.2      42.493
2014    9       10    12   5    5.94   395.0    8.3      42.519
2014    9       10    12  11    5.95   395.0    8.3      42.544
2014    9       10    12  16    5.95   395.1    8.3      42.570
2014    9       10    12  21    5.96   395.2    8.3      42.595
2014    9       10    12  27    5.96   395.3    8.3      42.621
2014    9       10    12  32    5.96   395.3    8.3      42.646
2014    9       10    12  38    5.97   395.4    8.3      42.672
2014    9       10    12  43    5.97   395.5    8.3      42.698
2014    9       10    12  48    5.97   395.5    8.3      42.724
2014    9       10    12  54    5.98   395.6    8.3      42.749
2014    9       10    12  59    5.98   395.7    8.3      42.775
2014    9       10    13   5    5.99   395.8    8.3      42.801
2014    9       10    13  10    5.99   395.8    8.3      42.828
2014    9       10    13  15    5.99   395.9    8.3      42.854
2014    9       10    13  21    6.00   396.0    8.3      42.880
2014    9       10    13  26    6.00   396.1    8.3      42.907
2014    9       10    13  31    6.01   396.2    8.3      42.934
2014    9       10    13  37    6.01   396.2    8.3      42.962
2014    9       10    13  42    6.02   396.3    8.3      42.989
2014    9       10    13  48    6.02   396.4    8.3      43.017
2014    9       10    13  53    6.03   396.5    8.3      43.045
2014    9       10    13  58    6.03   396.6    8.3      43.074
2014    9       10    14   4    6.04   396.6    8.3      43.103
2014    9       10    14   9    6.04   396.7    8.4      43.132
2014    9       10    14  15    6.05   396.8    8.4      43.162
2014    9       10    14  20    6.05   396.9    8.4      43.193
2014    9       10    14  25    6.06   397.0    8.4      43.224
2014    9       10    14  31    6.06   397.1    8.4      43.255
2014    9       10    14  36    6.07   397.2    8.4      43.286
2014    9       10    14  41    6.07   397.3    8.4      43.318
2014    9       10    14  47    6.08   397.4    8.4      43.349
2014    9       10    14  52    6.09   397.5    8.4      43.380
2014    9       10    14  58    6.09   397.6    8.4      43.412
2014    9       10    15   3    6.10   397.7    8.4      43.443
2014    9       10    15   8    6.10   397.7    8.4      43.474
2014    9       10    15  14    6.11   397.8    8.4      43.504
2014    9       10    15  19    6.11   397.9    8.4      43.533
2014    9       10    15  25    6.12   398.0    8.4      43.563
2014    9       10    15  30    6.13   398.1    8.4      43.591
2014    9       10    15  35    6.13   398.2    8.5      43.618
2014    9       10    15  41    6.14   398.3    8.5      43.644
2014    9       10    15  46    6.14   398.4    8.5      43.670
2014    9       10    15  52    6.15   398.5    8.5      43.694
2014    9       10    15  57    6.15   398.6    8.5      43.718
2014    9       10    16   2    6.16   398.7    8.5      43.740
2014    9       10    16   8    6.16   398.8    8.5      43.762
2014    9       10    16  13    6.17   398.9    8.5      43.783
2014    9       10    16  18    6.17   399.0    8.5      43.803
2014    9       10    16  24    6.18   399.0    8.5      43.822
2014    9       10    16  29    6.18   399.1    8.5      43.840
2014    9       10    16  35    6.19   399.2    8.5      43.857
2014    9       10    16  40    6.19   399.3    8.5      43.873
2014    9       10    16  45    6.20   399.4    8.5      43.889
2014    9       10    16  51    6.20   399.4    8.5      43.904
2014    9       10    16  56    6.21   399.5    8.5      43.919
2014    9       10    17   2    6.21   399.6    8.5      43.932
2014    9       10    17   7    6.21   399.6    8.5      43.945
2014    9       10    17  12    6.22   399.7    8.5      43.958
2014    9       10    17  18    6.22   399.8    8.5      43.969
2014    9       10    17  23    6.23   399.9    8.5      43.980
2014    9       10    17  28    6.23   399.9    8.5      43.990
2014    9       10    17  34    6.23   400.0    8.5      44.000
2014    9       10    17  39    6.24   400.0    8.5      44.008
2014    9       10    17  45    6.24   400.1    8.5      44.016
2014    9       10    17  50    6.24   400.2    8.5      44.023
2014    9       10    17  55    6.25   400.2    8.5      44.030
2014    9       10    18   1    6.25   400.3    8.5      44.036
2014    9       10    18   6    6.25   400.3    8.5      44.041
2014    9       10    18  12    6.26   400.4    8.5      44.045
2014    9       10    18  17    6.26   400.5    8.5      44.049
2014    9       10    18  22    6.26   400.5    8.5      44.051
2014    9       10    18  28    6.27   400.6    8.5      44.053
2014    9       10    18  33    6.27   400.6    8.5      44.054
2014    9       10    18  39    6.27   400.7    8.5      44.054
2014    9       10    18  44    6.27   400.7    8.5      44.053
2014    9       10    18  49    6.27   400.8    8.5      44.051
2014    9       10    18  55    6.28   400.8    8.5      44.048
2014    9       10    19   0    6.28   400.9    8.5      44.044
2014    9       10    19   5    6.28   400.9    8.5      44.040
2014    9       10    19  11    6.28   401.0    8.5      44.034
2014    9       10    19  16    6.28   401.0    8.5      44.028
2014    9       10    19  22    6.28   401.1    8.5      44.021
2014    9       10    19  27    6.28   401.1    8.5      44.013
2014    9       10    19  32    6.28   401.1    8.5      44.005
2014    9       10    19  38    6.29   401.2    8.5      43.995
2014    9       10    19  43    6.29   401.2    8.5      43.985
2014    9       10    19  49    6.29   401.3    8.5      43.974
2014    9       10    19  54    6.29   401.3    8.5      43.963
2014    9       10    19  59    6.29   401.3    8.5      43.951
2014    9       10    20   5    6.29   401.4    8.5      43.938
2014    9       10    20  10    6.29   401.4    8.4      43.925
2014    9       10    20  16    6.29   401.4    8.4      43.911
2014    9       10    20  21    6.29   401.5    8.4      43.896
2014    9       10    20  26    6.28   401.5    8.4      43.881
2014    9       10    20  32    6.28   401.5    8.4      43.866
2014    9       10    20  37    6.28   401.6    8.4      43.850
2014    9       10    20  42    6.28   401.6    8.4      43.834
2014    9       10    20  48    6.28   401.6    8.4      43.817
2014    9       10    20  53    6.28   401.7    8.4      43.800
2014    9       10    20  59    6.28   401.7    8.4      43.782
2014    9       10    21   4    6.28   401.7    8.4      43.764
2014    9       10    21   9    6.28   401.8    8.4      43.746
2014    9       10    21  15    6.27   401.8    8.4      43.728
2014    9       10    21  20    6.27   401.8    8.3      43.709
2014    9       10    21  26    6.27   401.8    8.3      43.690
2014    9       10    21  31    6.27   401.9    8.3      43.671
2014    9       10    21  36    6.27   401.9    8.3      43.652
2014    9       10    21  42    6.27   401.9    8.3      43.632
2014    9       10    21  47    6.26   401.9    8.3      43.612
2014    9       10    21  52    6.26   402.0    8.3      43.593
2014    9       10    21  58    6.26   402.0    8.3      43.572
2014    9       10    22   3    6.26   402.0    8.3      43.552
2014    9       10    22   9    6.25   402.1    8.3      43.532
2014    9       10    22  14    6.25   402.1    8.3      43.511
2014    9       10    22  19    6.25   402.1    8.3      43.490
2014    9       10    22  25    6.25   402.1    8.2      43.469
2014    9       10    22  30    6.24   402.2    8.2      43.448
2014    9       10    22  36    6.24   402.2    8.2      43.427
2014    9       10    22  41    6.24   402.2    8.2      43.406
2014    9       10    22  46    6.24   402.3    8.2      43.385
2014    9       10    22  52    6.23   402.3    8.2      43.363
2014    9       10    22  57    6.23   402.3    8.2      43.342
2014    9       10    23   2    6.23   402.3    8.2      43.320
2014    9       10    23   8    6.22   402.4    8.2      43.299
2014    9       10    23  13    6.22   402.4    8.2      43.277
2014    9       10    23  19    6.22   402.4    8.1      43.256
2014    9       10    23  24    6.21   402.4    8.1      43.234
2014    9       10    23  29    6.21   402.5    8.1      43.213
2014    9       10    23  35    6.21   402.5    8.1      43.191
2014    9       10    23  40    6.20   402.5    8.1      43.169
2014    9       10    23  46    6.20   402.6    8.1      43.148
2014    9       10    23  51    6.20   402.6    8.1      43.126
2014    9       10    23  56    6.19   402.6    8.1      43.104
2014    9       11     0   2    6.19   402.7    8.1      43.082
2014    9       11     0   7    6.19   402.7    8.1      43.060
2014    9       11     0  12    6.18   402.7    8.0      43.038
2014    9       11     0  18    6.18   402.7    8.0      43.017
2014    9       11     0  23    6.17   402.8    8.0      42.995
2014    9       11     0  29    6.17   402.8    8.0      42.972
2014    9       11     0  34    6.17   402.8    8.0      42.951
2014    9       11     0  39    6.16   402.9    8.0      42.929
2014    9       11     0  45    6.16   402.9    8.0      42.907
2014    9       11     0  50    6.16   402.9    8.0      42.886
2014    9       11     0  56    6.15   403.0    8.0      42.864
2014    9       11     1   1    6.15   403.0    8.0      42.843
2014    9       11     1   6    6.14   403.0    8.0      42.821
2014    9       11     1  12    6.14   403.1    7.9      42.800
2014    9       11     1  17    6.14   403.1    7.9      42.779
2014    9       11     1  23    6.13   403.1    7.9      42.758
2014    9       11     1  28    6.13   403.2    7.9      42.737
2014    9       11     1  33    6.12   403.2    7.9      42.717
2014    9       11     1  39    6.12   403.2    7.9      42.696
2014    9       11     1  44    6.12   403.3    7.9      42.676
2014    9       11     1  49    6.11   403.3    7.9      42.656
2014    9       11     1  55    6.11   403.3    7.9      42.636
2014    9       11     2   0    6.10   403.4    7.9      42.617
2014    9       11     2   6    6.10   403.4    7.9      42.597
2014    9       11     2  11    6.09   403.4    7.8      42.578
2014    9       11     2  16    6.09   403.5    7.8      42.559
2014    9       11     2  22    6.09   403.5    7.8      42.541
2014    9       11     2  27    6.08   403.5    7.8      42.523
2014    9       11     2  33    6.08   403.6    7.8      42.505
2014    9       11     2  38    6.07   403.6    7.8      42.487
2014    9       11     2  43    6.07   403.6    7.8      42.469
2014    9       11     2  49    6.07   403.7    7.8      42.452
2014    9       11     2  54    6.06   403.7    7.8      42.435
2014    9       11     3   0    6.06   403.8    7.8      42.419
2014    9       11     3   5    6.05   403.8    7.8      42.402
2014    9       11     3  10    6.05   403.8    7.8      42.386
2014    9       11     3  16    6.05   403.9    7.7      42.371
2014    9       11     3  21    6.04   403.9    7.7      42.356
2014    9       11     3  26    6.04   403.9    7.7      42.341
2014    9       11     3  32    6.03   404.0    7.7      42.327
2014    9       11     3  37    6.03   404.0    7.7      42.313
2014    9       11     3  43    6.02   404.1    7.7      42.300
2014    9       11     3  48    6.02   404.1    7.7      42.287
2014    9       11     3  53    6.02   404.2    7.7      42.274
2014    9       11     3  59    6.01   404.2    7.7      42.262
2014    9       11     4   4    6.01   404.2    7.7      42.250
2014    9       11     4  10    6.00   404.3    7.7      42.239
2014    9       11     4  15    6.00   404.3    7.7      42.227
2014    9       11     4  20    5.99   404.4    7.7      42.216
2014    9       11     4  26    5.99   404.4    7.7      42.204
2014    9       11     4  31    5.99   404.5    7.7      42.193
2014    9       11     4  36    5.98   404.5    7.6      42.181
2014    9       11     4  42    5.98   404.6    7.6      42.169
2014    9       11     4  47    5.97   404.6    7.6      42.156
2014    9       11     4  53    5.97   404.7    7.6      42.144
2014    9       11     4  58    5.96   404.7    7.6      42.130
2014    9       11     5   3    5.96   404.8    7.6      42.117
2014    9       11     5   9    5.95   404.8    7.6      42.103
2014    9       11     5  14    5.95   404.8    7.6      42.089
2014    9       11     5  20    5.94   404.9    7.6      42.074
2014    9       11     5  25    5.94   404.9    7.6      42.059
2014    9       11     5  30    5.93   405.0    7.6      42.043
2014    9       11     5  36    5.93   405.0    7.6      42.027
2014    9       11     5  41    5.92   405.0    7.6      42.011
2014    9       11     5  46    5.92   405.1    7.6      41.994
2014    9       11     5  52    5.92   405.1    7.6      41.978
2014    9       11     5  57    5.91   405.2    7.5      41.960
2014    9       11     6   3    5.90   405.2    7.5      41.943
2014    9       11     6   8    5.90   405.2    7.5      41.925
2014    9       11     6  13    5.89   405.3    7.5      41.907
2014    9       11     6  19    5.89   405.3    7.5      41.889
2014    9       11     6  24    5.88   405.3    7.5      41.870
2014    9       11     6  30    5.88   405.4    7.5      41.852
2014    9       11     6  35    5.87   405.4    7.5      41.833
2014    9       11     6  40    5.87   405.4    7.5      41.813
2014    9       11     6  46    5.86   405.5    7.5      41.794
2014    9       11     6  51    5.86   405.5    7.5      41.774
2014    9       11     6  56    5.85   405.5    7.5      41.754
2014    9       11     7   2    5.85   405.5    7.5      41.734
2014    9       11     7   7    5.84   405.6    7.5      41.714
2014    9       11     7  13    5.84   405.6    7.5      41.693
2014    9       11     7  18    5.83   405.6    7.4      41.672
2014    9       11     7  23    5.82   405.6    7.4      41.651
2014    9       11     7  29    5.82   405.7    7.4      41.630
2014    9       11     7  34    5.81   405.7    7.4      41.609
2014    9       11     7  40    5.81   405.7    7.4      41.587
2014    9       11     7  45    5.80   405.7    7.4      41.565
2014    9       11     7  50    5.80   405.7    7.4      41.543
2014    9       11     7  56    5.79   405.8    7.4      41.521
2014    9       11     8   1    5.78   405.8    7.4      41.499
2014    9       11     8   7    5.78   405.8    7.4      41.477
2014    9       11     8  12    5.77   405.8    7.4      41.455
2014    9       11     8  17    5.77   405.8    7.4      41.432
2014    9       11     8  23    5.76   405.8    7.4      41.410
2014    9       11     8  28    5.75   405.8    7.4      41.387
2014    9       11     8  33    5.75   405.9    7.4      41.365
2014    9       11     8  39    5.74   405.9    7.4      41.343
2014    9       11     8  44    5.74   405.9    7.4      41.320
2014    9       11     8  50    5.73   405.9    7.4      41.298
2014    9       11     8  55    5.72   405.9    7.4      41.276
2014    9       11     9   0    5.72   405.9    7.3      41.254
2014    9       11     9   6    5.71   405.9    7.3      41.233
2014    9       11     9  11    5.71   405.9    7.3      41.212
2014    9       11     9  17    5.70   405.9    7.3      41.191
2014    9       11     9  22    5.69   405.9    7.3      41.170
2014    9       11     9  27    5.69   405.9    7.3      41.150
2014    9       11     9  33    5.68   405.9    7.3      41.130
2014    9       11     9  38    5.67   405.9    7.3      41.111
2014    9       11     9  43    5.67   405.9    7.3      41.092
2014    9       11     9  49    5.66   405.9    7.3      41.074
2014    9       11     9  54    5.66   405.9    7.3      41.056
2014    9       11    10   0    5.65   406.0    7.3      41.039
2014    9       11    10   5    5.64   406.0    7.3      41.023
2014    9       11    10  10    5.64   406.0    7.3      41.007
2014    9       11    10  16    5.63   406.0    7.3      40.992
2014    9       11    10  21    5.62   406.0    7.3      40.978
2014    9       11    10  27    5.62   406.0    7.3      40.964
2014    9       11    10  32    5.61   406.0    7.3      40.952
2014    9       11    10  37    5.61   406.0    7.3      40.940
2014    9       11    10  43    5.60   406.0    7.3      40.929
2014    9       11    10  48    5.59   406.0    7.3      40.919
2014    9       11    10  54    5.59   406.0    7.3      40.909
2014    9       11    10  59    5.58   406.0    7.3      40.900
2014    9       11    11   4    5.57   406.0    7.3      40.893
2014    9       11    11  10    5.57   406.0    7.3      40.885
2014    9       11    11  15    5.56   406.0    7.3      40.878
2014    9       11    11  20    5.55   406.0    7.4      40.872
2014    9       11    11  26    5.55   406.0    7.4      40.867
2014    9       11    11  31    5.54   406.0    7.4      40.863
2014    9       11    11  37    5.53   406.0    7.4      40.860
2014    9       11    11  42    5.52   406.0    7.4      40.858
2014    9       11    11  47    5.52   406.0    7.4      40.857
2014    9       11    11  53    5.51   406.0    7.4      40.857
2014    9       11    11  58    5.50   406.0    7.4      40.857
2014    9       11    12   4    5.49   406.0    7.4      40.858
2014    9       11    12   9    5.49   406.0    7.4      40.859
2014    9       11    12  14    5.48   405.9    7.4      40.860
2014    9       11    12  20    5.47   405.9    7.4      40.862
2014    9       11    12  25    5.46   405.9    7.4      40.864
2014    9       11    12  30    5.45   405.9    7.4      40.867
2014    9       11    12  36    5.45   405.8    7.4      40.869
2014    9       11    12  41    5.44   405.8    7.4      40.873
2014    9       11    12  47    5.43   405.8    7.4      40.876
2014    9       11    12  52    5.42   405.8    7.4      40.879
2014    9       11    12  57    5.41   405.7    7.4      40.883
2014    9       11    13   3    5.41   405.7    7.4      40.886
2014    9       11    13   8    5.40   405.7    7.4      40.888
2014    9       11    13  14    5.39   405.6    7.4      40.889
2014    9       11    13  19    5.38   405.6    7.5      40.889
2014    9       11    13  24    5.37   405.6    7.5      40.889
2014    9       11    13  30    5.36   405.5    7.5      40.888
2014    9       11    13  35    5.36   405.5    7.5      40.886
2014    9       11    13  40    5.35   405.5    7.5      40.883
2014    9       11    13  46    5.34   405.4    7.5      40.880
2014    9       11    13  51    5.33   405.4    7.5      40.875
2014    9       11    13  57    5.32   405.3    7.5      40.869
2014    9       11    14   2    5.31   405.3    7.5      40.862
2014    9       11    14   7    5.31   405.3    7.5      40.854
2014    9       11    14  13    5.30   405.2    7.5      40.845
2014    9       11    14  18    5.29   405.2    7.5      40.834
2014    9       11    14  24    5.28   405.1    7.5      40.823
2014    9       11    14  29    5.27   405.1    7.5      40.810
2014    9       11    14  34    5.27   405.0    7.5      40.796
2014    9       11    14  40    5.26   405.0    7.5      40.781
2014    9       11    14  45    5.25   405.0    7.5      40.765
2014    9       11    14  50    5.24   404.9    7.5      40.748
2014    9       11    14  56    5.23   404.9    7.5      40.729
2014    9       11    15   1    5.23   404.8    7.4      40.710
2014    9       11    15   7    5.22   404.8    7.4      40.689
2014    9       11    15  12    5.21   404.7    7.4      40.667
2014    9       11    15  17    5.20   404.7    7.4      40.644
2014    9       11    15  23    5.20   404.7    7.4      40.620
2014    9       11    15  28    5.19   404.6    7.4      40.594
2014    9       11    15  34    5.18   404.6    7.4      40.568
2014    9       11    15  39    5.17   404.5    7.4      40.540
2014    9       11    15  44    5.17   404.5    7.4      40.512
2014    9       11    15  50    5.16   404.4    7.4      40.483
2014    9       11    15  55    5.15   404.4    7.4      40.452
2014    9       11    16   1    5.15   404.3    7.4      40.421
2014    9       11    16   6    5.14   404.3    7.4      40.388
2014    9       11    16  11    5.13   404.2    7.4      40.355
2014    9       11    16  17    5.12   404.2    7.4      40.321
2014    9       11    16  22    5.12   404.1    7.4      40.286
2014    9       11    16  27    5.11   404.1    7.4      40.251
2014    9       11    16  33    5.10   404.0    7.4      40.214
2014    9       11    16  38    5.10   404.0    7.3      40.177
2014    9       11    16  44    5.09   403.9    7.3      40.139
2014    9       11    16  49    5.08   403.9    7.3      40.100
2014    9       11    16  54    5.08   403.8    7.3      40.061
2014    9       11    17   0    5.07   403.8    7.3      40.022
2014    9       11    17   5    5.07   403.7    7.3      39.981
2014    9       11    17  11    5.06   403.7    7.3      39.941
2014    9       11    17  16    5.05   403.6    7.3      39.900
2014    9       11    17  21    5.05   403.6    7.3      39.859
2014    9       11    17  27    5.04   403.5    7.3      39.817
2014    9       11    17  32    5.03   403.5    7.3      39.775
2014    9       11    17  37    5.03   403.4    7.3      39.733
2014    9       11    17  43    5.02   403.4    7.2      39.691
2014    9       11    17  48    5.02   403.3    7.2      39.648
2014    9       11    17  54    5.01   403.3    7.2      39.606
2014    9       11    17  59    5.01   403.2    7.2      39.563
2014    9       11    18   4    5.00   403.1    7.2      39.520
2014    9       11    18  10    4.99   403.1    7.2      39.478
2014    9       11    18  15    4.99   403.0    7.2      39.435
2014    9       11    18  21    4.98   403.0    7.2      39.392
2014    9       11    18  26    4.98   402.9    7.2      39.349
2014    9       11    18  31    4.97   402.9    7.2      39.305
2014    9       11    18  37    4.97   402.8    7.2      39.262
2014    9       11    18  42    4.96   402.8    7.1      39.217
2014    9       11    18  48    4.96   402.7    7.1      39.173
2014    9       11    18  53    4.95   402.7    7.1      39.127
2014    9       11    18  58    4.95   402.6    7.1      39.081
2014    9       11    19   4    4.94   402.6    7.1      39.035
2014    9       11    19   9    4.94   402.5    7.1      38.987
2014    9       11    19  14    4.93   402.5    7.1      38.939
2014    9       11    19  20    4.93   402.4    7.1      38.890
2014    9       11    19  25    4.92   402.4    7.1      38.840
2014    9       11    19  31    4.92   402.3    7.0      38.789
2014    9       11    19  36    4.91   402.3    7.0      38.737
2014    9       11    19  41    4.91   402.2    7.0      38.684
2014    9       11    19  47    4.90   402.1    7.0      38.630
2014    9       11    19  52    4.90   402.1    7.0      38.574
2014    9       11    19  58    4.89   402.0    7.0      38.518
2014    9       11    20   3    4.89   401.9    7.0      38.461
2014    9       11    20   8    4.88   401.8    7.0      38.404
2014    9       11    20  14    4.88   401.8    7.0      38.346
2014    9       11    20  19    4.87   401.7    6.9      38.287
2014    9       11    20  24    4.87   401.6    6.9      38.229
2014    9       11    20  30    4.86   401.6    6.9      38.170
2014    9       11    20  35    4.86   401.5    6.9      38.111
2014    9       11    20  41    4.86   401.4    6.9      38.052
2014    9       11    20  46    4.85   401.4    6.9      37.993
2014    9       11    20  51    4.85   401.3    6.9      37.933
2014    9       11    20  57    4.84   401.2    6.9      37.873
2014    9       11    21   2    4.84   401.1    6.9      37.813
2014    9       11    21   8    4.83   401.1    6.9      37.753
2014    9       11    21  13    4.83   401.0    6.8      37.693
2014    9       11    21  18    4.83   400.9    6.8      37.633
2014    9       11    21  24    4.82   400.9    6.8      37.573
2014    9       11    21  29    4.82   400.8    6.8      37.513
2014    9       11    21  34    4.81   400.7    6.8      37.453
2014    9       11    21  40    4.81   400.7    6.8      37.394
2014    9       11    21  45    4.81   400.6    6.8      37.334
2014    9       11    21  51    4.80   400.5    6.8      37.275
2014    9       11    21  56    4.80   400.4    6.8      37.215
2014    9       11    22   1    4.79   400.4    6.7      37.157
2014    9       11    22   7    4.79   400.3    6.7      37.098
2014    9       11    22  12    4.79   400.2    6.7      37.039
2014    9       11    22  18    4.78   400.2    6.7      36.981
2014    9       11    22  23    4.78   400.1    6.7      36.922
2014    9       11    22  28    4.78   400.0    6.7      36.864
2014    9       11    22  34    4.77   400.0    6.7      36.807
2014    9       11    22  39    4.77   399.9    6.7      36.749
2014    9       11    22  44    4.77   399.8    6.7      36.692
2014    9       11    22  50    4.76   399.7    6.7      36.635
2014    9       11    22  55    4.76   399.7    6.6      36.578
2014    9       11    23   1    4.76   399.6    6.6      36.522
2014    9       11    23   6    4.75   399.5    6.6      36.466
2014    9       11    23  11    4.75   399.4    6.6      36.409
2014    9       11    23  17    4.74   399.4    6.6      36.353
2014    9       11    23  22    4.74   399.3    6.6      36.298
2014    9       11    23  28    4.74   399.2    6.6      36.242
2014    9       11    23  33    4.73   399.1    6.6      36.187
2014    9       11    23  38    4.73   399.1    6.6      36.132
2014    9       11    23  44    4.73   399.0    6.6      36.077
2014    9       11    23  49    4.72   398.9    6.5      36.023
2014    9       11    23  54    4.72   398.8    6.5      35.969
2014    9       12     0   0    4.72   398.8    6.5      35.915
2014    9       12     0   5    4.71   398.7    6.5      35.861
2014    9       12     0  11    4.71   398.6    6.5      35.807
2014    9       12     0  16    4.71   398.5    6.5      35.754
2014    9       12     0  21    4.70   398.4    6.5      35.700
2014    9       12     0  27    4.70   398.3    6.5      35.647
2014    9       12     0  32    4.70   398.3    6.5      35.594
2014    9       12     0  38    4.69   398.2    6.5      35.541
2014    9       12     0  43    4.69   398.1    6.5      35.488
2014    9       12     0  48    4.69   398.0    6.4      35.435
2014    9       12     0  54    4.68   397.9    6.4      35.382
2014    9       12     0  59    4.68   397.8    6.4      35.329
2014    9       12     1   5    4.68   397.7    6.4      35.276
2014    9       12     1  10    4.67   397.6    6.4      35.222
2014    9       12     1  15    4.67   397.5    6.4      35.169
2014    9       12     1  21    4.67   397.4    6.4      35.114
2014    9       12     1  26    4.66   397.4    6.4      35.060
2014    9       12     1  31    4.66   397.3    6.4      35.005
2014    9       12     1  37    4.66   397.2    6.4      34.950
2014    9       12     1  42    4.65   397.1    6.4      34.894
2014    9       12     1  48    4.65   397.0    6.4      34.839
2014    9       12     1  53    4.65   396.9    6.3      34.782
2014    9       12     1  58    4.64   396.8    6.3      34.725
2014    9       12     2   4    4.64   396.7    6.3      34.669
2014    9       12     2   9    4.64   396.6    6.3      34.611
2014    9       12     2  15    4.63   396.5    6.3      34.554
2014    9       12     2  20    4.63   396.4    6.3      34.497
2014    9       12     2  25    4.63   396.3    6.3      34.440
2014    9       12     2  31    4.62   396.2    6.3      34.383
2014    9       12     2  36    4.62   396.2    6.3      34.326
2014    9       12     2  41    4.62   396.1    6.3      34.270
2014    9       12     2  47    4.61   396.0    6.3      34.214
2014    9       12     2  52    4.61   395.9    6.3      34.158
2014    9       12     2  58    4.61   395.8    6.3      34.103
2014    9       12     3   3    4.60   395.7    6.3      34.047
2014    9       12     3   8    4.60   395.6    6.3      33.993
2014    9       12     3  14    4.59   395.5    6.3      33.938
2014    9       12     3  19    4.59   395.4    6.3      33.884
2014    9       12     3  25    4.59   395.3    6.3      33.830
2014    9       12     3  30    4.58   395.2    6.2      33.776
2014    9       12     3  35    4.58   395.1    6.2      33.723
2014    9       12     3  41    4.58   395.0    6.2      33.670
2014    9       12     3  46    4.57   394.9    6.2      33.618
2014    9       12     3  51    4.57   394.8    6.2      33.565
2014    9       12     3  57    4.57   394.7    6.2      33.514
2014    9       12     4   2    4.56   394.6    6.2      33.462
2014    9       12     4   8    4.56   394.5    6.2      33.411
2014    9       12     4  13    4.56   394.4    6.2      33.360
2014    9       12     4  18    4.55   394.3    6.2      33.310
2014    9       12     4  24    4.55   394.1    6.2      33.260
2014    9       12     4  29    4.54   394.0    6.2      33.210
2014    9       12     4  35    4.54   393.9    6.2      33.161
2014    9       12     4  40    4.54   393.8    6.2      33.112
2014    9       12     4  45    4.53   393.7    6.2      33.063
2014    9       12     4  51    4.53   393.6    6.2      33.016
2014    9       12     4  56    4.53   393.5    6.2      32.968
2014    9       12     5   1    4.52   393.4    6.2      32.921
2014    9       12     5   7    4.52   393.3    6.2      32.875
2014    9       12     5  12    4.52   393.2    6.2      32.828
2014    9       12     5  18    4.51   393.0    6.1      32.783
2014    9       12     5  23    4.51   392.9    6.1      32.738
2014    9       12     5  28    4.51   392.8    6.1      32.693
2014    9       12     5  34    4.50   392.7    6.1      32.648
2014    9       12     5  39    4.50   392.6    6.1      32.604
2014    9       12     5  45    4.49   392.5    6.1      32.561
2014    9       12     5  50    4.49   392.4    6.1      32.517
2014    9       12     5  55    4.49   392.2    6.1      32.475
2014    9       12     6   1    4.48   392.1    6.1      32.432
2014    9       12     6   6    4.48   392.0    6.1      32.390
2014    9       12     6  11    4.48   391.9    6.1      32.349
2014    9       12     6  17    4.47   391.7    6.1      32.307
2014    9       12     6  22    4.47   391.6    6.1      32.266
2014    9       12     6  28    4.47   391.5    6.1      32.226
2014    9       12     6  33    4.46   391.4    6.1      32.186
2014    9       12     6  38    4.46   391.2    6.1      32.146
2014    9       12     6  44    4.46   391.1    6.1      32.107
2014    9       12     6  49    4.45   391.0    6.1      32.068
2014    9       12     6  55    4.45   390.9    6.1      32.029
2014    9       12     7   0    4.45   390.7    6.1      31.992
2014    9       12     7   5    4.44   390.6    6.1      31.954
2014    9       12     7  11    4.44   390.5    6.1      31.917
2014    9       12     7  16    4.44   390.3    6.1      31.881
2014    9       12     7  22    4.43   390.2    6.1      31.845
2014    9       12     7  27    4.43   390.1    6.1      31.810
2014    9       12     7  32    4.43   389.9    6.1      31.776
2014    9       12     7  38    4.43   389.8    6.1      31.742
2014    9       12     7  43    4.42   389.7    6.1      31.708
2014    9       12     7  48    4.42   389.5    6.1      31.676
2014    9       12     7  54    4.42   389.4    6.0      31.644
2014    9       12     7  59    4.41   389.3    6.0      31.613
2014    9       12     8   5    4.41   389.1    6.0      31.583
2014    9       12     8  10    4.41   389.0    6.0      31.553
2014    9       12     8  15    4.41   388.8    6.0      31.525
2014    9       12     8  21    4.40   388.7    6.0      31.497
2014    9       12     8  26    4.40   388.6    6.0      31.470
2014    9       12     8  32    4.40   388.4    6.0      31.444
2014    9       12     8  37    4.40   388.3    6.0      31.418
2014    9       12     8  42    4.39   388.2    6.0      31.394
2014    9       12     8  48    4.39   388.1    6.0      31.370
2014    9       12     8  53    4.39   387.9    6.0      31.347
2014    9       12     8  58    4.39   387.8    6.0      31.325
2014    9       12     9   4    4.39   387.7    6.1      31.303
2014    9       12     9   9    4.38   387.5    6.1      31.283
2014    9       12     9  15    4.38   387.4    6.1      31.262
2014    9       12     9  20    4.38   387.3    6.1      31.243
2014    9       12     9  25    4.38   387.2    6.1      31.224
2014    9       12     9  31    4.38   387.0    6.1      31.205
2014    9       12     9  36    4.37   386.9    6.1      31.186
2014    9       12     9  42    4.37   386.8    6.1      31.168
2014    9       12     9  47    4.37   386.7    6.1      31.150
2014    9       12     9  52    4.37   386.5    6.1      31.132
2014    9       12     9  58    4.37   386.4    6.1      31.114
2014    9       12    10   3    4.36   386.3    6.1      31.096
2014    9       12    10   9    4.36   386.2    6.1      31.078
2014    9       12    10  14    4.36   386.0    6.1      31.059
2014    9       12    10  19    4.36   385.9    6.1      31.041
2014    9       12    10  25    4.36   385.8    6.1      31.022
2014    9       12    10  30    4.36   385.6    6.1      31.003
2014    9       12    10  35    4.35   385.5    6.1      30.984
2014    9       12    10  41    4.35   385.4    6.1      30.965
2014    9       12    10  46    4.35   385.2    6.1      30.945
2014    9       12    10  52    4.35   385.1    6.1      30.926
2014    9       12    10  57    4.35   385.0    6.1      30.906
2014    9       12    11   2    4.35   384.8    6.1      30.885
2014    9       12    11   8    4.34   384.7    6.1      30.865
2014    9       12    11  13    4.34   384.6    6.1      30.844
2014    9       12    11  19    4.34   384.4    6.1      30.823
2014    9       12    11  24    4.34   384.3    6.1      30.802
2014    9       12    11  29    4.34   384.2    6.1      30.781
2014    9       12    11  35    4.34   384.0    6.1      30.759
2014    9       12    11  40    4.33   383.9    6.1      30.738
2014    9       12    11  45    4.33   383.8    6.1      30.716
2014    9       12    11  51    4.33   383.6    6.1      30.694
2014    9       12    11  56    4.33   383.5    6.1      30.672
2014    9       12    12   2    4.33   383.3    6.1      30.650
2014    9       12    12   7    4.33   383.2    6.1      30.627
2014    9       12    12  12    4.33   383.1    6.1      30.605
2014    9       12    12  18    4.32   382.9    6.1      30.582
2014    9       12    12  23    4.32   382.8    6.1      30.560
2014    9       12    12  29    4.32   382.6    6.1      30.537
2014    9       12    12  34    4.32   382.5    6.1      30.515
2014    9       12    12  39    4.32   382.4    6.1      30.492
2014    9       12    12  45    4.32   382.2    6.1      30.469
2014    9       12    12  50    4.32   382.1    6.1      30.446
2014    9       12    12  55    4.31   382.0    6.1      30.423
2014    9       12    13   1    4.31   381.8    6.1      30.400
2014    9       12    13   6    4.31   381.7    6.1      30.377
2014    9       12    13  12    4.31   381.5    6.1      30.354
2014    9       12    13  17    4.31   381.4    6.1      30.331
2014    9       12    13  22    4.31   381.3    6.1      30.308
2014    9       12    13  28    4.31   381.1    6.1      30.285
2014    9       12    13  33    4.30   381.0    6.1      30.262
2014    9       12    13  39    4.30   380.9    6.1      30.239
2014    9       12    13  44    4.30   380.7    6.1      30.215
2014    9       12    13  49    4.30   380.6    6.2      30.192
2014    9       12    13  55    4.30   380.4    6.2      30.169
2014    9       12    14   0    4.30   380.3    6.2      30.146
2014    9       12    14   5    4.30   380.2    6.2      30.123
2014    9       12    14  11    4.30   380.0    6.2      30.101
2014    9       12    14  16    4.30   379.9    6.2      30.078
2014    9       12    14  22    4.29   379.8    6.2      30.055
2014    9       12    14  27    4.29   379.6    6.2      30.033
2014    9       12    14  32    4.29   379.5    6.2      30.011
2014    9       12    14  38    4.29   379.3    6.2      29.988
2014    9       12    14  43    4.29   379.2    6.2      29.966
2014    9       12    14  49    4.29   379.1    6.2      29.944
2014    9       12    14  54    4.29   378.9    6.2      29.922
2014    9       12    14  59    4.29   378.8    6.2      29.900
2014    9       12    15   5    4.29   378.7    6.2      29.878
2014    9       12    15  10    4.28   378.5    6.2      29.856
2014    9       12    15  15    4.28   378.4    6.2      29.834
2014    9       12    15  21    4.28   378.3    6.2      29.813
2014    9       12    15  26    4.28   378.1    6.2      29.791
2014    9       12    15  32    4.28   378.0    6.2      29.770
2014    9       12    15  37    4.28   377.8    6.2      29.748
2014    9       12    15  42    4.28   377.7    6.2      29.727
2014    9       12    15  48    4.28   377.6    6.2      29.706
2014    9       12    15  53    4.28   377.4    6.2      29.686
2014    9       12    15  59    4.28   377.3    6.2      29.665
2014    9       12    16   4    4.27   377.2    6.2      29.644
2014    9       12    16   9    4.27   377.0    6.2      29.624
2014    9       12    16  15    4.27   376.9    6.2      29.604
2014    9       12    16  20    4.27   376.8    6.2      29.584
2014    9       12    16  26    4.27   376.6    6.2      29.564
2014    9       12    16  31    4.27   376.5    6.2      29.544
2014    9       12    16  36    4.27   376.4    6.2      29.524
2014    9       12    16  42    4.27   376.2    6.2      29.505
2014    9       12    16  47    4.27   376.1    6.2      29.485
2014    9       12    16  52    4.27   376.0    6.2      29.466
2014    9       12    16  58    4.27   375.8    6.2      29.447
2014    9       12    17   3    4.26   375.7    6.2      29.428
2014    9       12    17   9    4.26   375.6    6.2      29.409
2014    9       12    17  14    4.26   375.4    6.2      29.390
2014    9       12    17  19    4.26   375.3    6.2      29.372
2014    9       12    17  25    4.26   375.2    6.2      29.353
2014    9       12    17  30    4.26   375.0    6.2      29.335
2014    9       12    17  36    4.26   374.9    6.2      29.317
2014    9       12    17  41    4.26   374.8    6.2      29.299
2014    9       12    17  46    4.26   374.6    6.2      29.281
2014    9       12    17  52    4.26   374.5    6.2      29.263
2014    9       12    17  57    4.26   374.4    6.2      29.245
2014    9       12    18   2    4.25   374.2    6.2      29.227
2014    9       12    18   8    4.25   374.1    6.2      29.210
2014    9       12    18  13    4.25   374.0    6.2      29.192
2014    9       12    18  19    4.25   373.8    6.2      29.175
2014    9       12    18  24    4.25   373.7    6.2      29.158
2014    9       12    18  29    4.25   373.6    6.2      29.141
2014    9       12    18  35    4.25   373.4    6.2      29.124
2014    9       12    18  40    4.25   373.3    6.2      29.107
2014    9       12    18  46    4.25   373.2    6.2      29.090
2014    9       12    18  51    4.25   373.0    6.2      29.073
2014    9       12    18  56    4.25   372.9    6.2      29.056
2014    9       12    19   2    4.25   372.8    6.2      29.039
2014    9       12    19   7    4.25   372.6    6.2      29.022
2014    9       12    19  12    4.24   372.5    6.2      29.006
2014    9       12    19  18    4.24   372.4    6.2      28.989
2014    9       12    19  23    4.24   372.2    6.2      28.972
2014    9       12    19  29    4.24   372.1    6.2      28.955
2014    9       12    19  34    4.24   372.0    6.2      28.938
2014    9       12    19  39    4.24   371.8    6.2      28.922
2014    9       12    19  45    4.24   371.7    6.2      28.905
2014    9       12    19  50    4.24   371.5    6.2      28.888
2014    9       12    19  56    4.24   371.4    6.2      28.871
2014    9       12    20   1    4.24   371.3    6.2      28.855
2014    9       12    20   6    4.24   371.1    6.2      28.838
2014    9       12    20  12    4.24   371.0    6.2      28.821
2014    9       12    20  17    4.24   370.9    6.2      28.804
2014    9       12    20  22    4.24   370.7    6.2      28.787
2014    9       12    20  28    4.23   370.6    6.2      28.770
2014    9       12    20  33    4.23   370.5    6.2      28.753
2014    9       12    20  39    4.23   370.3    6.2      28.736
2014    9       12    20  44    4.23   370.2    6.2      28.720
2014    9       12    20  49    4.23   370.1    6.2      28.703
2014    9       12    20  55    4.23   369.9    6.2      28.686
2014    9       12    21   0    4.23   369.8    6.2      28.669
2014    9       12    21   6    4.23   369.7    6.2      28.652
2014    9       12    21  11    4.23   369.5    6.2      28.635
2014    9       12    21  16    4.23   369.4    6.2      28.618
2014    9       12    21  22    4.23   369.2    6.2      28.601
2014    9       12    21  27    4.23   369.1    6.2      28.584
2014    9       12    21  33    4.23   369.0    6.2      28.567
2014    9       12    21  38    4.23   368.8    6.2      28.550
2014    9       12    21  43    4.23   368.7    6.2      28.533
2014    9       12    21  49    4.22   368.5    6.2      28.516
2014    9       12    21  54    4.22   368.4    6.2      28.500
2014    9       12    21  59    4.22   368.3    6.2      28.483
2014    9       12    22   5    4.22   368.1    6.2      28.466
2014    9       12    22  10    4.22   368.0    6.2      28.449
2014    9       12    22  16    4.22   367.8    6.3      28.432
2014    9       12    22  21    4.22   367.7    6.3      28.416
2014    9       12    22  26    4.22   367.6    6.3      28.399
2014    9       12    22  32    4.22   367.4    6.3      28.382
2014    9       12    22  37    4.22   367.3    6.3      28.366
2014    9       12    22  43    4.22   367.1    6.3      28.349
2014    9       12    22  48    4.22   367.0    6.3      28.333
2014    9       12    22  53    4.22   366.9    6.3      28.317
2014    9       12    22  59    4.22   366.7    6.3      28.300
2014    9       12    23   4    4.22   366.6    6.3      28.284
2014    9       12    23   9    4.22   366.4    6.3      28.268
2014    9       12    23  15    4.22   366.3    6.3      28.253
2014    9       12    23  20    4.22   366.1    6.3      28.237
2014    9       12    23  26    4.22   366.0    6.3      28.221
2014    9       12    23  31    4.22   365.8    6.3      28.206
2014    9       12    23  36    4.22   365.7    6.3      28.191
2014    9       12    23  42    4.22   365.6    6.3      28.176
2014    9       12    23  47    4.22   365.4    6.3      28.162
2014    9       12    23  53    4.22   365.3    6.3      28.147
2014    9       12    23  58    4.22   365.1    6.3      28.133
2014    9       13     0   3    4.22   365.0    6.3      28.119
2014    9       13     0   9    4.22   364.8    6.3      28.106
2014    9       13     0  14    4.22   364.7    6.3      28.092
2014    9       13     0  20    4.22   364.5    6.3      28.079
2014    9       13     0  25    4.22   364.4    6.3      28.067
2014    9       13     0  30    4.22   364.3    6.3      28.054
2014    9       13     0  36    4.22   364.1    6.3      28.042
2014    9       13     0  41    4.22   364.0    6.3      28.030
2014    9       13     0  46    4.22   363.8    6.3      28.019
2014    9       13     0  52    4.22   363.7    6.3      28.007
2014    9       13     0  57    4.22   363.5    6.3      27.996
2014    9       13     1   3    4.22   363.4    6.3      27.985
2014    9       13     1   8    4.22   363.3    6.3      27.975
2014    9       13     1  13    4.22   363.1    6.3      27.964
2014    9       13     1  19    4.22   363.0    6.3      27.954
2014    9       13     1  24    4.22   362.8    6.3      27.943
2014    9       13     1  30    4.22   362.7    6.3      27.933
2014    9       13     1  35    4.23   362.5    6.3      27.923
2014    9       13     1  40    4.23   362.4    6.3      27.914
2014    9       13     1  46    4.23   362.3    6.3      27.904
2014    9       13     1  51    4.23   362.1    6.4      27.895
2014    9       13     1  56    4.23   362.0    6.4      27.885
2014    9       13     2   2    4.23   361.8    6.4      27.876
2014    9       13     2   7    4.23   361.7    6.4      27.867
2014    9       13     2  13    4.23   361.6    6.4      27.858
2014    9       13     2  18    4.23   361.4    6.4      27.849
2014    9       13     2  23    4.23   361.3    6.4      27.840
2014    9       13     2  29    4.24   361.2    6.4      27.831
2014    9       13     2  34    4.24   361.0    6.4      27.823
2014    9       13     2  40    4.24   360.9    6.4      27.814
2014    9       13     2  45    4.24   360.7    6.4      27.806
2014    9       13     2  50    4.24   360.6    6.4      27.797
2014    9       13     2  56    4.24   360.5    6.4      27.789
2014    9       13     3   1    4.24   360.3    6.4      27.781
2014    9       13     3   6    4.24   360.2    6.4      27.773
2014    9       13     3  12    4.25   360.1    6.4      27.764
2014    9       13     3  17    4.25   359.9    6.4      27.756
2014    9       13     3  23    4.25   359.8    6.4      27.748
2014    9       13     3  28    4.25   359.7    6.4      27.740
2014    9       13     3  33    4.25   359.5    6.4      27.732
2014    9       13     3  39    4.25   359.4    6.4      27.724
2014    9       13     3  44    4.25   359.2    6.4      27.716
2014    9       13     3  50    4.26   359.1    6.5      27.709
2014    9       13     3  55    4.26   359.0    6.5      27.701
2014    9       13     4   0    4.26   358.8    6.5      27.693
2014    9       13     4   6    4.26   358.7    6.5      27.686
2014    9       13     4  11    4.26   358.6    6.5      27.678
2014    9       13     4  16    4.26   358.4    6.5      27.671
2014    9       13     4  22    4.26   358.3    6.5      27.663
2014    9       13     4  27    4.27   358.2    6.5      27.656
2014    9       13     4  33    4.27   358.0    6.5      27.649
2014    9       13     4  38    4.27   357.9    6.5      27.642
2014    9       13     4  43    4.27   357.8    6.5      27.635
2014    9       13     4  49    4.27   357.6    6.5      27.628
2014    9       13     4  54    4.27   357.5    6.5      27.621
2014    9       13     5   0    4.28   357.4    6.5      27.614
2014    9       13     5   5    4.28   357.2    6.5      27.608
2014    9       13     5  10    4.28   357.1    6.5      27.601
2014    9       13     5  16    4.28   357.0    6.5      27.595
2014    9       13     5  21    4.28   356.8    6.5      27.588
2014    9       13     5  27    4.28   356.7    6.6      27.582
2014    9       13     5  32    4.29   356.6    6.6      27.576
2014    9       13     5  37    4.29   356.4    6.6      27.571
2014    9       13     5  43    4.29   356.3    6.6      27.565
2014    9       13     5  48    4.29   356.2    6.6      27.560
2014    9       13     5  53    4.29   356.1    6.6      27.555
2014    9       13     5  59    4.29   355.9    6.6      27.550
2014    9       13     6   4    4.30   355.8    6.6      27.546
2014    9       13     6  10    4.30   355.7    6.6      27.541
2014    9       13     6  15    4.30   355.6    6.6      27.537
2014    9       13     6  20    4.30   355.4    6.6      27.533
2014    9       13     6  26    4.30   355.3    6.6      27.530
2014    9       13     6  31    4.31   355.2    6.6      27.527
2014    9       13     6  37    4.31   355.0    6.6      27.524
2014    9       13     6  42    4.31   354.9    6.6      27.521
2014    9       13     6  47    4.31   354.8    6.6      27.519
2014    9       13     6  53    4.31   354.7    6.7      27.517
2014    9       13     6  58    4.32   354.6    6.7      27.515
2014    9       13     7   3    4.32   354.4    6.7      27.514
2014    9       13     7   9    4.32   354.3    6.7      27.514
2014    9       13     7  14    4.32   354.2    6.7      27.513
2014    9       13     7  20    4.32   354.1    6.7      27.513
2014    9       13     7  25    4.33   354.0    6.7      27.513
2014    9       13     7  30    4.33   353.8    6.7      27.514
2014    9       13     7  36    4.33   353.7    6.7      27.515
2014    9       13     7  41    4.33   353.6    6.7      27.516
2014    9       13     7  47    4.34   353.5    6.7      27.517
2014    9       13     7  52    4.34   353.4    6.7      27.519
2014    9       13     7  57    4.34   353.3    6.7      27.522
2014    9       13     8   3    4.34   353.2    6.8      27.524
2014    9       13     8   8    4.35   353.1    6.8      27.527
2014    9       13     8  14    4.35   352.9    6.8      27.531
2014    9       13     8  19    4.35   352.8    6.8      27.534
2014    9       13     8  24    4.35   352.7    6.8      27.538
2014    9       13     8  30    4.36   352.6    6.8      27.543
2014    9       13     8  35    4.36   352.5    6.8      27.547
2014    9       13     8  40    4.36   352.4    6.8      27.553
2014    9       13     8  46    4.37   352.3    6.8      27.558
2014    9       13     8  51    4.37   352.2    6.8      27.564
2014    9       13     8  57    4.37   352.1    6.8      27.570
2014    9       13     9   2    4.37   352.0    6.8      27.576
2014    9       13     9   7    4.38   351.9    6.9      27.582
2014    9       13     9  13    4.38   351.8    6.9      27.589
2014    9       13     9  18    4.38   351.7    6.9      27.596
2014    9       13     9  24    4.39   351.6    6.9      27.604
2014    9       13     9  29    4.39   351.5    6.9      27.611
2014    9       13     9  34    4.39   351.4    6.9      27.619
2014    9       13     9  40    4.40   351.3    6.9      27.627
2014    9       13     9  45    4.40   351.2    6.9      27.636
2014    9       13     9  50    4.40   351.1    6.9      27.645
2014    9       13     9  56    4.40   351.0    6.9      27.653
2014    9       13    10   1    4.41   350.9    6.9      27.663
2014    9       13    10   7    4.41   350.8    7.0      27.672
2014    9       13    10  12    4.41   350.8    7.0      27.681
2014    9       13    10  17    4.42   350.7    7.0      27.691
2014    9       13    10  23    4.42   350.6    7.0      27.701
2014    9       13    10  28    4.42   350.5    7.0      27.712
2014    9       13    10  34    4.43   350.4    7.0      27.722
2014    9       13    10  39    4.43   350.3    7.0      27.732
2014    9       13    10  44    4.43   350.2    7.0      27.743
2014    9       13    10  50    4.44   350.1    7.0      27.754
2014    9       13    10  55    4.44   350.1    7.1      27.765
2014    9       13    11   0    4.44   350.0    7.1      27.776
2014    9       13    11   6    4.45   349.9    7.1      27.788
2014    9       13    11  11    4.45   349.8    7.1      27.799
2014    9       13    11  17    4.45   349.7    7.1      27.811
2014    9       13    11  22    4.46   349.7    7.1      27.823
2014    9       13    11  27    4.46   349.6    7.1      27.834
2014    9       13    11  33    4.46   349.5    7.1      27.846
2014    9       13    11  38    4.47   349.4    7.1      27.858
2014    9       13    11  44    4.47   349.3    7.2      27.871
2014    9       13    11  49    4.47   349.3    7.2      27.883
2014    9       13    11  54    4.48   349.2    7.2      27.895
2014    9       13    12   0    4.48   349.1    7.2      27.908
2014    9       13    12   5    4.48   349.0    7.2      27.921
2014    9       13    12  10    4.49   349.0    7.2      27.933
2014    9       13    12  16    4.49   348.9    7.2      27.946
2014    9       13    12  21    4.49   348.8    7.2      27.959
2014    9       13    12  27    4.50   348.7    7.2      27.972
2014    9       13    12  32    4.50   348.7    7.3      27.985
2014    9       13    12  37    4.50   348.6    7.3      27.999
2014    9       13    12  43    4.51   348.5    7.3      28.013
2014    9       13    12  48    4.51   348.5    7.3      28.027
2014    9       13    12  54    4.51   348.4    7.3      28.041
2014    9       13    12  59    4.52   348.3    7.3      28.056
2014    9       13    13   4    4.52   348.3    7.3      28.071
2014    9       13    13  10    4.53   348.2    7.3      28.086
2014    9       13    13  15    4.53   348.1    7.3      28.101
2014    9       13    13  21    4.53   348.1    7.4      28.116
2014    9       13    13  26    4.54   348.0    7.4      28.132
2014    9       13    13  31    4.54   347.9    7.4      28.148
2014    9       13    13  37    4.54   347.9    7.4      28.163
2014    9       13    13  42    4.55   347.8    7.4      28.179
2014    9       13    13  47    4.55   347.7    7.4      28.195
2014    9       13    13  53    4.55   347.7    7.4      28.211
2014    9       13    13  58    4.56   347.6    7.4      28.227
2014    9       13    14   4    4.56   347.5    7.4      28.243
2014    9       13    14   9    4.56   347.5    7.4      28.259
2014    9       13    14  14    4.57   347.4    7.5      28.275
2014    9       13    14  20    4.57   347.3    7.5      28.291
2014    9       13    14  25    4.57   347.3    7.5      28.307
2014    9       13    14  31    4.58   347.2    7.5      28.323
2014    9       13    14  36    4.58   347.2    7.5      28.338
2014    9       13    14  41    4.58   347.1    7.5      28.354
2014    9       13    14  47    4.59   347.0    7.5      28.369
2014    9       13    14  52    4.59   347.0    7.5      28.385
2014    9       13    14  57    4.60   346.9    7.5      28.401
2014    9       13    15   3    4.60   346.9    7.5      28.416
2014    9       13    15   8    4.60   346.8    7.6      28.432
2014    9       13    15  14    4.61   346.7    7.6      28.448
2014    9       13    15  19    4.61   346.7    7.6      28.463
2014    9       13    15  24    4.61   346.6    7.6      28.479
2014    9       13    15  30    4.62   346.6    7.6      28.495
2014    9       13    15  35    4.62   346.5    7.6      28.510
2014    9       13    15  41    4.62   346.5    7.6      28.526
2014    9       13    15  46    4.63   346.4    7.6      28.541
2014    9       13    15  51    4.63   346.3    7.6      28.557
2014    9       13    15  57    4.63   346.3    7.6      28.572
2014    9       13    16   2    4.64   346.2    7.6      28.587
2014    9       13    16   7    4.64   346.2    7.7      28.603
2014    9       13    16  13    4.65   346.1    7.7      28.618
2014    9       13    16  18    4.65   346.1    7.7      28.633
2014    9       13    16  24    4.65   346.0    7.7      28.648
2014    9       13    16  29    4.66   346.0    7.7      28.663
2014    9       13    16  34    4.66   345.9    7.7      28.678
2014    9       13    16  40    4.66   345.9    7.7      28.693
2014    9       13    16  45    4.67   345.8    7.7      28.708
2014    9       13    16  51    4.67   345.8    7.7      28.723
2014    9       13    16  56    4.67   345.7    7.7      28.737
2014    9       13    17   1    4.68   345.7    7.7      28.752
2014    9       13    17   7    4.68   345.6    7.8      28.767
2014    9       13    17  12    4.69   345.6    7.8      28.782
2014    9       13    17  17    4.69   345.5    7.8      28.797
2014    9       13    17  23    4.69   345.5    7.8      28.811
2014    9       13    17  28    4.70   345.4    7.8      28.826
2014    9       13    17  34    4.70   345.4    7.8      28.841
2014    9       13    17  39    4.70   345.3    7.8      28.856
2014    9       13    17  44    4.71   345.3    7.8      28.871
2014    9       13    17  50    4.71   345.2    7.8      28.886
2014    9       13    17  55    4.72   345.2    7.8      28.902
2014    9       13    18   1    4.72   345.2    7.8      28.917
2014    9       13    18   6    4.72   345.1    7.9      28.932
2014    9       13    18  11    4.73   345.1    7.9      28.948
2014    9       13    18  17    4.73   345.0    7.9      28.964
2014    9       13    18  22    4.73   345.0    7.9      28.979
2014    9       13    18  28    4.74   345.0    7.9      28.995
2014    9       13    18  33    4.74   344.9    7.9      29.011
2014    9       13    18  38    4.75   344.9    7.9      29.027
2014    9       13    18  44    4.75   344.8    7.9      29.044
2014    9       13    18  49    4.75   344.8    7.9      29.060
2014    9       13    18  54    4.76   344.8    8.0      29.077
2014    9       13    19   0    4.76   344.7    8.0      29.094
2014    9       13    19   5    4.77   344.7    8.0      29.111
2014    9       13    19  11    4.77   344.7    8.0      29.129
2014    9       13    19  16    4.77   344.6    8.0      29.146
2014    9       13    19  21    4.78   344.6    8.0      29.164
2014    9       13    19  27    4.78   344.6    8.0      29.182
2014    9       13    19  32    4.78   344.6    8.0      29.200
2014    9       13    19  38    4.79   344.5    8.0      29.219
2014    9       13    19  43    4.79   344.5    8.0      29.237
2014    9       13    19  48    4.80   344.5    8.1      29.256
2014    9       13    19  54    4.80   344.5    8.1      29.275
2014    9       13    19  59    4.80   344.4    8.1      29.295
2014    9       13    20   4    4.81   344.4    8.1      29.314
2014    9       13    20  10    4.81   344.4    8.1      29.334
2014    9       13    20  15    4.82   344.4    8.1      29.355
2014    9       13    20  21    4.82   344.3    8.1      29.376
2014    9       13    20  26    4.82   344.3    8.1      29.397
2014    9       13    20  31    4.83   344.3    8.1      29.419
2014    9       13    20  37    4.83   344.3    8.2      29.441
2014    9       13    20  42    4.83   344.2    8.2      29.462
2014    9       13    20  48    4.84   344.2    8.2      29.484
2014    9       13    20  53    4.84   344.2    8.2      29.506
2014    9       13    20  58    4.85   344.2    8.2      29.529
2014    9       13    21   4    4.85   344.1    8.2      29.551
2014    9       13    21   9    4.85   344.1    8.2      29.573
2014    9       13    21  15    4.86   344.1    8.2      29.595
2014    9       13    21  20    4.86   344.1    8.2      29.616
2014    9       13    21  25    4.86   344.1    8.2      29.638
2014    9       13    21  31    4.87   344.0    8.2      29.660
2014    9       13    21  36    4.87   344.0    8.3      29.681
2014    9       13    21  41    4.87   344.0    8.3      29.702
2014    9       13    21  47    4.88   344.0    8.3      29.723
2014    9       13    21  52    4.88   344.0    8.3      29.744
2014    9       13    21  58    4.89   343.9    8.3      29.765
2014    9       13    22   3    4.89   343.9    8.3      29.785
2014    9       13    22   8    4.89   343.9    8.3      29.806
2014    9       13    22  14    4.90   343.9    8.3      29.826
2014    9       13    22  19    4.90   343.9    8.3      29.846
2014    9       13    22  25    4.90   343.8    8.3      29.866
2014    9       13    22  30    4.91   343.8    8.3      29.886
2014    9       13    22  35    4.91   343.8    8.3      29.906
2014    9       13    22  41    4.91   343.8    8.4      29.925
2014    9       13    22  46    4.92   343.8    8.4      29.945
2014    9       13    22  51    4.92   343.7    8.4      29.965
2014    9       13    22  57    4.93   343.7    8.4      29.984
2014    9       13    23   2    4.93   343.7    8.4      30.003
2014    9       13    23   8    4.93   343.7    8.4      30.022
2014    9       13    23  13    4.94   343.7    8.4      30.042
2014    9       13    23  18    4.94   343.7    8.4      30.061
2014    9       13    23  24    4.94   343.6    8.4      30.080
2014    9       13    23  29    4.95   343.6    8.4      30.099
2014    9       13    23  35    4.95   343.6    8.4      30.118
2014    9       13    23  40    4.96   343.6    8.4      30.137
2014    9       13    23  45    4.96   343.6    8.4      30.155
2014    9       13    23  51    4.96   343.6    8.5      30.174
2014    9       13    23  56    4.97   343.6    8.5      30.193
2014    9       14     0   1    4.97   343.6    8.5      30.212
2014    9       14     0   7    4.97   343.5    8.5      30.230
2014    9       14     0  12    4.98   343.5    8.5      30.249
2014    9       14     0  18    4.98   343.5    8.5      30.268
2014    9       14     0  23    4.99   343.5    8.5      30.287
2014    9       14     0  28    4.99   343.5    8.5      30.305
2014    9       14     0  34    4.99   343.5    8.5      30.324
2014    9       14     0  39    5.00   343.5    8.5      30.343
2014    9       14     0  45    5.00   343.5    8.5      30.361
2014    9       14     0  50    5.00   343.5    8.5      30.380
2014    9       14     0  55    5.01   343.4    8.5      30.399
2014    9       14     1   1    5.01   343.4    8.6      30.418
2014    9       14     1   6    5.01   343.4    8.6      30.437
2014    9       14     1  11    5.02   343.4    8.6      30.456
2014    9       14     1  17    5.02   343.4    8.6      30.475
2014    9       14     1  22    5.02   343.4    8.6      30.494
2014    9       14     1  28    5.03   343.4    8.6      30.513
2014    9       14     1  33    5.03   343.4    8.6      30.532
2014    9       14     1  38    5.04   343.4    8.6      30.552
2014    9       14     1  44    5.04   343.4    8.6      30.571
2014    9       14     1  49    5.04   343.4    8.6      30.590
2014    9       14     1  55    5.05   343.4    8.6      30.609
2014    9       14     2   0    5.05   343.4    8.6      30.628
2014    9       14     2   5    5.05   343.4    8.6      30.647
2014    9       14     2  11    5.06   343.4    8.7      30.667
2014    9       14     2  16    5.06   343.3    8.7      30.686
2014    9       14     2  22    5.06   343.3    8.7      30.705
2014    9       14     2  27    5.06   343.3    8.7      30.724
2014    9       14     2  32    5.07   343.3    8.7      30.743
2014    9       14     2  38    5.07   343.3    8.7      30.762
2014    9       14     2  43    5.07   343.3    8.7      30.781
2014    9       14     2  48    5.08   343.3    8.7      30.800
2014    9       14     2  54    5.08   343.3    8.7      30.819
2014    9       14     2  59    5.08   343.3    8.7      30.837
2014    9       14     3   5    5.09   343.3    8.7      30.856
2014    9       14     3  10    5.09   343.3    8.7      30.875
2014    9       14     3  15    5.09   343.3    8.7      30.893
2014    9       14     3  21    5.10   343.3    8.7      30.912
2014    9       14     3  26    5.10   343.3    8.7      30.931
2014    9       14     3  32    5.10   343.3    8.7      30.949
2014    9       14     3  37    5.10   343.3    8.8      30.967
2014    9       14     3  42    5.11   343.3    8.8      30.985
2014    9       14     3  48    5.11   343.3    8.8      31.003
2014    9       14     3  53    5.11   343.3    8.8      31.021
2014    9       14     3  58    5.12   343.3    8.8      31.039
2014    9       14     4   4    5.12   343.3    8.8      31.057
2014    9       14     4   9    5.12   343.2    8.8      31.074
2014    9       14     4  15    5.13   343.2    8.8      31.092
2014    9       14     4  20    5.13   343.2    8.8      31.109
2014    9       14     4  25    5.13   343.2    8.8      31.126
2014    9       14     4  31    5.13   343.2    8.8      31.143
2014    9       14     4  36    5.14   343.2    8.8      31.160
2014    9       14     4  42    5.14   343.2    8.8      31.177
2014    9       14     4  47    5.14   343.2    8.8      31.193
2014    9       14     4  52    5.14   343.2    8.8      31.209
2014    9       14     4  58    5.15   343.2    8.8      31.226
2014    9       14     5   3    5.15   343.2    8.8      31.242
2014    9       14     5   8    5.15   343.2    8.8      31.258
2014    9       14     5  14    5.16   343.2    8.8      31.274
2014    9       14     5  19    5.16   343.2    8.9      31.290
2014    9       14     5  25    5.16   343.2    8.9      31.305
2014    9       14     5  30    5.16   343.2    8.9      31.321
2014    9       14     5  35    5.17   343.2    8.9      31.336
2014    9       14     5  41    5.17   343.2    8.9      31.352
2014    9       14     5  46    5.17   343.2    8.9      31.367
2014    9       14     5  52    5.18   343.2    8.9      31.382
2014    9       14     5  57    5.18   343.2    8.9      31.397
2014    9       14     6   2    5.18   343.1    8.9      31.412
2014    9       14     6   8    5.18   343.1    8.9      31.427
2014    9       14     6  13    5.19   343.1    8.9      31.442
2014    9       14     6  19    5.19   343.1    8.9      31.457
2014    9       14     6  24    5.19   343.1    8.9      31.472
2014    9       14     6  29    5.19   343.1    8.9      31.486
2014    9       14     6  35    5.20   343.1    8.9      31.501
2014    9       14     6  40    5.20   343.1    8.9      31.516
2014    9       14     6  45    5.20   343.1    8.9      31.530
2014    9       14     6  51    5.21   343.1    8.9      31.545
2014    9       14     6  56    5.21   343.1    8.9      31.560
2014    9       14     7   2    5.21   343.1    8.9      31.575
2014    9       14     7   7    5.21   343.1    8.9      31.589
2014    9       14     7  12    5.22   343.1    8.9      31.604
2014    9       14     7  18    5.22   343.1    9.0      31.619
2014    9       14     7  23    5.22   343.1    9.0      31.634
2014    9       14     7  29    5.22   343.1    9.0      31.648
2014    9       14     7  34    5.23   343.1    9.0      31.663
2014    9       14     7  39    5.23   343.1    9.0      31.678
2014    9       14     7  45    5.23   343.1    9.0      31.693
2014    9       14     7  50    5.24   343.1    9.0      31.709
2014    9       14     7  55    5.24   343.1    9.0      31.724
2014    9       14     8   1    5.24   343.1    9.0      31.739
2014    9       14     8   6    5.24   343.1    9.0      31.754
2014    9       14     8  12    5.25   343.1    9.0      31.770
2014    9       14     8  17    5.25   343.1    9.0      31.785
2014    9       14     8  22    5.25   343.1    9.0      31.801
2014    9       14     8  28    5.26   343.1    9.0      31.816
2014    9       14     8  33    5.26   343.1    9.0      31.832
2014    9       14     8  39    5.26   343.1    9.0      31.848
2014    9       14     8  44    5.26   343.1    9.0      31.864
2014    9       14     8  49    5.27   343.1    9.0      31.880
2014    9       14     8  55    5.27   343.1    9.0      31.896
2014    9       14     9   0    5.27   343.1    9.0      31.912
2014    9       14     9   5    5.28   343.2    9.0      31.928
2014    9       14     9  11    5.28   343.2    9.1      31.945
2014    9       14     9  16    5.28   343.2    9.1      31.961
2014    9       14     9  22    5.29   343.2    9.1      31.978
2014    9       14     9  27    5.29   343.2    9.1      31.994
2014    9       14     9  32    5.29   343.2    9.1      32.011
2014    9       14     9  38    5.29   343.2    9.1      32.028
2014    9       14     9  43    5.30   343.2    9.1      32.045
2014    9       14     9  49    5.30   343.2    9.1      32.062
2014    9       14     9  54    5.30   343.2    9.1      32.079
2014    9       14     9  59    5.31   343.2    9.1      32.096
2014    9       14    10   5    5.31   343.2    9.1      32.113
2014    9       14    10  10    5.31   343.3    9.1      32.130
2014    9       14    10  16    5.32   343.3    9.1      32.147
2014    9       14    10  21    5.32   343.3    9.1      32.165
2014    9       14    10  26    5.32   343.3    9.1      32.182
2014    9       14    10  32    5.32   343.3    9.1      32.200
2014    9       14    10  37    5.33   343.3    9.1      32.218
2014    9       14    10  42    5.33   343.3    9.1      32.236
2014    9       14    10  48    5.33   343.3    9.1      32.254
2014    9       14    10  53    5.34   343.4    9.2      32.273
2014    9       14    10  59    5.34   343.4    9.2      32.292
2014    9       14    11   4    5.34   343.4    9.2      32.311
2014    9       14    11   9    5.34   343.4    9.2      32.330
2014    9       14    11  15    5.35   343.4    9.2      32.350
2014    9       14    11  20    5.35   343.4    9.2      32.370
2014    9       14    11  26    5.35   343.5    9.2      32.389
2014    9       14    11  31    5.36   343.5    9.2      32.409
2014    9       14    11  36    5.36   343.5    9.2      32.429
2014    9       14    11  42    5.36   343.5    9.2      32.449
2014    9       14    11  47    5.36   343.5    9.2      32.469
2014    9       14    11  52    5.37   343.5    9.2      32.489
2014    9       14    11  58    5.37   343.6    9.2      32.509
2014    9       14    12   3    5.37   343.6    9.2      32.529
2014    9       14    12   9    5.37   343.6    9.2      32.549
2014    9       14    12  14    5.38   343.6    9.2      32.569
2014    9       14    12  19    5.38   343.6    9.2      32.590
2014    9       14    12  25    5.38   343.6    9.3      32.611
2014    9       14    12  30    5.38   343.7    9.3      32.632
2014    9       14    12  36    5.39   343.7    9.3      32.653
2014    9       14    12  41    5.39   343.7    9.3      32.675
2014    9       14    12  46    5.39   343.7    9.3      32.697
2014    9       14    12  52    5.39   343.7    9.3      32.719
2014    9       14    12  57    5.40   343.7    9.3      32.741
2014    9       14    13   2    5.40   343.8    9.3      32.763
2014    9       14    13   8    5.40   343.8    9.3      32.785
2014    9       14    13  13    5.40   343.8    9.3      32.806
2014    9       14    13  19    5.41   343.8    9.3      32.828
2014    9       14    13  24    5.41   343.8    9.3      32.849
2014    9       14    13  29    5.41   343.9    9.3      32.870
2014    9       14    13  35    5.41   343.9    9.3      32.891
2014    9       14    13  40    5.42   343.9    9.3      32.911
2014    9       14    13  46    5.42   343.9    9.3      32.931
2014    9       14    13  51    5.42   343.9    9.3      32.951
2014    9       14    13  56    5.42   343.9    9.3      32.971
2014    9       14    14   2    5.42   343.9    9.3      32.990
2014    9       14    14   7    5.43   344.0    9.3      33.009
2014    9       14    14  13    5.43   344.0    9.3      33.028
2014    9       14    14  18    5.43   344.0    9.3      33.047
2014    9       14    14  23    5.43   344.0    9.4      33.065
2014    9       14    14  29    5.44   344.0    9.4      33.083
2014    9       14    14  34    5.44   344.0    9.4      33.100
2014    9       14    14  39    5.44   344.1    9.4      33.118
2014    9       14    14  45    5.44   344.1    9.4      33.135
2014    9       14    14  50    5.44   344.1    9.4      33.152
2014    9       14    14  56    5.45   344.1    9.4      33.168
2014    9       14    15   1    5.45   344.1    9.4      33.185
2014    9       14    15   6    5.45   344.1    9.4      33.201
2014    9       14    15  12    5.45   344.1    9.4      33.217
2014    9       14    15  17    5.45   344.1    9.4      33.232
2014    9       14    15  23    5.46   344.2    9.4      33.248
2014    9       14    15  28    5.46   344.2    9.4      33.263
2014    9       14    15  33    5.46   344.2    9.4      33.278
2014    9       14    15  39    5.46   344.2    9.4      33.293
2014    9       14    15  44    5.47   344.2    9.4      33.307
2014    9       14    15  49    5.47   344.2    9.4      33.322
2014    9       14    15  55    5.47   344.2    9.4      33.336
2014    9       14    16   0    5.47   344.2    9.4      33.350
2014    9       14    16   6    5.47   344.3    9.4      33.364
2014    9       14    16  11    5.48   344.3    9.4      33.378
2014    9       14    16  16    5.48   344.3    9.4      33.392
2014    9       14    16  22    5.48   344.3    9.4      33.406
2014    9       14    16  27    5.48   344.3    9.4      33.419
2014    9       14    16  33    5.48   344.3    9.4      33.433
2014    9       14    16  38    5.49   344.3    9.4      33.446
2014    9       14    16  43    5.49   344.4    9.4      33.460
2014    9       14    16  49    5.49   344.4    9.4      33.473
2014    9       14    16  54    5.49   344.4    9.4      33.486
2014    9       14    16  59    5.49   344.4    9.4      33.499
2014    9       14    17   5    5.50   344.4    9.4      33.513
2014    9       14    17  10    5.50   344.4    9.4      33.526
2014    9       14    17  16    5.50   344.4    9.4      33.539
2014    9       14    17  21    5.50   344.5    9.4      33.552
2014    9       14    17  26    5.51   344.5    9.4      33.565
2014    9       14    17  32    5.51   344.5    9.4      33.578
2014    9       14    17  37    5.51   344.5    9.4      33.591
2014    9       14    17  43    5.51   344.5    9.4      33.604
2014    9       14    17  48    5.52   344.5    9.4      33.618
2014    9       14    17  53    5.52   344.5    9.4      33.631
2014    9       14    17  59    5.52   344.6    9.4      33.644
2014    9       14    18   4    5.52   344.6    9.4      33.657
2014    9       14    18  10    5.52   344.6    9.4      33.671
2014    9       14    18  15    5.53   344.6    9.5      33.684
2014    9       14    18  20    5.53   344.6    9.5      33.698
2014    9       14    18  26    5.53   344.7    9.5      33.711
2014    9       14    18  31    5.53   344.7    9.5      33.725
2014    9       14    18  36    5.54   344.7    9.5      33.739
2014    9       14    18  42    5.54   344.7    9.5      33.752
2014    9       14    18  47    5.54   344.7    9.5      33.767
2014    9       14    18  53    5.54   344.8    9.5      33.781
2014    9       14    18  58    5.55   344.8    9.5      33.795
2014    9       14    19   3    5.55   344.8    9.5      33.809
2014    9       14    19   9    5.55   344.8    9.5      33.824
2014    9       14    19  14    5.55   344.8    9.5      33.839
2014    9       14    19  20    5.56   344.9    9.5      33.854
2014    9       14    19  25    5.56   344.9    9.5      33.869
2014    9       14    19  30    5.56   344.9    9.5      33.884
2014    9       14    19  36    5.57   344.9    9.5      33.899
2014    9       14    19  41    5.57   345.0    9.5      33.915
2014    9       14    19  46    5.57   345.0    9.5      33.931
2014    9       14    19  52    5.57   345.0    9.5      33.947
2014    9       14    19  57    5.58   345.0    9.5      33.963
2014    9       14    20   3    5.58   345.1    9.5      33.981
2014    9       14    20   8    5.58   345.1    9.5      33.998
2014    9       14    20  13    5.58   345.1    9.5      34.017
2014    9       14    20  19    5.59   345.2    9.5      34.035
2014    9       14    20  24    5.59   345.2    9.6      34.055
2014    9       14    20  30    5.59   345.2    9.6      34.075
2014    9       14    20  35    5.59   345.3    9.6      34.095
2014    9       14    20  40    5.60   345.3    9.6      34.115
2014    9       14    20  46    5.60   345.3    9.6      34.136
2014    9       14    20  51    5.60   345.4    9.6      34.157
2014    9       14    20  56    5.60   345.4    9.6      34.177
2014    9       14    21   2    5.61   345.4    9.6      34.198
2014    9       14    21   7    5.61   345.4    9.6      34.219
2014    9       14    21  13    5.61   345.5    9.6      34.241
2014    9       14    21  18    5.61   345.5    9.6      34.263
2014    9       14    21  23    5.62   345.6    9.6      34.285
2014    9       14    21  29    5.62   345.6    9.6      34.308
2014    9       14    21  34    5.62   345.6    9.6      34.331
2014    9       14    21  40    5.62   345.7    9.6      34.354
2014    9       14    21  45    5.63   345.7    9.6      34.378
2014    9       14    21  50    5.63   345.7    9.6      34.401
2014    9       14    21  56    5.63   345.8    9.6      34.425
2014    9       14    22   1    5.63   345.8    9.7      34.449
2014    9       14    22   6    5.64   345.9    9.7      34.472
2014    9       14    22  12    5.64   345.9    9.7      34.496
2014    9       14    22  17    5.64   345.9    9.7      34.519
2014    9       14    22  23    5.64   346.0    9.7      34.543
2014    9       14    22  28    5.64   346.0    9.7      34.566
2014    9       14    22  33    5.65   346.1    9.7      34.590
2014    9       14    22  39    5.65   346.1    9.7      34.613
2014    9       14    22  44    5.65   346.1    9.7      34.636
2014    9       14    22  50    5.65   346.2    9.7      34.659
2014    9       14    22  55    5.65   346.2    9.7      34.682
2014    9       14    23   0    5.66   346.2    9.7      34.704
2014    9       14    23   6    5.66   346.3    9.7      34.726
2014    9       14    23  11    5.66   346.3    9.7      34.747
2014    9       14    23  17    5.66   346.3    9.7      34.768
2014    9       14    23  22    5.66   346.4    9.7      34.789
2014    9       14    23  27    5.67   346.4    9.7      34.809
2014    9       14    23  33    5.67   346.5    9.7      34.829
2014    9       14    23  38    5.67   346.5    9.7      34.849
2014    9       14    23  43    5.67   346.5    9.7      34.868
2014    9       14    23  49    5.67   346.6    9.7      34.887
2014    9       14    23  54    5.68   346.6    9.7      34.906
2014    9       15     0   0    5.68   346.6    9.7      34.924
2014    9       15     0   5    5.68   346.7    9.7      34.942
2014    9       15     0  10    5.68   346.7    9.7      34.960
2014    9       15     0  16    5.68   346.7    9.7      34.977
2014    9       15     0  21    5.69   346.8    9.7      34.994
2014    9       15     0  27    5.69   346.8    9.7      35.011
2014    9       15     0  32    5.69   346.8    9.7      35.028
2014    9       15     0  37    5.69   346.8    9.7      35.044
2014    9       15     0  43    5.69   346.9    9.7      35.059
2014    9       15     0  48    5.69   346.9    9.7      35.075
2014    9       15     0  53    5.70   346.9    9.7      35.090
2014    9       15     0  59    5.70   347.0    9.7      35.106
2014    9       15     1   4    5.70   347.0    9.7      35.120
2014    9       15     1  10    5.70   347.0    9.7      35.135
2014    9       15     1  15    5.70   347.1    9.7      35.150
2014    9       15     1  20    5.71   347.1    9.7      35.164
2014    9       15     1  26    5.71   347.1    9.7      35.178
2014    9       15     1  31    5.71   347.2    9.7      35.191
2014    9       15     1  37    5.71   347.2    9.7      35.205
2014    9       15     1  42    5.71   347.2    9.7      35.218
2014    9       15     1  47    5.72   347.3    9.7      35.232
2014    9       15     1  53    5.72   347.3    9.7      35.245
2014    9       15     1  58    5.72   347.3    9.7      35.258
2014    9       15     2   4    5.72   347.4    9.7      35.270
2014    9       15     2   9    5.72   347.4    9.7      35.283
2014    9       15     2  14    5.72   347.4    9.7      35.295
2014    9       15     2  20    5.73   347.4    9.7      35.308
2014    9       15     2  25    5.73   347.5    9.7      35.320
2014    9       15     2  30    5.73   347.5    9.7      35.332
2014    9       15     2  36    5.73   347.5    9.7      35.345
2014    9       15     2  41    5.73   347.6    9.8      35.357
2014    9       15     2  47    5.74   347.6    9.8      35.369
2014    9       15     2  52    5.74   347.6    9.8      35.381
2014    9       15     2  57    5.74   347.7    9.8      35.393
2014    9       15     3   3    5.74   347.7    9.8      35.405
2014    9       15     3   8    5.74   347.7    9.8      35.417
2014    9       15     3  14    5.75   347.8    9.8      35.429
2014    9       15     3  19    5.75   347.8    9.8      35.441
2014    9       15     3  24    5.75   347.8    9.8      35.453
2014    9       15     3  30    5.75   347.9    9.8      35.466
2014    9       15     3  35    5.75   347.9    9.8      35.478
2014    9       15     3  40    5.76   347.9    9.8      35.490
2014    9       15     3  46    5.76   348.0    9.8      35.503
2014    9       15     3  51    5.76   348.0    9.8      35.515
2014    9       15     3  57    5.76   348.0    9.8      35.528
2014    9       15     4   2    5.76   348.1    9.8      35.541
2014    9       15     4   7    5.77   348.1    9.8      35.554
2014    9       15     4  13    5.77   348.2    9.8      35.567
2014    9       15     4  18    5.77   348.2    9.8      35.580
2014    9       15     4  24    5.77   348.2    9.8      35.593
2014    9       15     4  29    5.78   348.3    9.8      35.606
2014    9       15     4  34    5.78   348.3    9.8      35.620
2014    9       15     4  40    5.78   348.3    9.8      35.634
2014    9       15     4  45    5.78   348.4    9.8      35.648
2014    9       15     4  50    5.78   348.4    9.8      35.663
2014    9       15     4  56    5.79   348.5    9.8      35.678
2014    9       15     5   1    5.79   348.5    9.8      35.694
2014    9       15     5   7    5.79   348.5    9.8      35.710
2014    9       15     5  12    5.79   348.6    9.8      35.727
2014    9       15     5  17    5.79   348.6    9.8      35.745
2014    9       15     5  23    5.80   348.7    9.8      35.762
2014    9       15     5  28    5.80   348.7    9.8      35.781
2014    9       15     5  34    5.80   348.8    9.8      35.799
2014    9       15     5  39    5.80   348.8    9.8      35.817
2014    9       15     5  44    5.81   348.9    9.8      35.836
2014    9       15     5  50    5.81   348.9    9.8      35.855
2014    9       15     5  55    5.81   348.9    9.8      35.874
2014    9       15     6   0    5.81   349.0    9.8      35.893
2014    9       15     6   6    5.81   349.0    9.8      35.912
2014    9       15     6  11    5.82   349.1    9.8      35.932
2014    9       15     6  17    5.82   349.1    9.8      35.952
2014    9       15     6  22    5.82   349.2    9.8      35.972
2014    9       15     6  27    5.82   349.2    9.9      35.992
2014    9       15     6  33    5.82   349.3    9.9      36.012
2014    9       15     6  38    5.83   349.3    9.9      36.032
2014    9       15     6  44    5.83   349.4    9.9      36.052
2014    9       15     6  49    5.83   349.4    9.9      36.072
2014    9       15     6  54    5.83   349.5    9.9      36.092
2014    9       15     7   0    5.83   349.5    9.9      36.112
2014    9       15     7   5    5.84   349.6    9.9      36.132
2014    9       15     7  11    5.84   349.6    9.9      36.151
2014    9       15     7  16    5.84   349.7    9.9      36.171
2014    9       15     7  21    5.84   349.7    9.9      36.191
2014    9       15     7  27    5.85   349.8    9.9      36.211
2014    9       15     7  32    5.85   349.8    9.9      36.230
2014    9       15     7  37    5.85   349.9    9.9      36.250
2014    9       15     7  43    5.85   349.9    9.9      36.270
2014    9       15     7  48    5.85   350.0    9.9      36.290
2014    9       15     7  54    5.86   350.0    9.9      36.311
2014    9       15     7  59    5.86   350.1    9.9      36.332
2014    9       15     8   4    5.86   350.1    9.9      36.354
2014    9       15     8  10    5.86   350.2    9.9      36.376
2014    9       15     8  15    5.86   350.2    9.9      36.399
2014    9       15     8  21    5.87   350.3    9.9      36.422
2014    9       15     8  26    5.87   350.4    9.9      36.445
2014    9       15     8  31    5.87   350.4    9.9      36.469
2014    9       15     8  37    5.87   350.5    9.9      36.493
2014    9       15     8  42    5.87   350.5    9.9      36.517
2014    9       15     8  47    5.88   350.6    9.9      36.540
2014    9       15     8  53    5.88   350.6    9.9      36.563
2014    9       15     8  58    5.88   350.7    9.9      36.586
2014    9       15     9   4    5.88   350.8    9.9      36.609
2014    9       15     9   9    5.88   350.8    9.9      36.632
2014    9       15     9  14    5.89   350.9    9.9      36.654
2014    9       15     9  20    5.89   350.9    9.9      36.676
2014    9       15     9  25    5.89   351.0    9.9      36.697
2014    9       15     9  31    5.89   351.0    9.9      36.718
2014    9       15     9  36    5.89   351.1   10.0      36.739
2014    9       15     9  41    5.89   351.2   10.0      36.759
2014    9       15     9  47    5.90   351.2   10.0      36.779
2014    9       15     9  52    5.90   351.3   10.0      36.798
2014    9       15     9  58    5.90   351.3   10.0      36.817
2014    9       15    10   3    5.90   351.4   10.0      36.836
2014    9       15    10   8    5.90   351.4   10.0      36.854
2014    9       15    10  14    5.90   351.5   10.0      36.871
2014    9       15    10  19    5.91   351.5   10.0      36.889
2014    9       15    10  24    5.91   351.6   10.0      36.906
2014    9       15    10  30    5.91   351.6   10.0      36.922
2014    9       15    10  35    5.91   351.7   10.0      36.939
2014    9       15    10  41    5.91   351.8   10.0      36.955
2014    9       15    10  46    5.91   351.8   10.0      36.970
2014    9       15    10  51    5.91   351.9   10.0      36.986
2014    9       15    10  57    5.92   351.9    9.9      37.001
2014    9       15    11   2    5.92   352.0    9.9      37.015
2014    9       15    11   8    5.92   352.0    9.9      37.030
2014    9       15    11  13    5.92   352.1    9.9      37.044
2014    9       15    11  18    5.92   352.1    9.9      37.058
2014    9       15    11  24    5.92   352.2    9.9      37.072
2014    9       15    11  29    5.92   352.2    9.9      37.085
2014    9       15    11  34    5.93   352.3    9.9      37.099
2014    9       15    11  40    5.93   352.3    9.9      37.112
2014    9       15    11  45    5.93   352.4    9.9      37.125
2014    9       15    11  51    5.93   352.4    9.9      37.138
2014    9       15    11  56    5.93   352.5    9.9      37.150
2014    9       15    12   1    5.93   352.6    9.9      37.163
2014    9       15    12   7    5.94   352.6    9.9      37.175
2014    9       15    12  12    5.94   352.7    9.9      37.187
2014    9       15    12  18    5.94   352.7    9.9      37.199
2014    9       15    12  23    5.94   352.8    9.9      37.211
2014    9       15    12  28    5.94   352.8    9.9      37.223
2014    9       15    12  34    5.94   352.9    9.9      37.235
2014    9       15    12  39    5.94   352.9    9.9      37.246
2014    9       15    12  44    5.95   353.0    9.9      37.258
2014    9       15    12  50    5.95   353.0    9.9      37.269
2014    9       15    12  55    5.95   353.1    9.9      37.281
2014    9       15    13   1    5.95   353.1    9.9      37.292
2014    9       15    13   6    5.95   353.2    9.9      37.303
2014    9       15    13  11    5.95   353.2    9.9      37.315
2014    9       15    13  17    5.95   353.3    9.9      37.326
2014    9       15    13  22    5.96   353.3    9.9      37.337
2014    9       15    13  28    5.96   353.4    9.9      37.348
2014    9       15    13  33    5.96   353.4    9.9      37.359
2014    9       15    13  38    5.96   353.5    9.9      37.371
2014    9       15    13  44    5.96   353.5    9.9      37.382
2014    9       15    13  49    5.96   353.6    9.9      37.393
2014    9       15    13  54    5.97   353.6    9.9      37.405
2014    9       15    14   0    5.97   353.7    9.9      37.416
2014    9       15    14   5    5.97   353.8    9.9      37.428
2014    9       15    14  11    5.97   353.8    9.9      37.439
2014    9       15    14  16    5.97   353.9    9.9      37.451
2014    9       15    14  21    5.97   353.9    9.9      37.463
2014    9       15    14  27    5.98   354.0    9.9      37.475
2014    9       15    14  32    5.98   354.0    9.9      37.487
2014    9       15    14  38    5.98   354.1    9.9      37.499
2014    9       15    14  43    5.98   354.1    9.9      37.511
2014    9       15    14  48    5.98   354.2    9.9      37.524
2014    9       15    14  54    5.98   354.2    9.9      37.537
2014    9       15    14  59    5.99   354.3    9.9      37.550
2014    9       15    15   4    5.99   354.3    9.9      37.563
2014    9       15    15  10    5.99   354.4    9.9      37.577
2014    9       15    15  15    5.99   354.4    9.9      37.590
2014    9       15    15  21    5.99   354.5    9.9      37.604
2014    9       15    15  26    6.00   354.5    9.9      37.618
2014    9       15    15  31    6.00   354.6    9.9      37.633
2014    9       15    15  37    6.00   354.6    9.9      37.648
2014    9       15    15  42    6.00   354.7    9.9      37.663
2014    9       15    15  48    6.00   354.8    9.9      37.679
2014    9       15    15  53    6.01   354.8   10.0      37.695
2014    9       15    15  58    6.01   354.9   10.0      37.713
2014    9       15    16   4    6.01   354.9   10.0      37.731
2014    9       15    16   9    6.01   355.0   10.0      37.751
2014    9       15    16  15    6.01   355.0   10.0      37.772
2014    9       15    16  20    6.02   355.1   10.0      37.794
2014    9       15    16  25    6.02   355.2   10.0      37.817
2014    9       15    16  31    6.02   355.2   10.0      37.841
2014    9       15    16  36    6.02   355.3   10.0      37.866
2014    9       15    16  41    6.02   355.4   10.0      37.891
2014    9       15    16  47    6.03   355.4   10.0      37.917
2014    9       15    16  52    6.03   355.5   10.0      37.943
2014    9       15    16  58    6.03   355.6   10.0      37.970
2014    9       15    17   3    6.03   355.6   10.0      37.996
2014    9       15    17   8    6.03   355.7   10.0      38.022
2014    9       15    17  14    6.03   355.8   10.0      38.048
2014    9       15    17  19    6.04   355.8   10.0      38.073
2014    9       15    17  25    6.04   355.9   10.0      38.098
2014    9       15    17  30    6.04   356.0   10.0      38.123
2014    9       15    17  35    6.04   356.0   10.0      38.147
2014    9       15    17  41    6.04   356.1   10.0      38.171
2014    9       15    17  46    6.04   356.2   10.0      38.195
2014    9       15    17  51    6.05   356.2   10.0      38.218
2014    9       15    17  57    6.05   356.3   10.0      38.240
2014    9       15    18   2    6.05   356.4   10.0      38.263
2014    9       15    18   8    6.05   356.5   10.0      38.285
2014    9       15    18  13    6.05   356.5   10.0      38.306
2014    9       15    18  18    6.05   356.6   10.0      38.327
2014    9       15    18  24    6.05   356.7   10.0      38.348
2014    9       15    18  29    6.05   356.7   10.0      38.368
2014    9       15    18  35    6.06   356.8   10.0      38.388
2014    9       15    18  40    6.06   356.9   10.0      38.407
2014    9       15    18  45    6.06   356.9   10.0      38.427
2014    9       15    18  51    6.06   357.0   10.0      38.446
2014    9       15    18  56    6.06   357.1   10.0      38.464
2014    9       15    19   1    6.06   357.2   10.0      38.483
2014    9       15    19   7    6.06   357.2   10.0      38.501
2014    9       15    19  12    6.06   357.3   10.0      38.518
2014    9       15    19  18    6.07   357.4   10.0      38.536
2014    9       15    19  23    6.07   357.4   10.0      38.553
2014    9       15    19  28    6.07   357.5   10.0      38.570
2014    9       15    19  34    6.07   357.6   10.0      38.587
2014    9       15    19  39    6.07   357.7   10.0      38.603
2014    9       15    19  45    6.07   357.7   10.0      38.619
2014    9       15    19  50    6.07   357.8   10.0      38.635
2014    9       15    19  55    6.07   357.9   10.0      38.651
2014    9       15    20   1    6.08   357.9   10.0      38.667
2014    9       15    20   6    6.08   358.0   10.0      38.682
2014    9       15    20  12    6.08   358.1   10.0      38.697
2014    9       15    20  17    6.08   358.1   10.0      38.712
2014    9       15    20  22    6.08   358.2   10.0      38.727
2014    9       15    20  28    6.08   358.3   10.0      38.742
2014    9       15    20  33    6.08   358.4   10.0      38.756
2014    9       15    20  38    6.08   358.4   10.0      38.770
2014    9       15    20  44    6.08   358.5   10.0      38.784
2014    9       15    20  49    6.08   358.6   10.0      38.798
2014    9       15    20  55    6.09   358.6   10.0      38.812
2014    9       15    21   0    6.09   358.7   10.0      38.826
2014    9       15    21   5    6.09   358.8   10.0      38.839
2014    9       15    21  11    6.09   358.9   10.0      38.852
2014    9       15    21  16    6.09   358.9   10.0      38.865
2014    9       15    21  22    6.09   359.0   10.0      38.878
2014    9       15    21  27    6.09   359.1   10.0      38.891
2014    9       15    21  32    6.09   359.1   10.0      38.904
2014    9       15    21  38    6.09   359.2   10.0      38.916
2014    9       15    21  43    6.09   359.3   10.0      38.929
2014    9       15    21  48    6.09   359.3   10.0      38.941
2014    9       15    21  54    6.10   359.4   10.0      38.953
2014    9       15    21  59    6.10   359.5   10.0      38.966
2014    9       15    22   5    6.10   359.6   10.0      38.978
2014    9       15    22  10    6.10   359.6   10.0      38.989
2014    9       15    22  15    6.10   359.7    9.9      39.001
2014    9       15    22  21    6.10   359.8    9.9      39.013
2014    9       15    22  26    6.10   359.8    9.9      39.025
2014    9       15    22  32    6.10   359.9    9.9      39.036
2014    9       15    22  37    6.10   360.0    9.9      39.048
2014    9       15    22  42    6.10   360.0    9.9      39.059
2014    9       15    22  48    6.10   360.1    9.9      39.071
2014    9       15    22  53    6.11   360.2    9.9      39.082
2014    9       15    22  58    6.11   360.2    9.9      39.093
2014    9       15    23   4    6.11   360.3    9.9      39.104
2014    9       15    23   9    6.11   360.4    9.9      39.115
2014    9       15    23  15    6.11   360.4    9.9      39.127
2014    9       15    23  20    6.11   360.5    9.9      39.138
2014    9       15    23  25    6.11   360.6    9.9      39.149
2014    9       15    23  31    6.11   360.6    9.9      39.161
2014    9       15    23  36    6.11   360.7    9.9      39.172
2014    9       15    23  42    6.11   360.8    9.9      39.183
2014    9       15    23  47    6.11   360.8    9.9      39.194
2014    9       15    23  52    6.11   360.9    9.9      39.206
2014    9       15    23  58    6.12   361.0    9.9      39.217
2014    9       16     0   3    6.12   361.0    9.9      39.229
