year    month   day   hour  minute  B_enl V_enl   n_enl       T_enl
[year] [month] [day] [hour][minute] [nT]  [km/s]  [cm-3]      [kK]
2014    9       15     0   4    4.86   358.0    7.2      27.229
2014    9       15     0   9    4.86   357.9    7.2      27.239
2014    9       15     0  14    4.87   357.8    7.3      27.250
2014    9       15     0  20    4.87   357.7    7.3      27.261
2014    9       15     0  25    4.87   357.6    7.3      27.272
2014    9       15     0  30    4.88   357.5    7.3      27.283
2014    9       15     0  35    4.88   357.5    7.3      27.295
2014    9       15     0  41    4.89   357.4    7.3      27.306
2014    9       15     0  46    4.89   357.3    7.3      27.317
2014    9       15     0  51    4.89   357.2    7.3      27.329
2014    9       15     0  56    4.90   357.1    7.3      27.341
2014    9       15     1   2    4.90   357.0    7.3      27.352
2014    9       15     1   7    4.91   356.9    7.4      27.364
2014    9       15     1  12    4.91   356.8    7.4      27.376
2014    9       15     1  17    4.91   356.8    7.4      27.388
2014    9       15     1  23    4.92   356.7    7.4      27.399
2014    9       15     1  28    4.92   356.6    7.4      27.412
2014    9       15     1  33    4.93   356.5    7.4      27.424
2014    9       15     1  38    4.93   356.4    7.4      27.436
2014    9       15     1  44    4.93   356.3    7.4      27.448
2014    9       15     1  49    4.94   356.3    7.4      27.460
2014    9       15     1  54    4.94   356.2    7.5      27.472
2014    9       15     1  59    4.95   356.1    7.5      27.485
2014    9       15     2   5    4.95   356.0    7.5      27.497
2014    9       15     2  10    4.95   355.9    7.5      27.509
2014    9       15     2  15    4.96   355.8    7.5      27.522
2014    9       15     2  20    4.96   355.8    7.5      27.534
2014    9       15     2  25    4.97   355.7    7.5      27.547
2014    9       15     2  31    4.97   355.6    7.5      27.559
2014    9       15     2  36    4.97   355.5    7.5      27.572
2014    9       15     2  41    4.98   355.4    7.5      27.584
2014    9       15     2  46    4.98   355.4    7.6      27.597
2014    9       15     2  52    4.99   355.3    7.6      27.609
2014    9       15     2  57    4.99   355.2    7.6      27.622
2014    9       15     3   2    5.00   355.1    7.6      27.635
2014    9       15     3   7    5.00   355.0    7.6      27.647
2014    9       15     3  13    5.00   355.0    7.6      27.660
2014    9       15     3  18    5.01   354.9    7.6      27.672
2014    9       15     3  23    5.01   354.8    7.6      27.685
2014    9       15     3  28    5.02   354.7    7.6      27.698
2014    9       15     3  34    5.02   354.6    7.7      27.710
2014    9       15     3  39    5.02   354.6    7.7      27.723
2014    9       15     3  44    5.03   354.5    7.7      27.736
2014    9       15     3  49    5.03   354.4    7.7      27.748
2014    9       15     3  55    5.04   354.3    7.7      27.761
2014    9       15     4   0    5.04   354.3    7.7      27.773
2014    9       15     4   5    5.05   354.2    7.7      27.786
2014    9       15     4  10    5.05   354.1    7.7      27.799
2014    9       15     4  16    5.05   354.0    7.7      27.811
2014    9       15     4  21    5.06   354.0    7.7      27.823
2014    9       15     4  26    5.06   353.9    7.8      27.836
2014    9       15     4  31    5.07   353.8    7.8      27.848
2014    9       15     4  37    5.07   353.8    7.8      27.861
2014    9       15     4  42    5.08   353.7    7.8      27.873
2014    9       15     4  47    5.08   353.6    7.8      27.886
2014    9       15     4  52    5.08   353.5    7.8      27.898
2014    9       15     4  58    5.09   353.5    7.8      27.910
2014    9       15     5   3    5.09   353.4    7.8      27.922
2014    9       15     5   8    5.10   353.3    7.8      27.935
2014    9       15     5  13    5.10   353.3    7.8      27.947
2014    9       15     5  18    5.10   353.2    7.9      27.959
2014    9       15     5  24    5.11   353.1    7.9      27.971
2014    9       15     5  29    5.11   353.1    7.9      27.983
2014    9       15     5  34    5.12   353.0    7.9      27.995
2014    9       15     5  39    5.12   352.9    7.9      28.007
2014    9       15     5  45    5.13   352.9    7.9      28.019
2014    9       15     5  50    5.13   352.8    7.9      28.031
2014    9       15     5  55    5.13   352.7    7.9      28.043
2014    9       15     6   0    5.14   352.7    7.9      28.055
2014    9       15     6   6    5.14   352.6    7.9      28.067
2014    9       15     6  11    5.15   352.5    8.0      28.079
2014    9       15     6  16    5.15   352.5    8.0      28.091
2014    9       15     6  21    5.16   352.4    8.0      28.103
2014    9       15     6  27    5.16   352.3    8.0      28.115
2014    9       15     6  32    5.16   352.3    8.0      28.127
2014    9       15     6  37    5.17   352.2    8.0      28.139
2014    9       15     6  42    5.17   352.1    8.0      28.151
2014    9       15     6  48    5.18   352.1    8.0      28.163
2014    9       15     6  53    5.18   352.0    8.0      28.175
2014    9       15     6  58    5.19   352.0    8.0      28.187
2014    9       15     7   3    5.19   351.9    8.0      28.200
2014    9       15     7   9    5.19   351.8    8.1      28.212
2014    9       15     7  14    5.20   351.8    8.1      28.224
2014    9       15     7  19    5.20   351.7    8.1      28.237
2014    9       15     7  24    5.21   351.6    8.1      28.249
2014    9       15     7  30    5.21   351.6    8.1      28.262
2014    9       15     7  35    5.22   351.5    8.1      28.274
2014    9       15     7  40    5.22   351.5    8.1      28.287
2014    9       15     7  45    5.23   351.4    8.1      28.300
2014    9       15     7  50    5.23   351.4    8.1      28.313
2014    9       15     7  56    5.23   351.3    8.1      28.326
2014    9       15     8   1    5.24   351.2    8.2      28.339
2014    9       15     8   6    5.24   351.2    8.2      28.352
2014    9       15     8  11    5.25   351.1    8.2      28.365
2014    9       15     8  17    5.25   351.1    8.2      28.379
2014    9       15     8  22    5.26   351.0    8.2      28.392
2014    9       15     8  27    5.26   351.0    8.2      28.406
2014    9       15     8  32    5.26   350.9    8.2      28.420
2014    9       15     8  38    5.27   350.9    8.2      28.434
2014    9       15     8  43    5.27   350.8    8.2      28.448
2014    9       15     8  48    5.28   350.7    8.2      28.462
2014    9       15     8  53    5.28   350.7    8.3      28.476
2014    9       15     8  59    5.29   350.6    8.3      28.491
2014    9       15     9   4    5.29   350.6    8.3      28.505
2014    9       15     9   9    5.30   350.5    8.3      28.520
2014    9       15     9  14    5.30   350.5    8.3      28.535
2014    9       15     9  20    5.30   350.4    8.3      28.550
2014    9       15     9  25    5.31   350.4    8.3      28.565
2014    9       15     9  30    5.31   350.3    8.3      28.580
2014    9       15     9  35    5.32   350.3    8.3      28.595
2014    9       15     9  41    5.32   350.2    8.3      28.610
2014    9       15     9  46    5.33   350.2    8.4      28.625
2014    9       15     9  51    5.33   350.1    8.4      28.641
2014    9       15     9  56    5.34   350.1    8.4      28.657
2014    9       15    10   2    5.34   350.1    8.4      28.672
2014    9       15    10   7    5.35   350.0    8.4      28.688
2014    9       15    10  12    5.35   350.0    8.4      28.704
2014    9       15    10  17    5.35   349.9    8.4      28.720
2014    9       15    10  23    5.36   349.9    8.4      28.735
2014    9       15    10  28    5.36   349.8    8.4      28.752
2014    9       15    10  33    5.37   349.8    8.5      28.768
2014    9       15    10  38    5.37   349.7    8.5      28.784
2014    9       15    10  44    5.38   349.7    8.5      28.800
2014    9       15    10  49    5.38   349.7    8.5      28.816
2014    9       15    10  54    5.39   349.6    8.5      28.833
2014    9       15    10  59    5.39   349.6    8.5      28.849
2014    9       15    11   5    5.40   349.5    8.5      28.865
2014    9       15    11  10    5.40   349.5    8.5      28.882
2014    9       15    11  15    5.41   349.4    8.5      28.898
2014    9       15    11  20    5.41   349.4    8.6      28.915
2014    9       15    11  25    5.41   349.4    8.6      28.932
2014    9       15    11  31    5.42   349.3    8.6      28.949
2014    9       15    11  36    5.42   349.3    8.6      28.965
2014    9       15    11  41    5.43   349.3    8.6      28.982
2014    9       15    11  46    5.43   349.2    8.6      28.999
2014    9       15    11  52    5.44   349.2    8.6      29.016
2014    9       15    11  57    5.44   349.1    8.6      29.033
2014    9       15    12   2    5.45   349.1    8.6      29.050
2014    9       15    12   7    5.45   349.1    8.6      29.067
2014    9       15    12  13    5.46   349.0    8.7      29.084
2014    9       15    12  18    5.46   349.0    8.7      29.101
2014    9       15    12  23    5.46   349.0    8.7      29.118
2014    9       15    12  28    5.47   348.9    8.7      29.135
2014    9       15    12  34    5.47   348.9    8.7      29.152
2014    9       15    12  39    5.48   348.9    8.7      29.169
2014    9       15    12  44    5.48   348.8    8.7      29.186
2014    9       15    12  49    5.49   348.8    8.7      29.203
2014    9       15    12  55    5.49   348.8    8.7      29.219
2014    9       15    13   0    5.50   348.7    8.7      29.236
2014    9       15    13   5    5.50   348.7    8.8      29.253
2014    9       15    13  10    5.51   348.7    8.8      29.269
2014    9       15    13  16    5.51   348.6    8.8      29.285
2014    9       15    13  21    5.51   348.6    8.8      29.302
2014    9       15    13  26    5.52   348.6    8.8      29.318
2014    9       15    13  31    5.52   348.5    8.8      29.334
2014    9       15    13  36    5.53   348.5    8.8      29.350
2014    9       15    13  42    5.53   348.5    8.8      29.366
2014    9       15    13  47    5.54   348.4    8.8      29.382
2014    9       15    13  52    5.54   348.4    8.8      29.398
2014    9       15    13  57    5.55   348.4    8.8      29.414
2014    9       15    14   3    5.55   348.3    8.9      29.429
2014    9       15    14   8    5.56   348.3    8.9      29.445
2014    9       15    14  13    5.56   348.3    8.9      29.461
2014    9       15    14  18    5.56   348.2    8.9      29.476
2014    9       15    14  24    5.57   348.2    8.9      29.492
2014    9       15    14  29    5.57   348.2    8.9      29.507
2014    9       15    14  34    5.58   348.2    8.9      29.523
2014    9       15    14  39    5.58   348.1    8.9      29.538
2014    9       15    14  45    5.59   348.1    8.9      29.554
2014    9       15    14  50    5.59   348.1    8.9      29.569
2014    9       15    14  55    5.60   348.0    9.0      29.585
2014    9       15    15   0    5.60   348.0    9.0      29.600
2014    9       15    15   6    5.61   348.0    9.0      29.616
2014    9       15    15  11    5.61   348.0    9.0      29.631
2014    9       15    15  16    5.62   347.9    9.0      29.647
2014    9       15    15  21    5.62   347.9    9.0      29.662
2014    9       15    15  27    5.62   347.9    9.0      29.678
2014    9       15    15  32    5.63   347.9    9.0      29.694
2014    9       15    15  37    5.63   347.8    9.0      29.709
2014    9       15    15  42    5.64   347.8    9.0      29.725
2014    9       15    15  48    5.64   347.8    9.0      29.741
2014    9       15    15  53    5.65   347.8    9.1      29.757
2014    9       15    15  58    5.65   347.7    9.1      29.773
2014    9       15    16   3    5.66   347.7    9.1      29.789
2014    9       15    16   9    5.66   347.7    9.1      29.805
2014    9       15    16  14    5.67   347.7    9.1      29.821
2014    9       15    16  19    5.67   347.6    9.1      29.837
2014    9       15    16  24    5.68   347.6    9.1      29.853
2014    9       15    16  30    5.68   347.6    9.1      29.870
2014    9       15    16  35    5.68   347.6    9.1      29.886
2014    9       15    16  40    5.69   347.6    9.1      29.903
2014    9       15    16  45    5.69   347.5    9.1      29.919
2014    9       15    16  50    5.70   347.5    9.2      29.936
2014    9       15    16  56    5.70   347.5    9.2      29.953
2014    9       15    17   1    5.71   347.5    9.2      29.970
2014    9       15    17   6    5.71   347.5    9.2      29.987
2014    9       15    17  11    5.72   347.4    9.2      30.004
2014    9       15    17  17    5.72   347.4    9.2      30.021
2014    9       15    17  22    5.73   347.4    9.2      30.038
2014    9       15    17  27    5.73   347.4    9.2      30.056
2014    9       15    17  32    5.74   347.4    9.2      30.073
2014    9       15    17  38    5.74   347.4    9.2      30.091
2014    9       15    17  43    5.75   347.3    9.2      30.108
2014    9       15    17  48    5.75   347.3    9.3      30.126
2014    9       15    17  53    5.76   347.3    9.3      30.144
2014    9       15    17  59    5.76   347.3    9.3      30.162
2014    9       15    18   4    5.76   347.3    9.3      30.181
2014    9       15    18   9    5.77   347.3    9.3      30.199
2014    9       15    18  14    5.77   347.3    9.3      30.217
2014    9       15    18  20    5.78   347.2    9.3      30.236
2014    9       15    18  25    5.78   347.2    9.3      30.255
2014    9       15    18  30    5.79   347.2    9.3      30.274
2014    9       15    18  35    5.79   347.2    9.3      30.293
2014    9       15    18  41    5.80   347.2    9.4      30.312
2014    9       15    18  46    5.80   347.2    9.4      30.332
2014    9       15    18  51    5.81   347.2    9.4      30.351
2014    9       15    18  56    5.81   347.2    9.4      30.371
2014    9       15    19   2    5.82   347.2    9.4      30.391
2014    9       15    19   7    5.82   347.2    9.4      30.411
2014    9       15    19  12    5.83   347.2    9.4      30.430
2014    9       15    19  17    5.83   347.1    9.4      30.451
2014    9       15    19  23    5.84   347.1    9.4      30.471
2014    9       15    19  28    5.84   347.1    9.4      30.491
2014    9       15    19  33    5.84   347.1    9.4      30.511
2014    9       15    19  38    5.85   347.1    9.5      30.531
2014    9       15    19  44    5.85   347.1    9.5      30.551
2014    9       15    19  49    5.86   347.1    9.5      30.571
2014    9       15    19  54    5.86   347.1    9.5      30.591
2014    9       15    19  59    5.87   347.1    9.5      30.610
2014    9       15    20   4    5.87   347.1    9.5      30.630
2014    9       15    20  10    5.88   347.1    9.5      30.650
2014    9       15    20  15    5.88   347.1    9.5      30.670
2014    9       15    20  20    5.89   347.1    9.5      30.690
2014    9       15    20  25    5.89   347.1    9.5      30.709
2014    9       15    20  31    5.90   347.1    9.5      30.729
2014    9       15    20  36    5.90   347.1    9.5      30.748
2014    9       15    20  41    5.90   347.1    9.6      30.767
2014    9       15    20  46    5.91   347.0    9.6      30.787
2014    9       15    20  52    5.91   347.0    9.6      30.806
2014    9       15    20  57    5.92   347.0    9.6      30.825
2014    9       15    21   2    5.92   347.0    9.6      30.843
2014    9       15    21   7    5.93   347.0    9.6      30.862
2014    9       15    21  13    5.93   347.0    9.6      30.881
2014    9       15    21  18    5.94   347.0    9.6      30.899
2014    9       15    21  23    5.94   347.0    9.6      30.918
2014    9       15    21  28    5.95   347.0    9.6      30.936
2014    9       15    21  34    5.95   347.0    9.6      30.954
2014    9       15    21  39    5.95   347.0    9.6      30.973
2014    9       15    21  44    5.96   347.0    9.7      30.991
2014    9       15    21  49    5.96   347.0    9.7      31.009
2014    9       15    21  55    5.97   347.0    9.7      31.026
2014    9       15    22   0    5.97   347.0    9.7      31.044
2014    9       15    22   5    5.98   347.0    9.7      31.062
2014    9       15    22  10    5.98   347.0    9.7      31.080
2014    9       15    22  15    5.99   347.0    9.7      31.097
2014    9       15    22  21    5.99   347.0    9.7      31.115
2014    9       15    22  26    6.00   347.0    9.7      31.132
2014    9       15    22  31    6.00   347.0    9.7      31.150
2014    9       15    22  36    6.00   347.0    9.7      31.167
2014    9       15    22  42    6.01   347.0    9.7      31.184
2014    9       15    22  47    6.01   347.0    9.7      31.202
2014    9       15    22  52    6.02   347.0    9.8      31.219
2014    9       15    22  57    6.02   347.0    9.8      31.236
2014    9       15    23   3    6.03   347.0    9.8      31.254
2014    9       15    23   8    6.03   347.0    9.8      31.271
2014    9       15    23  13    6.04   347.0    9.8      31.288
2014    9       15    23  18    6.04   347.0    9.8      31.306
2014    9       15    23  24    6.05   347.0    9.8      31.323
2014    9       15    23  29    6.05   347.0    9.8      31.340
2014    9       15    23  34    6.05   347.0    9.8      31.358
2014    9       15    23  39    6.06   347.0    9.8      31.375
2014    9       15    23  45    6.06   347.0    9.8      31.392
2014    9       15    23  50    6.07   347.0    9.8      31.410
2014    9       15    23  55    6.07   347.0    9.8      31.428
2014    9       16     0   0    6.08   347.0    9.9      31.445
2014    9       16     0   6    6.08   347.0    9.9      31.463
2014    9       16     0  11    6.09   347.0    9.9      31.480
2014    9       16     0  16    6.09   347.0    9.9      31.498
2014    9       16     0  21    6.10   347.0    9.9      31.516
2014    9       16     0  27    6.10   347.0    9.9      31.534
2014    9       16     0  32    6.10   347.0    9.9      31.552
2014    9       16     0  37    6.11   347.0    9.9      31.570
2014    9       16     0  42    6.11   347.0    9.9      31.588
2014    9       16     0  48    6.12   347.0    9.9      31.607
2014    9       16     0  53    6.12   347.0    9.9      31.625
2014    9       16     0  58    6.13   347.0    9.9      31.644
2014    9       16     1   3    6.13   347.1    9.9      31.663
2014    9       16     1   9    6.14   347.1   10.0      31.682
2014    9       16     1  14    6.14   347.1   10.0      31.701
2014    9       16     1  19    6.15   347.1   10.0      31.720
2014    9       16     1  24    6.15   347.1   10.0      31.740
2014    9       16     1  30    6.16   347.1   10.0      31.760
2014    9       16     1  35    6.16   347.1   10.0      31.780
2014    9       16     1  40    6.17   347.1   10.0      31.800
2014    9       16     1  45    6.17   347.1   10.0      31.820
2014    9       16     1  50    6.17   347.1   10.0      31.840
2014    9       16     1  56    6.18   347.2   10.0      31.861
2014    9       16     2   1    6.18   347.2   10.0      31.881
2014    9       16     2   6    6.19   347.2   10.0      31.902
2014    9       16     2  11    6.19   347.2   10.1      31.923
2014    9       16     2  17    6.20   347.2   10.1      31.944
2014    9       16     2  22    6.20   347.2   10.1      31.964
2014    9       16     2  27    6.21   347.2   10.1      31.985
2014    9       16     2  32    6.21   347.2   10.1      32.006
2014    9       16     2  38    6.22   347.3   10.1      32.027
2014    9       16     2  43    6.22   347.3   10.1      32.048
2014    9       16     2  48    6.23   347.3   10.1      32.070
2014    9       16     2  53    6.23   347.3   10.1      32.092
2014    9       16     2  59    6.24   347.3   10.1      32.114
2014    9       16     3   4    6.24   347.4   10.1      32.136
2014    9       16     3   9    6.24   347.4   10.1      32.158
2014    9       16     3  14    6.25   347.4   10.1      32.180
2014    9       16     3  20    6.25   347.4   10.2      32.202
2014    9       16     3  25    6.26   347.4   10.2      32.225
2014    9       16     3  30    6.26   347.5   10.2      32.247
2014    9       16     3  35    6.27   347.5   10.2      32.269
2014    9       16     3  41    6.27   347.5   10.2      32.291
2014    9       16     3  46    6.28   347.5   10.2      32.313
2014    9       16     3  51    6.28   347.5   10.2      32.335
2014    9       16     3  56    6.28   347.6   10.2      32.356
2014    9       16     4   2    6.29   347.6   10.2      32.378
2014    9       16     4   7    6.29   347.6   10.2      32.399
2014    9       16     4  12    6.30   347.6   10.2      32.420
2014    9       16     4  17    6.30   347.6   10.2      32.441
2014    9       16     4  22    6.31   347.7   10.2      32.462
2014    9       16     4  28    6.31   347.7   10.2      32.483
2014    9       16     4  33    6.32   347.7   10.2      32.503
2014    9       16     4  38    6.32   347.7   10.3      32.524
2014    9       16     4  43    6.32   347.7   10.3      32.544
2014    9       16     4  49    6.33   347.8   10.3      32.564
2014    9       16     4  54    6.33   347.8   10.3      32.584
2014    9       16     4  59    6.34   347.8   10.3      32.604
2014    9       16     5   4    6.34   347.8   10.3      32.624
2014    9       16     5  10    6.35   347.8   10.3      32.643
2014    9       16     5  15    6.35   347.9   10.3      32.663
2014    9       16     5  20    6.36   347.9   10.3      32.682
2014    9       16     5  25    6.36   347.9   10.3      32.702
2014    9       16     5  31    6.36   347.9   10.3      32.721
2014    9       16     5  36    6.37   347.9   10.3      32.740
2014    9       16     5  41    6.37   348.0   10.3      32.759
2014    9       16     5  46    6.38   348.0   10.3      32.778
2014    9       16     5  52    6.38   348.0   10.3      32.796
2014    9       16     5  57    6.39   348.0   10.3      32.815
2014    9       16     6   2    6.39   348.0   10.4      32.834
2014    9       16     6   7    6.39   348.1   10.4      32.852
2014    9       16     6  13    6.40   348.1   10.4      32.871
2014    9       16     6  18    6.40   348.1   10.4      32.889
2014    9       16     6  23    6.41   348.1   10.4      32.908
2014    9       16     6  28    6.41   348.1   10.4      32.926
2014    9       16     6  33    6.42   348.2   10.4      32.945
2014    9       16     6  39    6.42   348.2   10.4      32.963
2014    9       16     6  44    6.43   348.2   10.4      32.981
2014    9       16     6  49    6.43   348.2   10.4      33.000
2014    9       16     6  54    6.43   348.3   10.4      33.018
2014    9       16     7   0    6.44   348.3   10.4      33.037
2014    9       16     7   5    6.44   348.3   10.4      33.055
2014    9       16     7  10    6.45   348.3   10.4      33.074
2014    9       16     7  15    6.45   348.3   10.4      33.093
2014    9       16     7  21    6.46   348.4   10.4      33.111
2014    9       16     7  26    6.46   348.4   10.4      33.130
2014    9       16     7  31    6.47   348.4   10.5      33.149
2014    9       16     7  36    6.47   348.4   10.5      33.168
2014    9       16     7  42    6.48   348.5   10.5      33.187
2014    9       16     7  47    6.48   348.5   10.5      33.206
2014    9       16     7  52    6.48   348.5   10.5      33.225
2014    9       16     7  57    6.49   348.5   10.5      33.244
2014    9       16     8   3    6.49   348.6   10.5      33.264
2014    9       16     8   8    6.50   348.6   10.5      33.283
2014    9       16     8  13    6.50   348.6   10.5      33.303
2014    9       16     8  18    6.51   348.6   10.5      33.322
2014    9       16     8  24    6.51   348.7   10.5      33.342
2014    9       16     8  29    6.52   348.7   10.5      33.362
2014    9       16     8  34    6.52   348.7   10.5      33.383
2014    9       16     8  39    6.53   348.7   10.5      33.403
2014    9       16     8  45    6.53   348.8   10.5      33.424
2014    9       16     8  50    6.54   348.8   10.6      33.445
2014    9       16     8  55    6.54   348.8   10.6      33.466
2014    9       16     9   0    6.55   348.9   10.6      33.487
2014    9       16     9   6    6.55   348.9   10.6      33.509
2014    9       16     9  11    6.56   348.9   10.6      33.531
2014    9       16     9  16    6.56   349.0   10.6      33.553
2014    9       16     9  21    6.56   349.0   10.6      33.576
2014    9       16     9  27    6.57   349.0   10.6      33.599
2014    9       16     9  32    6.57   349.1   10.6      33.622
2014    9       16     9  37    6.58   349.1   10.6      33.646
2014    9       16     9  42    6.58   349.1   10.6      33.670
2014    9       16     9  48    6.59   349.2   10.6      33.695
2014    9       16     9  53    6.59   349.2   10.6      33.719
2014    9       16     9  58    6.60   349.3   10.6      33.744
2014    9       16    10   3    6.60   349.3   10.6      33.768
2014    9       16    10   9    6.61   349.3   10.7      33.792
2014    9       16    10  14    6.61   349.4   10.7      33.817
2014    9       16    10  19    6.62   349.4   10.7      33.841
2014    9       16    10  24    6.62   349.4   10.7      33.865
2014    9       16    10  29    6.62   349.5   10.7      33.888
2014    9       16    10  35    6.63   349.5   10.7      33.912
2014    9       16    10  40    6.63   349.6   10.7      33.935
2014    9       16    10  45    6.64   349.6   10.7      33.958
2014    9       16    10  50    6.64   349.6   10.7      33.981
2014    9       16    10  56    6.65   349.7   10.7      34.004
2014    9       16    11   1    6.65   349.7   10.7      34.027
2014    9       16    11   6    6.66   349.8   10.7      34.049
2014    9       16    11  11    6.66   349.8   10.7      34.072
2014    9       16    11  17    6.66   349.8   10.7      34.094
2014    9       16    11  22    6.67   349.9   10.7      34.116
2014    9       16    11  27    6.67   349.9   10.7      34.138
2014    9       16    11  32    6.68   349.9   10.7      34.159
2014    9       16    11  38    6.68   350.0   10.8      34.181
2014    9       16    11  43    6.69   350.0   10.8      34.202
2014    9       16    11  48    6.69   350.1   10.8      34.223
2014    9       16    11  53    6.70   350.1   10.8      34.244
2014    9       16    11  59    6.70   350.1   10.8      34.265
2014    9       16    12   4    6.70   350.2   10.8      34.286
2014    9       16    12   9    6.71   350.2   10.8      34.306
2014    9       16    12  14    6.71   350.3   10.8      34.327
2014    9       16    12  20    6.72   350.3   10.8      34.347
2014    9       16    12  25    6.72   350.3   10.8      34.368
2014    9       16    12  30    6.73   350.4   10.8      34.388
2014    9       16    12  35    6.73   350.4   10.8      34.408
2014    9       16    12  41    6.74   350.4   10.8      34.428
2014    9       16    12  46    6.74   350.5   10.8      34.448
2014    9       16    12  51    6.75   350.5   10.8      34.468
2014    9       16    12  56    6.75   350.6   10.8      34.488
2014    9       16    13   2    6.75   350.6   10.8      34.508
2014    9       16    13   7    6.76   350.6   10.8      34.528
2014    9       16    13  12    6.76   350.7   10.8      34.548
2014    9       16    13  17    6.77   350.7   10.8      34.568
2014    9       16    13  23    6.77   350.7   10.9      34.588
2014    9       16    13  28    6.78   350.8   10.9      34.608
2014    9       16    13  33    6.78   350.8   10.9      34.629
2014    9       16    13  38    6.79   350.9   10.9      34.649
2014    9       16    13  44    6.79   350.9   10.9      34.670
2014    9       16    13  49    6.80   350.9   10.9      34.691
2014    9       16    13  54    6.80   351.0   10.9      34.712
2014    9       16    13  59    6.81   351.0   10.9      34.733
2014    9       16    14   5    6.81   351.1   10.9      34.755
2014    9       16    14  10    6.81   351.1   10.9      34.777
2014    9       16    14  15    6.82   351.2   10.9      34.800
2014    9       16    14  20    6.82   351.2   10.9      34.823
2014    9       16    14  26    6.83   351.3   10.9      34.846
2014    9       16    14  31    6.83   351.3   10.9      34.870
2014    9       16    14  36    6.84   351.4   10.9      34.893
2014    9       16    14  41    6.84   351.4   10.9      34.917
2014    9       16    14  46    6.85   351.4   10.9      34.941
2014    9       16    14  52    6.85   351.5   10.9      34.965
2014    9       16    14  57    6.86   351.5   10.9      34.990
2014    9       16    15   2    6.86   351.6   11.0      35.014
2014    9       16    15   7    6.87   351.6   11.0      35.038
2014    9       16    15  13    6.87   351.7   11.0      35.062
2014    9       16    15  18    6.88   351.7   11.0      35.086
2014    9       16    15  23    6.88   351.8   11.0      35.110
2014    9       16    15  28    6.89   351.8   11.0      35.135
2014    9       16    15  34    6.89   351.9   11.0      35.159
2014    9       16    15  39    6.89   351.9   11.0      35.183
2014    9       16    15  44    6.90   352.0   11.0      35.208
2014    9       16    15  49    6.90   352.0   11.0      35.232
2014    9       16    15  55    6.91   352.1   11.0      35.257
2014    9       16    16   0    6.91   352.1   11.0      35.282
2014    9       16    16   5    6.92   352.2   11.0      35.306
2014    9       16    16  10    6.92   352.2   11.0      35.331
2014    9       16    16  16    6.93   352.3   11.0      35.356
2014    9       16    16  21    6.93   352.3   11.0      35.382
2014    9       16    16  26    6.94   352.4   11.0      35.407
2014    9       16    16  31    6.94   352.4   11.0      35.432
2014    9       16    16  37    6.95   352.5   11.0      35.458
2014    9       16    16  42    6.95   352.5   11.1      35.483
2014    9       16    16  47    6.95   352.6   11.1      35.509
2014    9       16    16  52    6.96   352.6   11.1      35.535
2014    9       16    16  58    6.96   352.7   11.1      35.560
2014    9       16    17   3    6.97   352.8   11.1      35.586
2014    9       16    17   8    6.97   352.8   11.1      35.611
2014    9       16    17  13    6.98   352.9   11.1      35.637
2014    9       16    17  19    6.98   352.9   11.1      35.662
2014    9       16    17  24    6.99   353.0   11.1      35.687
2014    9       16    17  29    6.99   353.0   11.1      35.713
2014    9       16    17  34    7.00   353.1   11.1      35.738
2014    9       16    17  40    7.00   353.1   11.1      35.763
2014    9       16    17  45    7.01   353.2   11.1      35.788
2014    9       16    17  50    7.01   353.3   11.1      35.813
2014    9       16    17  55    7.01   353.3   11.1      35.838
2014    9       16    18   1    7.02   353.4   11.1      35.863
2014    9       16    18   6    7.02   353.4   11.1      35.888
2014    9       16    18  11    7.03   353.5   11.1      35.913
2014    9       16    18  16    7.03   353.5   11.1      35.938
2014    9       16    18  21    7.04   353.6   11.1      35.963
2014    9       16    18  27    7.04   353.6   11.1      35.988
2014    9       16    18  32    7.05   353.7   11.2      36.013
2014    9       16    18  37    7.05   353.8   11.2      36.037
2014    9       16    18  42    7.06   353.8   11.2      36.062
2014    9       16    18  48    7.06   353.9   11.2      36.087
2014    9       16    18  53    7.07   353.9   11.2      36.113
2014    9       16    18  58    7.07   354.0   11.2      36.138
2014    9       16    19   3    7.08   354.1   11.2      36.163
2014    9       16    19   9    7.08   354.1   11.2      36.188
2014    9       16    19  14    7.09   354.2   11.2      36.214
2014    9       16    19  19    7.09   354.2   11.2      36.239
2014    9       16    19  24    7.10   354.3   11.2      36.265
2014    9       16    19  30    7.10   354.4   11.2      36.291
2014    9       16    19  35    7.11   354.4   11.2      36.319
2014    9       16    19  40    7.11   354.5   11.2      36.346
2014    9       16    19  45    7.12   354.5   11.2      36.375
2014    9       16    19  51    7.12   354.6   11.2      36.404
2014    9       16    19  56    7.13   354.7   11.2      36.434
2014    9       16    20   1    7.13   354.8   11.3      36.464
2014    9       16    20   6    7.14   354.8   11.3      36.494
2014    9       16    20  12    7.14   354.9   11.3      36.526
2014    9       16    20  17    7.15   355.0   11.3      36.557
2014    9       16    20  22    7.15   355.0   11.3      36.588
2014    9       16    20  27    7.16   355.1   11.3      36.619
2014    9       16    20  33    7.16   355.2   11.3      36.650
2014    9       16    20  38    7.17   355.3   11.3      36.682
2014    9       16    20  43    7.17   355.3   11.3      36.713
2014    9       16    20  48    7.18   355.4   11.3      36.745
2014    9       16    20  54    7.18   355.5   11.3      36.777
2014    9       16    20  59    7.19   355.6   11.3      36.809
2014    9       16    21   4    7.19   355.6   11.3      36.841
2014    9       16    21   9    7.20   355.7   11.3      36.873
2014    9       16    21  15    7.20   355.8   11.3      36.906
2014    9       16    21  20    7.21   355.9   11.3      36.938
2014    9       16    21  25    7.21   355.9   11.3      36.970
2014    9       16    21  30    7.22   356.0   11.3      37.002
2014    9       16    21  36    7.22   356.1   11.4      37.035
2014    9       16    21  41    7.23   356.2   11.4      37.066
2014    9       16    21  46    7.23   356.2   11.4      37.098
2014    9       16    21  51    7.24   356.3   11.4      37.130
2014    9       16    21  57    7.24   356.4   11.4      37.162
2014    9       16    22   2    7.24   356.5   11.4      37.193
2014    9       16    22   7    7.25   356.6   11.4      37.225
2014    9       16    22  12    7.25   356.6   11.4      37.256
2014    9       16    22  17    7.26   356.7   11.4      37.287
2014    9       16    22  23    7.26   356.8   11.4      37.318
2014    9       16    22  28    7.27   356.9   11.4      37.349
2014    9       16    22  33    7.27   356.9   11.4      37.380
2014    9       16    22  38    7.28   357.0   11.4      37.410
2014    9       16    22  44    7.28   357.1   11.4      37.441
2014    9       16    22  49    7.28   357.2   11.4      37.471
2014    9       16    22  54    7.29   357.2   11.4      37.501
2014    9       16    22  59    7.29   357.3   11.4      37.530
2014    9       16    23   5    7.30   357.4   11.4      37.560
2014    9       16    23  10    7.30   357.5   11.4      37.590
2014    9       16    23  15    7.31   357.5   11.4      37.619
2014    9       16    23  20    7.31   357.6   11.4      37.648
2014    9       16    23  26    7.31   357.7   11.4      37.677
2014    9       16    23  31    7.32   357.8   11.4      37.706
2014    9       16    23  36    7.32   357.9   11.4      37.735
2014    9       16    23  41    7.33   357.9   11.4      37.764
2014    9       16    23  47    7.33   358.0   11.4      37.793
2014    9       16    23  52    7.34   358.1   11.4      37.821
2014    9       16    23  57    7.34   358.2   11.4      37.850
2014    9       17     0   2    7.35   358.2   11.4      37.880
2014    9       17     0   8    7.35   358.3   11.4      37.910
2014    9       17     0  13    7.36   358.4   11.4      37.941
2014    9       17     0  18    7.36   358.5   11.5      37.971
2014    9       17     0  23    7.37   358.6   11.5      38.002
2014    9       17     0  29    7.37   358.6   11.5      38.033
2014    9       17     0  34    7.38   358.7   11.5      38.063
2014    9       17     0  39    7.38   358.8   11.5      38.094
2014    9       17     0  44    7.39   358.9   11.5      38.125
2014    9       17     0  50    7.39   359.0   11.5      38.156
2014    9       17     0  55    7.40   359.1   11.5      38.187
2014    9       17     1   0    7.40   359.1   11.5      38.218
2014    9       17     1   5    7.41   359.2   11.5      38.249
2014    9       17     1  11    7.41   359.3   11.5      38.281
2014    9       17     1  16    7.42   359.4   11.5      38.313
2014    9       17     1  21    7.42   359.5   11.5      38.344
2014    9       17     1  26    7.43   359.6   11.5      38.376
2014    9       17     1  32    7.43   359.7   11.5      38.408
2014    9       17     1  37    7.44   359.8   11.5      38.441
2014    9       17     1  42    7.44   359.8   11.5      38.474
2014    9       17     1  47    7.45   359.9   11.5      38.507
2014    9       17     1  52    7.45   360.0   11.5      38.540
2014    9       17     1  58    7.46   360.1   11.5      38.573
2014    9       17     2   3    7.46   360.2   11.5      38.607
2014    9       17     2   8    7.47   360.3   11.5      38.642
2014    9       17     2  13    7.48   360.4   11.6      38.678
2014    9       17     2  19    7.48   360.5   11.6      38.715
2014    9       17     2  24    7.49   360.6   11.6      38.753
2014    9       17     2  29    7.49   360.7   11.6      38.792
2014    9       17     2  34    7.50   360.8   11.6      38.832
2014    9       17     2  40    7.50   360.9   11.6      38.873
2014    9       17     2  45    7.51   361.0   11.6      38.914
2014    9       17     2  50    7.52   361.2   11.6      38.957
2014    9       17     2  55    7.52   361.3   11.6      39.000
2014    9       17     3   1    7.53   361.4   11.6      39.042
2014    9       17     3   6    7.53   361.5   11.6      39.085
2014    9       17     3  11    7.54   361.6   11.6      39.128
2014    9       17     3  16    7.54   361.7   11.6      39.171
2014    9       17     3  22    7.55   361.8   11.6      39.215
2014    9       17     3  27    7.56   361.9   11.7      39.260
2014    9       17     3  32    7.56   362.0   11.7      39.305
2014    9       17     3  37    7.57   362.2   11.7      39.351
2014    9       17     3  43    7.57   362.3   11.7      39.397
2014    9       17     3  48    7.58   362.4   11.7      39.444
2014    9       17     3  53    7.58   362.5   11.7      39.491
2014    9       17     3  58    7.59   362.6   11.7      39.539
2014    9       17     4   4    7.59   362.8   11.7      39.587
2014    9       17     4   9    7.60   362.9   11.7      39.634
2014    9       17     4  14    7.60   363.0   11.7      39.681
2014    9       17     4  19    7.61   363.1   11.7      39.728
2014    9       17     4  25    7.61   363.2   11.7      39.774
2014    9       17     4  30    7.62   363.4   11.7      39.820
2014    9       17     4  35    7.62   363.5   11.7      39.865
2014    9       17     4  40    7.63   363.6   11.7      39.910
2014    9       17     4  46    7.63   363.7   11.7      39.955
2014    9       17     4  51    7.64   363.9   11.7      39.999
2014    9       17     4  56    7.64   364.0   11.7      40.042
2014    9       17     5   1    7.65   364.1   11.8      40.085
2014    9       17     5   7    7.65   364.2   11.8      40.127
2014    9       17     5  12    7.66   364.3   11.8      40.168
2014    9       17     5  17    7.66   364.4   11.8      40.209
2014    9       17     5  22    7.67   364.6   11.8      40.250
2014    9       17     5  27    7.67   364.7   11.8      40.290
2014    9       17     5  33    7.68   364.8   11.8      40.329
2014    9       17     5  38    7.68   364.9   11.8      40.368
2014    9       17     5  43    7.69   365.0   11.8      40.406
2014    9       17     5  48    7.69   365.1   11.8      40.444
2014    9       17     5  54    7.69   365.3   11.8      40.481
2014    9       17     5  59    7.70   365.4   11.8      40.518
2014    9       17     6   4    7.70   365.5   11.8      40.554
2014    9       17     6   9    7.71   365.6   11.8      40.590
2014    9       17     6  15    7.71   365.7   11.8      40.625
2014    9       17     6  20    7.72   365.8   11.8      40.660
2014    9       17     6  25    7.72   365.9   11.8      40.695
2014    9       17     6  30    7.73   366.1   11.8      40.729
2014    9       17     6  36    7.73   366.2   11.8      40.763
2014    9       17     6  41    7.73   366.3   11.8      40.797
2014    9       17     6  46    7.74   366.4   11.8      40.830
2014    9       17     6  51    7.74   366.5   11.8      40.863
2014    9       17     6  57    7.75   366.6   11.8      40.895
2014    9       17     7   2    7.75   366.7   11.8      40.928
2014    9       17     7   7    7.76   366.9   11.8      40.960
2014    9       17     7  12    7.76   367.0   11.8      40.993
2014    9       17     7  18    7.77   367.1   11.8      41.025
2014    9       17     7  23    7.77   367.2   11.8      41.057
2014    9       17     7  28    7.78   367.3   11.8      41.089
2014    9       17     7  33    7.78   367.4   11.8      41.120
2014    9       17     7  39    7.78   367.5   11.8      41.152
2014    9       17     7  44    7.79   367.7   11.8      41.184
2014    9       17     7  49    7.79   367.8   11.8      41.216
2014    9       17     7  54    7.80   367.9   11.8      41.248
2014    9       17     8   0    7.80   368.0   11.8      41.280
2014    9       17     8   5    7.81   368.1   11.8      41.312
2014    9       17     8  10    7.81   368.2   11.8      41.344
2014    9       17     8  15    7.82   368.3   11.8      41.377
2014    9       17     8  21    7.82   368.5   11.8      41.409
2014    9       17     8  26    7.83   368.6   11.8      41.442
2014    9       17     8  31    7.83   368.7   11.8      41.475
2014    9       17     8  36    7.84   368.8   11.8      41.508
2014    9       17     8  41    7.84   368.9   11.8      41.542
2014    9       17     8  47    7.85   369.1   11.8      41.576
2014    9       17     8  52    7.85   369.2   11.8      41.610
2014    9       17     8  57    7.86   369.3   11.8      41.644
2014    9       17     9   2    7.86   369.4   11.8      41.679
2014    9       17     9   8    7.87   369.5   11.8      41.714
2014    9       17     9  13    7.87   369.7   11.8      41.750
2014    9       17     9  18    7.88   369.8   11.8      41.786
2014    9       17     9  23    7.88   369.9   11.8      41.824
2014    9       17     9  29    7.89   370.0   11.8      41.861
2014    9       17     9  34    7.89   370.2   11.8      41.900
2014    9       17     9  39    7.90   370.3   11.8      41.940
2014    9       17     9  44    7.90   370.4   11.8      41.980
2014    9       17     9  50    7.91   370.5   11.8      42.021
2014    9       17     9  55    7.91   370.7   11.8      42.063
2014    9       17    10   0    7.92   370.8   11.8      42.106
2014    9       17    10   5    7.93   371.0   11.8      42.150
2014    9       17    10  11    7.93   371.1   11.8      42.194
2014    9       17    10  16    7.94   371.2   11.8      42.239
2014    9       17    10  21    7.94   371.4   11.8      42.286
2014    9       17    10  26    7.95   371.5   11.8      42.333
2014    9       17    10  32    7.95   371.7   11.9      42.381
2014    9       17    10  37    7.96   371.8   11.9      42.429
2014    9       17    10  42    7.97   371.9   11.9      42.479
2014    9       17    10  47    7.97   372.1   11.9      42.529
2014    9       17    10  53    7.98   372.2   11.9      42.580
2014    9       17    10  58    7.98   372.4   11.9      42.632
2014    9       17    11   3    7.99   372.5   11.9      42.686
2014    9       17    11   8    7.99   372.7   11.9      42.740
2014    9       17    11  14    8.00   372.9   11.9      42.794
2014    9       17    11  19    8.01   373.0   11.9      42.850
2014    9       17    11  24    8.01   373.2   11.9      42.906
2014    9       17    11  29    8.02   373.3   11.9      42.963
2014    9       17    11  35    8.02   373.5   11.9      43.020
2014    9       17    11  40    8.03   373.7   11.9      43.077
2014    9       17    11  45    8.03   373.8   11.9      43.134
2014    9       17    11  50    8.04   374.0   12.0      43.191
2014    9       17    11  55    8.04   374.2   12.0      43.248
2014    9       17    12   1    8.05   374.3   12.0      43.304
2014    9       17    12   6    8.05   374.5   12.0      43.361
2014    9       17    12  11    8.06   374.7   12.0      43.417
2014    9       17    12  16    8.06   374.8   12.0      43.473
2014    9       17    12  22    8.07   375.0   12.0      43.527
2014    9       17    12  27    8.07   375.2   12.0      43.580
2014    9       17    12  32    8.08   375.4   12.0      43.633
2014    9       17    12  37    8.08   375.5   12.0      43.684
2014    9       17    12  43    8.09   375.7   12.0      43.734
2014    9       17    12  48    8.09   375.9   12.0      43.783
2014    9       17    12  53    8.09   376.0   12.0      43.831
2014    9       17    12  58    8.10   376.2   12.0      43.879
2014    9       17    13   4    8.10   376.4   12.0      43.925
2014    9       17    13   9    8.11   376.5   12.0      43.971
2014    9       17    13  14    8.11   376.7   12.0      44.015
2014    9       17    13  19    8.12   376.8   12.0      44.059
2014    9       17    13  25    8.12   377.0   12.0      44.102
2014    9       17    13  30    8.13   377.2   12.0      44.145
2014    9       17    13  35    8.13   377.3   12.0      44.187
2014    9       17    13  40    8.13   377.5   12.0      44.228
2014    9       17    13  46    8.14   377.7   12.0      44.269
2014    9       17    13  51    8.14   377.8   12.0      44.309
2014    9       17    13  56    8.15   378.0   12.0      44.348
2014    9       17    14   1    8.15   378.2   12.0      44.387
2014    9       17    14   7    8.16   378.3   12.0      44.425
2014    9       17    14  12    8.16   378.5   12.0      44.464
2014    9       17    14  17    8.16   378.7   11.9      44.501
2014    9       17    14  22    8.17   378.8   11.9      44.538
2014    9       17    14  28    8.17   379.0   11.9      44.575
2014    9       17    14  33    8.18   379.1   11.9      44.611
2014    9       17    14  38    8.18   379.3   11.9      44.647
2014    9       17    14  43    8.19   379.5   11.9      44.683
2014    9       17    14  49    8.19   379.6   11.9      44.718
2014    9       17    14  54    8.19   379.8   11.9      44.754
2014    9       17    14  59    8.20   380.0   11.9      44.788
2014    9       17    15   4    8.20   380.1   11.9      44.823
2014    9       17    15  10    8.21   380.3   11.9      44.857
2014    9       17    15  15    8.21   380.4   11.9      44.892
2014    9       17    15  20    8.22   380.6   11.9      44.926
2014    9       17    15  25    8.22   380.8   11.9      44.960
2014    9       17    15  30    8.22   380.9   11.9      44.994
2014    9       17    15  36    8.23   381.1   11.9      45.027
2014    9       17    15  41    8.23   381.3   11.9      45.061
2014    9       17    15  46    8.24   381.4   11.9      45.095
2014    9       17    15  51    8.24   381.6   11.9      45.129
2014    9       17    15  57    8.25   381.7   11.9      45.163
2014    9       17    16   2    8.25   381.9   11.9      45.197
2014    9       17    16   7    8.26   382.1   11.9      45.231
2014    9       17    16  12    8.26   382.2   11.9      45.266
2014    9       17    16  18    8.26   382.4   11.9      45.300
2014    9       17    16  23    8.27   382.6   11.9      45.335
2014    9       17    16  28    8.27   382.7   11.9      45.370
2014    9       17    16  33    8.28   382.9   11.9      45.406
2014    9       17    16  39    8.28   383.0   11.9      45.441
2014    9       17    16  44    8.29   383.2   11.9      45.478
2014    9       17    16  49    8.29   383.4   11.8      45.514
2014    9       17    16  54    8.30   383.5   11.8      45.551
2014    9       17    17   0    8.30   383.7   11.8      45.589
2014    9       17    17   5    8.31   383.9   11.8      45.628
2014    9       17    17  10    8.31   384.0   11.8      45.668
2014    9       17    17  15    8.32   384.2   11.8      45.708
2014    9       17    17  21    8.32   384.4   11.9      45.748
2014    9       17    17  26    8.33   384.5   11.9      45.789
2014    9       17    17  31    8.33   384.7   11.9      45.831
2014    9       17    17  36    8.34   384.9   11.9      45.876
2014    9       17    17  42    8.34   385.0   11.9      45.923
2014    9       17    17  47    8.35   385.2   11.9      45.973
2014    9       17    17  52    8.35   385.4   11.9      46.023
2014    9       17    17  57    8.36   385.6   11.9      46.076
2014    9       17    18   3    8.37   385.8   11.9      46.131
2014    9       17    18   8    8.37   385.9   11.9      46.188
2014    9       17    18  13    8.38   386.1   11.9      46.248
2014    9       17    18  18    8.38   386.3   11.9      46.308
2014    9       17    18  23    8.39   386.5   11.9      46.369
2014    9       17    18  29    8.39   386.7   11.9      46.429
2014    9       17    18  34    8.40   386.9   11.9      46.489
2014    9       17    18  39    8.40   387.1   11.9      46.550
2014    9       17    18  44    8.41   387.3   11.9      46.613
2014    9       17    18  50    8.41   387.5   11.9      46.677
2014    9       17    18  55    8.42   387.7   11.9      46.743
2014    9       17    19   0    8.42   387.9   11.9      46.809
2014    9       17    19   5    8.43   388.1   11.9      46.876
2014    9       17    19  11    8.43   388.3   11.9      46.943
2014    9       17    19  16    8.44   388.6   12.0      47.012
2014    9       17    19  21    8.44   388.8   12.0      47.081
2014    9       17    19  26    8.45   389.0   12.0      47.150
2014    9       17    19  32    8.45   389.2   12.0      47.218
2014    9       17    19  37    8.46   389.5   12.0      47.285
2014    9       17    19  42    8.46   389.7   12.0      47.352
2014    9       17    19  47    8.47   389.9   12.0      47.418
2014    9       17    19  53    8.47   390.1   12.0      47.483
2014    9       17    19  58    8.48   390.4   12.0      47.548
2014    9       17    20   3    8.48   390.6   12.0      47.611
2014    9       17    20   8    8.49   390.8   12.0      47.673
2014    9       17    20  14    8.49   391.1   12.0      47.734
2014    9       17    20  19    8.49   391.3   12.0      47.794
2014    9       17    20  24    8.50   391.5   12.0      47.852
2014    9       17    20  29    8.50   391.8   12.0      47.909
2014    9       17    20  35    8.51   392.0   12.0      47.965
2014    9       17    20  40    8.51   392.2   12.0      48.020
2014    9       17    20  45    8.51   392.5   11.9      48.074
2014    9       17    20  50    8.52   392.7   11.9      48.127
2014    9       17    20  56    8.52   392.9   11.9      48.180
2014    9       17    21   1    8.53   393.1   11.9      48.233
2014    9       17    21   6    8.53   393.4   11.9      48.284
2014    9       17    21  11    8.53   393.6   11.9      48.335
2014    9       17    21  17    8.54   393.8   11.9      48.386
2014    9       17    21  22    8.54   394.1   11.9      48.438
2014    9       17    21  27    8.55   394.3   11.9      48.489
2014    9       17    21  32    8.55   394.5   11.9      48.539
2014    9       17    21  38    8.56   394.8   11.9      48.590
2014    9       17    21  43    8.56   395.0   11.9      48.642
2014    9       17    21  48    8.56   395.3   11.9      48.694
2014    9       17    21  53    8.57   395.5   11.9      48.746
2014    9       17    21  58    8.57   395.7   11.9      48.800
2014    9       17    22   4    8.58   396.0   11.9      48.854
2014    9       17    22   9    8.58   396.2   11.9      48.909
2014    9       17    22  14    8.58   396.5   11.9      48.964
2014    9       17    22  19    8.59   396.7   11.9      49.020
2014    9       17    22  25    8.59   397.0   11.9      49.077
2014    9       17    22  30    8.60   397.2   11.8      49.133
2014    9       17    22  35    8.60   397.5   11.8      49.190
2014    9       17    22  40    8.60   397.8   11.8      49.246
2014    9       17    22  46    8.61   398.0   11.8      49.303
2014    9       17    22  51    8.61   398.3   11.8      49.358
2014    9       17    22  56    8.62   398.5   11.8      49.414
2014    9       17    23   1    8.62   398.8   11.8      49.470
2014    9       17    23   7    8.62   399.1   11.8      49.525
2014    9       17    23  12    8.63   399.3   11.8      49.580
2014    9       17    23  17    8.63   399.6   11.8      49.634
2014    9       17    23  22    8.63   399.8   11.8      49.687
2014    9       17    23  28    8.64   400.1   11.8      49.740
2014    9       17    23  33    8.64   400.4   11.8      49.793
2014    9       17    23  38    8.64   400.6   11.8      49.845
2014    9       17    23  43    8.65   400.9   11.7      49.896
2014    9       17    23  49    8.65   401.2   11.7      49.947
2014    9       17    23  54    8.65   401.4   11.7      49.997
2014    9       17    23  59    8.66   401.7   11.7      50.047
2014    9       18     0   4    8.66   401.9   11.7      50.094
2014    9       18     0  10    8.66   402.2   11.7      50.140
2014    9       18     0  15    8.67   402.5   11.7      50.186
2014    9       18     0  20    8.67   402.7   11.7      50.231
2014    9       18     0  25    8.67   403.0   11.7      50.277
2014    9       18     0  31    8.67   403.2   11.7      50.322
2014    9       18     0  36    8.68   403.5   11.7      50.368
2014    9       18     0  41    8.68   403.7   11.7      50.413
2014    9       18     0  46    8.68   403.9   11.7      50.459
2014    9       18     0  51    8.68   404.2   11.6      50.506
2014    9       18     0  57    8.69   404.5   11.6      50.553
2014    9       18     1   2    8.69   404.7   11.6      50.601
2014    9       18     1   7    8.69   405.0   11.6      50.651
2014    9       18     1  12    8.70   405.2   11.6      50.700
2014    9       18     1  18    8.70   405.5   11.6      50.750
2014    9       18     1  23    8.70   405.7   11.6      50.801
2014    9       18     1  28    8.70   406.0   11.6      50.852
2014    9       18     1  33    8.71   406.2   11.6      50.906
2014    9       18     1  39    8.71   406.5   11.6      50.960
2014    9       18     1  44    8.71   406.8   11.6      51.016
2014    9       18     1  49    8.72   407.0   11.6      51.073
2014    9       18     1  54    8.72   407.3   11.6      51.131
2014    9       18     2   0    8.72   407.6   11.6      51.191
2014    9       18     2   5    8.72   407.8   11.6      51.252
2014    9       18     2  10    8.73   408.1   11.6      51.314
2014    9       18     2  15    8.73   408.4   11.6      51.377
2014    9       18     2  21    8.73   408.7   11.6      51.440
2014    9       18     2  26    8.74   409.0   11.6      51.504
2014    9       18     2  31    8.74   409.3   11.6      51.568
2014    9       18     2  36    8.74   409.5   11.6      51.633
2014    9       18     2  42    8.74   409.8   11.6      51.699
2014    9       18     2  47    8.75   410.1   11.6      51.765
2014    9       18     2  52    8.75   410.4   11.6      51.831
2014    9       18     2  57    8.75   410.7   11.5      51.898
2014    9       18     3   3    8.76   411.0   11.5      51.965
2014    9       18     3   8    8.76   411.3   11.5      52.034
2014    9       18     3  13    8.76   411.6   11.5      52.103
2014    9       18     3  18    8.76   411.9   11.5      52.173
2014    9       18     3  24    8.77   412.2   11.5      52.243
2014    9       18     3  29    8.77   412.5   11.5      52.314
2014    9       18     3  34    8.77   412.9   11.5      52.387
2014    9       18     3  39    8.77   413.2   11.5      52.460
2014    9       18     3  45    8.78   413.5   11.5      52.533
2014    9       18     3  50    8.78   413.8   11.5      52.606
2014    9       18     3  55    8.78   414.1   11.5      52.678
2014    9       18     4   0    8.78   414.5   11.5      52.750
2014    9       18     4   5    8.78   414.8   11.5      52.821
2014    9       18     4  11    8.79   415.1   11.4      52.891
2014    9       18     4  16    8.79   415.4   11.4      52.961
2014    9       18     4  21    8.79   415.7   11.4      53.030
2014    9       18     4  26    8.79   416.0   11.4      53.098
2014    9       18     4  32    8.79   416.4   11.4      53.165
2014    9       18     4  37    8.80   416.7   11.4      53.231
2014    9       18     4  42    8.80   417.0   11.4      53.297
2014    9       18     4  47    8.80   417.3   11.4      53.361
2014    9       18     4  53    8.80   417.6   11.4      53.425
2014    9       18     4  58    8.80   418.0   11.4      53.489
2014    9       18     5   3    8.80   418.3   11.3      53.552
2014    9       18     5   8    8.80   418.6   11.3      53.615
2014    9       18     5  14    8.81   418.9   11.3      53.678
2014    9       18     5  19    8.81   419.2   11.3      53.741
2014    9       18     5  24    8.81   419.6   11.3      53.804
2014    9       18     5  29    8.81   419.9   11.3      53.867
2014    9       18     5  35    8.81   420.2   11.3      53.931
2014    9       18     5  40    8.81   420.6   11.3      53.995
2014    9       18     5  45    8.82   420.9   11.2      54.060
2014    9       18     5  50    8.82   421.2   11.2      54.126
2014    9       18     5  56    8.82   421.6   11.2      54.192
2014    9       18     6   1    8.82   421.9   11.2      54.258
2014    9       18     6   6    8.82   422.3   11.2      54.324
2014    9       18     6  11    8.82   422.6   11.2      54.389
2014    9       18     6  17    8.82   423.0   11.2      54.453
2014    9       18     6  22    8.82   423.4   11.1      54.517
2014    9       18     6  27    8.83   423.7   11.1      54.581
2014    9       18     6  32    8.83   424.1   11.1      54.643
2014    9       18     6  38    8.83   424.5   11.1      54.704
2014    9       18     6  43    8.83   424.9   11.1      54.765
2014    9       18     6  48    8.83   425.3   11.1      54.825
2014    9       18     6  53    8.83   425.7   11.0      54.886
2014    9       18     6  58    8.83   426.1   11.0      54.944
2014    9       18     7   4    8.83   426.5   11.0      55.002
2014    9       18     7   9    8.83   426.9   11.0      55.056
2014    9       18     7  14    8.83   427.3   10.9      55.109
2014    9       18     7  19    8.83   427.7   10.9      55.160
2014    9       18     7  25    8.83   428.1   10.9      55.210
2014    9       18     7  30    8.82   428.5   10.9      55.258
2014    9       18     7  35    8.82   428.9   10.9      55.303
2014    9       18     7  40    8.82   429.3   10.8      55.343
2014    9       18     7  46    8.82   429.7   10.8      55.377
2014    9       18     7  51    8.81   430.1   10.8      55.408
2014    9       18     7  56    8.81   430.5   10.7      55.434
2014    9       18     8   1    8.81   430.8   10.7      55.459
2014    9       18     8   7    8.80   431.2   10.7      55.480
2014    9       18     8  12    8.80   431.5   10.7      55.497
2014    9       18     8  17    8.79   431.8   10.6      55.511
2014    9       18     8  22    8.79   432.2   10.6      55.526
2014    9       18     8  28    8.78   432.5   10.6      55.543
2014    9       18     8  33    8.78   432.9   10.6      55.563
2014    9       18     8  38    8.78   433.2   10.5      55.584
2014    9       18     8  43    8.77   433.5   10.5      55.606
2014    9       18     8  49    8.77   433.9   10.5      55.629
2014    9       18     8  54    8.77   434.2   10.5      55.653
2014    9       18     8  59    8.76   434.6   10.5      55.678
2014    9       18     9   4    8.76   434.9   10.4      55.705
2014    9       18     9  10    8.76   435.3   10.4      55.733
2014    9       18     9  15    8.75   435.6   10.4      55.763
2014    9       18     9  20    8.75   435.9   10.4      55.794
2014    9       18     9  25    8.75   436.3   10.4      55.825
2014    9       18     9  31    8.74   436.6   10.3      55.858
2014    9       18     9  36    8.74   437.0   10.3      55.892
2014    9       18     9  41    8.74   437.3   10.3      55.927
2014    9       18     9  46    8.74   437.6   10.3      55.964
2014    9       18     9  51    8.73   437.9   10.3      56.002
2014    9       18     9  57    8.73   438.3   10.3      56.040
2014    9       18    10   2    8.73   438.6   10.2      56.079
2014    9       18    10   7    8.73   438.9   10.2      56.120
2014    9       18    10  12    8.73   439.2   10.2      56.164
2014    9       18    10  18    8.72   439.5   10.2      56.212
2014    9       18    10  23    8.72   439.8   10.2      56.263
2014    9       18    10  28    8.72   440.1   10.2      56.316
2014    9       18    10  33    8.72   440.4   10.2      56.373
2014    9       18    10  39    8.72   440.7   10.2      56.436
2014    9       18    10  44    8.72   441.0   10.1      56.504
2014    9       18    10  49    8.71   441.4   10.1      56.577
2014    9       18    10  54    8.71   441.7   10.1      56.652
2014    9       18    11   0    8.71   442.1   10.1      56.730
2014    9       18    11   5    8.71   442.4   10.1      56.810
2014    9       18    11  10    8.71   442.8   10.1      56.891
2014    9       18    11  15    8.71   443.1   10.1      56.975
2014    9       18    11  21    8.70   443.5   10.1      57.061
2014    9       18    11  26    8.70   443.9   10.0      57.147
2014    9       18    11  31    8.70   444.3   10.0      57.231
2014    9       18    11  36    8.70   444.6   10.0      57.313
2014    9       18    11  42    8.70   445.0   10.0      57.394
2014    9       18    11  47    8.69   445.4   10.0      57.474
2014    9       18    11  52    8.69   445.8   10.0      57.553
2014    9       18    11  57    8.69   446.1   10.0      57.630
2014    9       18    12   3    8.69   446.5    9.9      57.706
2014    9       18    12   8    8.69   446.9    9.9      57.778
2014    9       18    12  13    8.68   447.3    9.9      57.849
2014    9       18    12  18    8.68   447.6    9.9      57.917
2014    9       18    12  24    8.68   448.0    9.9      57.984
2014    9       18    12  29    8.68   448.4    9.8      58.050
2014    9       18    12  34    8.67   448.8    9.8      58.115
2014    9       18    12  39    8.67   449.2    9.8      58.179
2014    9       18    12  45    8.67   449.6    9.8      58.241
2014    9       18    12  50    8.67   450.0    9.8      58.301
2014    9       18    12  55    8.66   450.4    9.8      58.359
2014    9       18    13   0    8.66   450.8    9.7      58.417
2014    9       18    13   5    8.66   451.2    9.7      58.475
2014    9       18    13  11    8.65   451.7    9.7      58.533
2014    9       18    13  16    8.65   452.1    9.7      58.589
2014    9       18    13  21    8.65   452.5    9.6      58.643
2014    9       18    13  26    8.64   453.0    9.6      58.695
2014    9       18    13  32    8.64   453.4    9.6      58.744
2014    9       18    13  37    8.64   453.9    9.6      58.792
2014    9       18    13  42    8.63   454.3    9.6      58.838
2014    9       18    13  47    8.63   454.8    9.5      58.882
2014    9       18    13  53    8.62   455.3    9.5      58.923
2014    9       18    13  58    8.61   455.8    9.5      58.960
2014    9       18    14   3    8.61   456.2    9.4      58.993
2014    9       18    14   8    8.60   456.7    9.4      59.023
2014    9       18    14  14    8.60   457.2    9.4      59.047
2014    9       18    14  19    8.59   457.7    9.3      59.067
2014    9       18    14  24    8.58   458.1    9.3      59.083
2014    9       18    14  29    8.57   458.6    9.3      59.094
2014    9       18    14  35    8.56   459.1    9.2      59.101
2014    9       18    14  40    8.55   459.5    9.2      59.101
2014    9       18    14  45    8.55   460.0    9.2      59.099
2014    9       18    14  50    8.54   460.4    9.1      59.096
2014    9       18    14  56    8.53   460.9    9.1      59.091
2014    9       18    15   1    8.52   461.3    9.1      59.080
2014    9       18    15   6    8.51   461.8    9.0      59.065
2014    9       18    15  11    8.50   462.2    9.0      59.045
2014    9       18    15  17    8.48   462.6    8.9      59.021
2014    9       18    15  22    8.47   463.0    8.9      58.994
2014    9       18    15  27    8.46   463.4    8.9      58.962
2014    9       18    15  32    8.45   463.8    8.8      58.924
2014    9       18    15  37    8.44   464.2    8.8      58.882
2014    9       18    15  43    8.43   464.6    8.8      58.841
2014    9       18    15  48    8.42   464.9    8.7      58.800
2014    9       18    15  53    8.41   465.3    8.7      58.760
2014    9       18    15  58    8.40   465.7    8.7      58.721
2014    9       18    16   4    8.38   466.0    8.6      58.682
2014    9       18    16   9    8.37   466.4    8.6      58.645
2014    9       18    16  14    8.36   466.7    8.6      58.607
2014    9       18    16  19    8.35   467.0    8.5      58.569
2014    9       18    16  25    8.34   467.4    8.5      58.531
2014    9       18    16  30    8.33   467.7    8.5      58.495
2014    9       18    16  35    8.32   468.0    8.4      58.463
2014    9       18    16  40    8.32   468.3    8.4      58.433
2014    9       18    16  46    8.31   468.7    8.4      58.405
2014    9       18    16  51    8.30   469.0    8.4      58.380
2014    9       18    16  56    8.29   469.3    8.3      58.357
2014    9       18    17   1    8.28   469.6    8.3      58.335
2014    9       18    17   7    8.27   469.9    8.3      58.314
2014    9       18    17  12    8.26   470.2    8.3      58.294
2014    9       18    17  17    8.25   470.5    8.2      58.276
2014    9       18    17  22    8.25   470.8    8.2      58.258
2014    9       18    17  28    8.24   471.1    8.2      58.242
2014    9       18    17  33    8.23   471.3    8.2      58.226
2014    9       18    17  38    8.22   471.6    8.2      58.211
2014    9       18    17  43    8.21   471.8    8.1      58.197
2014    9       18    17  49    8.21   472.0    8.1      58.185
2014    9       18    17  54    8.20   472.3    8.1      58.176
2014    9       18    17  59    8.19   472.5    8.1      58.169
2014    9       18    18   4    8.19   472.7    8.1      58.166
2014    9       18    18  10    8.18   473.0    8.0      58.166
2014    9       18    18  15    8.17   473.2    8.0      58.171
2014    9       18    18  20    8.16   473.4    8.0      58.179
2014    9       18    18  25    8.16   473.7    8.0      58.189
2014    9       18    18  31    8.15   473.9    8.0      58.202
2014    9       18    18  36    8.14   474.2    8.0      58.217
2014    9       18    18  41    8.14   474.4    7.9      58.233
2014    9       18    18  46    8.13   474.7    7.9      58.251
2014    9       18    18  51    8.13   475.0    7.9      58.270
2014    9       18    18  57    8.12   475.2    7.9      58.287
2014    9       18    19   2    8.11   475.5    7.9      58.305
2014    9       18    19   7    8.11   475.7    7.9      58.322
2014    9       18    19  12    8.10   476.0    7.9      58.338
2014    9       18    19  18    8.09   476.3    7.8      58.354
2014    9       18    19  23    8.09   476.5    7.8      58.370
2014    9       18    19  28    8.08   476.8    7.8      58.385
2014    9       18    19  33    8.07   477.1    7.8      58.400
2014    9       18    19  39    8.06   477.4    7.8      58.414
2014    9       18    19  44    8.06   477.7    7.8      58.426
2014    9       18    19  49    8.05   478.0    7.8      58.435
2014    9       18    19  54    8.04   478.2    7.7      58.442
2014    9       18    20   0    8.04   478.5    7.7      58.447
2014    9       18    20   5    8.03   478.8    7.7      58.450
2014    9       18    20  10    8.02   479.1    7.7      58.451
2014    9       18    20  15    8.01   479.4    7.7      58.449
2014    9       18    20  21    8.00   479.7    7.7      58.446
2014    9       18    20  26    8.00   480.0    7.6      58.442
2014    9       18    20  31    7.99   480.3    7.6      58.438
2014    9       18    20  36    7.98   480.6    7.6      58.436
2014    9       18    20  42    7.97   480.9    7.6      58.433
2014    9       18    20  47    7.96   481.2    7.6      58.428
2014    9       18    20  52    7.95   481.6    7.5      58.420
2014    9       18    20  57    7.94   481.9    7.5      58.410
2014    9       18    21   3    7.94   482.2    7.5      58.397
2014    9       18    21   8    7.93   482.5    7.5      58.382
2014    9       18    21  13    7.92   482.8    7.5      58.362
2014    9       18    21  18    7.91   483.2    7.4      58.339
2014    9       18    21  24    7.90   483.5    7.4      58.313
2014    9       18    21  29    7.88   483.9    7.4      58.281
2014    9       18    21  34    7.87   484.2    7.4      58.240
2014    9       18    21  39    7.86   484.5    7.3      58.192
2014    9       18    21  44    7.85   484.8    7.3      58.139
2014    9       18    21  50    7.84   485.1    7.3      58.081
2014    9       18    21  55    7.83   485.4    7.3      58.018
2014    9       18    22   0    7.82   485.7    7.2      57.951
2014    9       18    22   5    7.80   486.0    7.2      57.878
2014    9       18    22  11    7.79   486.2    7.2      57.801
2014    9       18    22  16    7.78   486.5    7.2      57.725
2014    9       18    22  21    7.77   486.8    7.1      57.651
2014    9       18    22  26    7.76   487.0    7.1      57.577
2014    9       18    22  32    7.74   487.3    7.1      57.505
2014    9       18    22  37    7.73   487.6    7.1      57.433
2014    9       18    22  42    7.72   487.8    7.0      57.361
2014    9       18    22  47    7.71   488.1    7.0      57.290
2014    9       18    22  53    7.70   488.4    7.0      57.218
2014    9       18    22  58    7.69   488.6    7.0      57.147
2014    9       18    23   3    7.68   488.9    6.9      57.075
2014    9       18    23   8    7.67   489.1    6.9      57.001
2014    9       18    23  14    7.65   489.3    6.9      56.926
2014    9       18    23  19    7.64   489.5    6.9      56.849
2014    9       18    23  24    7.63   489.8    6.9      56.772
2014    9       18    23  29    7.62   490.0    6.8      56.695
2014    9       18    23  35    7.61   490.2    6.8      56.617
2014    9       18    23  40    7.60   490.4    6.8      56.538
2014    9       18    23  45    7.59   490.5    6.8      56.458
2014    9       18    23  50    7.58   490.7    6.7      56.381
2014    9       18    23  56    7.57   490.9    6.7      56.306
2014    9       19     0   1    7.56   491.1    6.7      56.233
2014    9       19     0   6    7.55   491.2    6.7      56.161
2014    9       19     0  11    7.54   491.4    6.7      56.092
2014    9       19     0  16    7.53   491.5    6.7      56.023
2014    9       19     0  22    7.52   491.7    6.6      55.956
2014    9       19     0  27    7.51   491.9    6.6      55.890
2014    9       19     0  32    7.51   492.0    6.6      55.825
2014    9       19     0  37    7.50   492.2    6.6      55.761
2014    9       19     0  43    7.49   492.3    6.6      55.697
2014    9       19     0  48    7.48   492.4    6.6      55.635
2014    9       19     0  53    7.47   492.6    6.6      55.573
2014    9       19     0  58    7.46   492.7    6.5      55.512
2014    9       19     1   4    7.46   492.8    6.5      55.451
2014    9       19     1   9    7.45   493.0    6.5      55.389
2014    9       19     1  14    7.44   493.1    6.5      55.328
2014    9       19     1  19    7.43   493.2    6.5      55.267
2014    9       19     1  25    7.42   493.4    6.5      55.206
2014    9       19     1  30    7.42   493.5    6.5      55.145
2014    9       19     1  35    7.41   493.6    6.5      55.084
2014    9       19     1  40    7.40   493.7    6.4      55.024
2014    9       19     1  46    7.39   493.8    6.4      54.963
2014    9       19     1  51    7.39   494.0    6.4      54.903
2014    9       19     1  56    7.38   494.1    6.4      54.842
2014    9       19     2   1    7.37   494.2    6.4      54.782
2014    9       19     2   7    7.36   494.3    6.4      54.722
2014    9       19     2  12    7.35   494.5    6.4      54.661
2014    9       19     2  17    7.35   494.6    6.4      54.601
2014    9       19     2  22    7.34   494.7    6.4      54.540
2014    9       19     2  28    7.33   494.8    6.4      54.480
2014    9       19     2  33    7.32   495.0    6.3      54.420
2014    9       19     2  38    7.31   495.1    6.3      54.360
2014    9       19     2  43    7.31   495.2    6.3      54.300
2014    9       19     2  49    7.30   495.3    6.3      54.238
2014    9       19     2  54    7.29   495.4    6.3      54.176
2014    9       19     2  59    7.28   495.5    6.3      54.114
2014    9       19     3   4    7.27   495.6    6.3      54.052
2014    9       19     3  10    7.26   495.7    6.3      53.988
2014    9       19     3  15    7.26   495.8    6.3      53.924
2014    9       19     3  20    7.25   495.9    6.2      53.860
2014    9       19     3  25    7.24   496.0    6.2      53.797
2014    9       19     3  31    7.23   496.1    6.2      53.734
2014    9       19     3  36    7.22   496.1    6.2      53.672
2014    9       19     3  41    7.21   496.2    6.2      53.610
2014    9       19     3  46    7.21   496.3    6.2      53.548
2014    9       19     3  51    7.20   496.3    6.2      53.488
2014    9       19     3  57    7.19   496.4    6.2      53.427
2014    9       19     4   2    7.18   496.5    6.2      53.368
2014    9       19     4   7    7.17   496.5    6.2      53.308
2014    9       19     4  12    7.17   496.6    6.1      53.248
2014    9       19     4  18    7.16   496.7    6.1      53.189
2014    9       19     4  23    7.15   496.8    6.1      53.129
2014    9       19     4  28    7.14   496.9    6.1      53.069
2014    9       19     4  33    7.13   497.0    6.1      53.008
2014    9       19     4  39    7.13   497.1    6.1      52.947
2014    9       19     4  44    7.12   497.1    6.1      52.886
2014    9       19     4  49    7.11   497.2    6.1      52.825
2014    9       19     4  54    7.10   497.3    6.1      52.763
2014    9       19     5   0    7.09   497.4    6.1      52.701
2014    9       19     5   5    7.09   497.5    6.1      52.638
2014    9       19     5  10    7.08   497.5    6.1      52.574
2014    9       19     5  15    7.07   497.6    6.0      52.508
2014    9       19     5  21    7.06   497.7    6.0      52.441
2014    9       19     5  26    7.05   497.7    6.0      52.374
2014    9       19     5  31    7.04   497.8    6.0      52.306
2014    9       19     5  36    7.04   497.8    6.0      52.239
2014    9       19     5  42    7.03   497.9    6.0      52.170
2014    9       19     5  47    7.02   497.9    6.0      52.102
2014    9       19     5  52    7.01   498.0    6.0      52.035
2014    9       19     5  57    7.00   498.0    6.0      51.969
2014    9       19     6   3    7.00   498.1    6.0      51.903
2014    9       19     6   8    6.99   498.1    6.0      51.837
2014    9       19     6  13    6.98   498.2    6.0      51.771
2014    9       19     6  18    6.97   498.2    5.9      51.706
2014    9       19     6  24    6.97   498.2    5.9      51.641
2014    9       19     6  29    6.96   498.2    5.9      51.576
2014    9       19     6  34    6.95   498.3    5.9      51.512
2014    9       19     6  39    6.94   498.3    5.9      51.448
2014    9       19     6  45    6.94   498.3    5.9      51.385
2014    9       19     6  50    6.93   498.3    5.9      51.322
2014    9       19     6  55    6.92   498.3    5.9      51.259
2014    9       19     7   0    6.91   498.3    5.9      51.196
2014    9       19     7   5    6.91   498.4    5.9      51.133
2014    9       19     7  11    6.90   498.4    5.9      51.070
2014    9       19     7  16    6.89   498.4    5.9      51.007
2014    9       19     7  21    6.89   498.4    5.9      50.944
2014    9       19     7  26    6.88   498.4    5.9      50.881
2014    9       19     7  32    6.87   498.4    5.8      50.818
2014    9       19     7  37    6.87   498.4    5.8      50.755
2014    9       19     7  42    6.86   498.4    5.8      50.691
2014    9       19     7  47    6.85   498.4    5.8      50.627
2014    9       19     7  53    6.85   498.4    5.8      50.563
2014    9       19     7  58    6.84   498.4    5.8      50.497
2014    9       19     8   3    6.83   498.4    5.8      50.432
2014    9       19     8   8    6.83   498.4    5.8      50.366
2014    9       19     8  14    6.82   498.5    5.8      50.300
2014    9       19     8  19    6.82   498.5    5.8      50.234
2014    9       19     8  24    6.81   498.5    5.8      50.168
2014    9       19     8  29    6.80   498.4    5.8      50.103
2014    9       19     8  35    6.80   498.4    5.8      50.037
2014    9       19     8  40    6.79   498.4    5.8      49.972
2014    9       19     8  45    6.79   498.4    5.8      49.907
2014    9       19     8  50    6.78   498.4    5.8      49.842
2014    9       19     8  56    6.77   498.4    5.8      49.777
2014    9       19     9   1    6.77   498.4    5.8      49.713
2014    9       19     9   6    6.76   498.4    5.8      49.648
2014    9       19     9  11    6.76   498.4    5.8      49.585
2014    9       19     9  17    6.75   498.4    5.8      49.522
2014    9       19     9  22    6.74   498.4    5.8      49.460
2014    9       19     9  27    6.74   498.4    5.8      49.399
2014    9       19     9  32    6.73   498.3    5.8      49.338
2014    9       19     9  38    6.73   498.3    5.8      49.278
2014    9       19     9  43    6.72   498.3    5.8      49.219
2014    9       19     9  48    6.72   498.3    5.8      49.160
2014    9       19     9  53    6.71   498.3    5.7      49.102
2014    9       19     9  59    6.70   498.2    5.7      49.044
2014    9       19    10   4    6.70   498.2    5.7      48.986
2014    9       19    10   9    6.69   498.2    5.7      48.928
2014    9       19    10  14    6.69   498.2    5.7      48.869
2014    9       19    10  20    6.68   498.2    5.7      48.811
2014    9       19    10  25    6.68   498.1    5.7      48.752
2014    9       19    10  30    6.67   498.1    5.7      48.694
2014    9       19    10  35    6.67   498.1    5.7      48.635
2014    9       19    10  41    6.66   498.0    5.7      48.577
2014    9       19    10  46    6.66   498.0    5.7      48.518
2014    9       19    10  51    6.65   498.0    5.7      48.459
2014    9       19    10  56    6.65   497.9    5.7      48.401
2014    9       19    11   2    6.64   497.9    5.7      48.342
2014    9       19    11   7    6.64   497.9    5.7      48.283
2014    9       19    11  12    6.63   497.8    5.7      48.225
2014    9       19    11  17    6.63   497.8    5.7      48.166
2014    9       19    11  22    6.62   497.8    5.7      48.107
2014    9       19    11  28    6.62   497.7    5.7      48.049
2014    9       19    11  33    6.61   497.7    5.7      47.990
2014    9       19    11  38    6.61   497.7    5.7      47.931
2014    9       19    11  43    6.60   497.6    5.7      47.873
2014    9       19    11  49    6.60   497.6    5.7      47.815
2014    9       19    11  54    6.59   497.5    5.7      47.756
2014    9       19    11  59    6.59   497.5    5.7      47.698
2014    9       19    12   4    6.58   497.4    5.7      47.640
2014    9       19    12  10    6.58   497.4    5.7      47.582
2014    9       19    12  15    6.58   497.4    5.7      47.525
2014    9       19    12  20    6.57   497.3    5.7      47.468
2014    9       19    12  25    6.57   497.3    5.7      47.411
2014    9       19    12  31    6.56   497.2    5.7      47.354
2014    9       19    12  36    6.56   497.2    5.7      47.297
2014    9       19    12  41    6.55   497.1    5.7      47.241
2014    9       19    12  46    6.55   497.1    5.7      47.185
2014    9       19    12  52    6.54   497.0    5.6      47.129
2014    9       19    12  57    6.54   497.0    5.6      47.073
2014    9       19    13   2    6.54   496.9    5.6      47.018
2014    9       19    13   7    6.53   496.9    5.6      46.963
2014    9       19    13  13    6.53   496.8    5.6      46.908
2014    9       19    13  18    6.52   496.8    5.6      46.854
2014    9       19    13  23    6.52   496.7    5.6      46.800
2014    9       19    13  28    6.52   496.7    5.6      46.746
2014    9       19    13  34    6.51   496.6    5.6      46.693
2014    9       19    13  39    6.51   496.6    5.6      46.640
2014    9       19    13  44    6.50   496.5    5.6      46.587
2014    9       19    13  49    6.50   496.5    5.6      46.534
2014    9       19    13  55    6.50   496.4    5.6      46.482
2014    9       19    14   0    6.49   496.4    5.6      46.430
2014    9       19    14   5    6.49   496.3    5.6      46.379
2014    9       19    14  10    6.48   496.3    5.6      46.327
2014    9       19    14  16    6.48   496.2    5.6      46.276
2014    9       19    14  21    6.48   496.1    5.6      46.225
2014    9       19    14  26    6.47   496.1    5.6      46.174
2014    9       19    14  31    6.47   496.0    5.6      46.124
2014    9       19    14  36    6.47   496.0    5.6      46.074
2014    9       19    14  42    6.46   495.9    5.6      46.024
2014    9       19    14  47    6.46   495.9    5.6      45.974
2014    9       19    14  52    6.46   495.8    5.6      45.925
2014    9       19    14  57    6.45   495.8    5.6      45.876
2014    9       19    15   3    6.45   495.7    5.6      45.827
2014    9       19    15   8    6.44   495.6    5.6      45.778
2014    9       19    15  13    6.44   495.6    5.6      45.730
2014    9       19    15  18    6.44   495.5    5.6      45.681
2014    9       19    15  24    6.43   495.5    5.6      45.633
2014    9       19    15  29    6.43   495.4    5.6      45.585
2014    9       19    15  34    6.43   495.4    5.6      45.536
2014    9       19    15  39    6.42   495.3    5.6      45.488
2014    9       19    15  45    6.42   495.2    5.6      45.440
2014    9       19    15  50    6.42   495.2    5.6      45.392
2014    9       19    15  55    6.42   495.1    5.6      45.344
2014    9       19    16   0    6.41   495.1    5.6      45.296
2014    9       19    16   6    6.41   495.0    5.6      45.247
2014    9       19    16  11    6.41   494.9    5.6      45.199
2014    9       19    16  16    6.40   494.9    5.6      45.151
2014    9       19    16  21    6.40   494.8    5.6      45.103
2014    9       19    16  27    6.40   494.7    5.6      45.055
2014    9       19    16  32    6.39   494.7    5.6      45.007
2014    9       19    16  37    6.39   494.6    5.6      44.959
2014    9       19    16  42    6.39   494.5    5.6      44.911
2014    9       19    16  48    6.38   494.5    5.6      44.864
2014    9       19    16  53    6.38   494.4    5.6      44.816
2014    9       19    16  58    6.38   494.3    5.6      44.769
2014    9       19    17   3    6.38   494.3    5.6      44.722
2014    9       19    17   9    6.37   494.2    5.6      44.675
2014    9       19    17  14    6.37   494.1    5.6      44.628
2014    9       19    17  19    6.37   494.0    5.6      44.582
2014    9       19    17  24    6.36   494.0    5.6      44.535
2014    9       19    17  30    6.36   493.9    5.6      44.489
2014    9       19    17  35    6.36   493.8    5.6      44.443
2014    9       19    17  40    6.36   493.7    5.6      44.397
2014    9       19    17  45    6.35   493.7    5.6      44.352
2014    9       19    17  51    6.35   493.6    5.6      44.306
2014    9       19    17  56    6.35   493.5    5.5      44.261
2014    9       19    18   1    6.35   493.4    5.5      44.216
2014    9       19    18   6    6.34   493.3    5.5      44.171
2014    9       19    18  11    6.34   493.3    5.5      44.126
2014    9       19    18  17    6.34   493.2    5.5      44.081
2014    9       19    18  22    6.34   493.1    5.5      44.037
2014    9       19    18  27    6.33   493.0    5.5      43.992
2014    9       19    18  32    6.33   492.9    5.5      43.948
2014    9       19    18  38    6.33   492.9    5.5      43.904
2014    9       19    18  43    6.33   492.8    5.5      43.859
2014    9       19    18  48    6.32   492.7    5.5      43.815
2014    9       19    18  53    6.32   492.6    5.5      43.770
2014    9       19    18  59    6.32   492.5    5.5      43.726
2014    9       19    19   4    6.32   492.4    5.5      43.681
2014    9       19    19   9    6.32   492.4    5.5      43.637
2014    9       19    19  14    6.31   492.3    5.5      43.593
2014    9       19    19  20    6.31   492.2    5.5      43.548
2014    9       19    19  25    6.31   492.1    5.5      43.503
2014    9       19    19  30    6.31   492.0    5.5      43.458
2014    9       19    19  35    6.31   491.9    5.5      43.413
2014    9       19    19  41    6.30   491.8    5.5      43.369
2014    9       19    19  46    6.30   491.7    5.5      43.324
2014    9       19    19  51    6.30   491.7    5.5      43.279
2014    9       19    19  56    6.30   491.6    5.5      43.235
2014    9       19    20   2    6.30   491.5    5.5      43.190
2014    9       19    20   7    6.29   491.4    5.5      43.146
2014    9       19    20  12    6.29   491.3    5.5      43.101
2014    9       19    20  17    6.29   491.2    5.5      43.057
2014    9       19    20  23    6.29   491.1    5.5      43.013
2014    9       19    20  28    6.29   491.0    5.5      42.969
2014    9       19    20  33    6.29   490.9    5.5      42.925
2014    9       19    20  38    6.29   490.8    5.5      42.881
2014    9       19    20  43    6.28   490.7    5.5      42.837
2014    9       19    20  49    6.28   490.7    5.5      42.793
2014    9       19    20  54    6.28   490.6    5.5      42.750
2014    9       19    20  59    6.28   490.5    5.5      42.706
2014    9       19    21   4    6.28   490.4    5.5      42.663
2014    9       19    21  10    6.28   490.3    5.5      42.620
2014    9       19    21  15    6.28   490.2    5.5      42.577
2014    9       19    21  20    6.27   490.1    5.5      42.534
2014    9       19    21  25    6.27   490.0    5.5      42.492
2014    9       19    21  31    6.27   489.9    5.5      42.449
2014    9       19    21  36    6.27   489.8    5.5      42.407
2014    9       19    21  41    6.27   489.7    5.5      42.365
2014    9       19    21  46    6.27   489.6    5.5      42.323
2014    9       19    21  52    6.27   489.5    5.5      42.281
2014    9       19    21  57    6.27   489.5    5.5      42.240
2014    9       19    22   2    6.27   489.4    5.5      42.198
2014    9       19    22   7    6.26   489.3    5.5      42.157
2014    9       19    22  13    6.26   489.2    5.5      42.117
2014    9       19    22  18    6.26   489.1    5.5      42.076
2014    9       19    22  23    6.26   489.0    5.5      42.036
2014    9       19    22  28    6.26   488.9    5.5      41.996
2014    9       19    22  34    6.26   488.8    5.5      41.956
2014    9       19    22  39    6.26   488.7    5.5      41.917
2014    9       19    22  44    6.26   488.6    5.5      41.879
2014    9       19    22  49    6.26   488.5    5.5      41.840
2014    9       19    22  55    6.26   488.4    5.5      41.802
2014    9       19    23   0    6.26   488.3    5.5      41.764
2014    9       19    23   5    6.25   488.2    5.5      41.727
2014    9       19    23  10    6.25   488.1    5.5      41.691
2014    9       19    23  16    6.25   488.0    5.5      41.654
2014    9       19    23  21    6.25   487.9    5.5      41.618
2014    9       19    23  26    6.25   487.8    5.5      41.583
2014    9       19    23  31    6.25   487.7    5.5      41.548
2014    9       19    23  37    6.25   487.6    5.5      41.514
2014    9       19    23  42    6.25   487.5    5.5      41.480
2014    9       19    23  47    6.25   487.4    5.5      41.447
2014    9       19    23  52    6.25   487.3    5.5      41.415
2014    9       19    23  57    6.25   487.2    5.5      41.383
2014    9       20     0   3    6.25   487.1    5.5      41.351
2014    9       20     0   8    6.25   487.0    5.5      41.320
2014    9       20     0  13    6.25   486.9    5.5      41.290
2014    9       20     0  18    6.25   486.8    5.5      41.260
2014    9       20     0  24    6.25   486.7    5.5      41.230
2014    9       20     0  29    6.25   486.6    5.5      41.202
2014    9       20     0  34    6.25   486.5    5.5      41.173
2014    9       20     0  39    6.25   486.4    5.5      41.145
2014    9       20     0  45    6.25   486.3    5.5      41.117
2014    9       20     0  50    6.25   486.2    5.5      41.090
2014    9       20     0  55    6.25   486.1    5.5      41.063
2014    9       20     1   0    6.25   486.0    5.5      41.037
2014    9       20     1   6    6.25   485.9    5.5      41.011
2014    9       20     1  11    6.25   485.8    5.5      40.985
2014    9       20     1  16    6.25   485.7    5.5      40.959
2014    9       20     1  21    6.25   485.6    5.6      40.933
2014    9       20     1  27    6.25   485.5    5.6      40.908
2014    9       20     1  32    6.25   485.4    5.6      40.883
2014    9       20     1  37    6.25   485.3    5.6      40.857
2014    9       20     1  42    6.25   485.2    5.6      40.832
2014    9       20     1  48    6.25   485.1    5.6      40.807
2014    9       20     1  53    6.25   485.0    5.6      40.782
2014    9       20     1  58    6.25   484.9    5.6      40.757
2014    9       20     2   3    6.25   484.8    5.6      40.732
2014    9       20     2   9    6.25   484.7    5.6      40.706
2014    9       20     2  14    6.25   484.6    5.6      40.681
2014    9       20     2  19    6.25   484.5    5.6      40.656
2014    9       20     2  24    6.25   484.4    5.6      40.630
2014    9       20     2  29    6.26   484.3    5.6      40.605
2014    9       20     2  35    6.26   484.2    5.6      40.580
2014    9       20     2  40    6.26   484.1    5.6      40.554
2014    9       20     2  45    6.26   484.0    5.6      40.529
2014    9       20     2  50    6.26   483.9    5.6      40.504
2014    9       20     2  56    6.26   483.8    5.6      40.479
2014    9       20     3   1    6.26   483.6    5.6      40.454
2014    9       20     3   6    6.26   483.5    5.6      40.430
2014    9       20     3  11    6.27   483.4    5.6      40.406
2014    9       20     3  17    6.27   483.3    5.6      40.383
2014    9       20     3  22    6.27   483.2    5.6      40.361
2014    9       20     3  27    6.27   483.1    5.7      40.340
2014    9       20     3  32    6.27   483.0    5.7      40.321
2014    9       20     3  38    6.28   482.9    5.7      40.303
2014    9       20     3  43    6.28   482.8    5.7      40.285
2014    9       20     3  48    6.28   482.7    5.7      40.270
2014    9       20     3  53    6.28   482.6    5.7      40.256
2014    9       20     3  59    6.28   482.6    5.7      40.244
2014    9       20     4   4    6.29   482.5    5.7      40.234
2014    9       20     4   9    6.29   482.4    5.7      40.226
2014    9       20     4  14    6.29   482.3    5.7      40.220
2014    9       20     4  20    6.29   482.3    5.7      40.215
2014    9       20     4  25    6.30   482.2    5.7      40.213
2014    9       20     4  30    6.30   482.2    5.7      40.210
2014    9       20     4  35    6.30   482.1    5.8      40.206
2014    9       20     4  41    6.30   482.1    5.8      40.203
2014    9       20     4  46    6.30   482.0    5.8      40.200
2014    9       20     4  51    6.31   482.0    5.8      40.195
2014    9       20     4  56    6.31   481.9    5.8      40.190
2014    9       20     5   1    6.31   481.9    5.8      40.184
2014    9       20     5   7    6.31   481.8    5.8      40.178
2014    9       20     5  12    6.31   481.8    5.8      40.170
2014    9       20     5  17    6.32   481.8    5.8      40.162
2014    9       20     5  22    6.32   481.7    5.8      40.153
2014    9       20     5  28    6.32   481.7    5.8      40.143
2014    9       20     5  33    6.32   481.6    5.8      40.133
2014    9       20     5  38    6.32   481.6    5.8      40.122
2014    9       20     5  43    6.32   481.5    5.8      40.111
2014    9       20     5  49    6.33   481.5    5.8      40.099
2014    9       20     5  54    6.33   481.4    5.8      40.087
2014    9       20     5  59    6.33   481.4    5.8      40.075
2014    9       20     6   4    6.33   481.3    5.8      40.062
2014    9       20     6  10    6.33   481.3    5.8      40.049
2014    9       20     6  15    6.33   481.2    5.8      40.035
2014    9       20     6  20    6.34   481.2    5.8      40.022
2014    9       20     6  25    6.34   481.1    5.8      40.009
2014    9       20     6  31    6.34   481.1    5.8      39.995
2014    9       20     6  36    6.34   481.0    5.8      39.982
2014    9       20     6  41    6.34   481.0    5.9      39.968
2014    9       20     6  46    6.34   480.9    5.9      39.955
2014    9       20     6  52    6.35   480.8    5.9      39.942
2014    9       20     6  57    6.35   480.8    5.9      39.929
2014    9       20     7   2    6.35   480.7    5.9      39.916
2014    9       20     7   7    6.35   480.7    5.9      39.903
2014    9       20     7  13    6.35   480.6    5.9      39.891
2014    9       20     7  18    6.36   480.6    5.9      39.878
2014    9       20     7  23    6.36   480.5    5.9      39.866
2014    9       20     7  28    6.36   480.4    5.9      39.854
2014    9       20     7  34    6.36   480.4    5.9      39.843
2014    9       20     7  39    6.36   480.3    5.9      39.831
2014    9       20     7  44    6.37   480.3    5.9      39.820
2014    9       20     7  49    6.37   480.2    5.9      39.810
2014    9       20     7  54    6.37   480.2    5.9      39.799
2014    9       20     8   0    6.37   480.1    5.9      39.789
2014    9       20     8   5    6.37   480.0    5.9      39.780
2014    9       20     8  10    6.38   480.0    5.9      39.770
2014    9       20     8  15    6.38   479.9    5.9      39.762
2014    9       20     8  21    6.38   479.9    5.9      39.754
2014    9       20     8  26    6.38   479.8    5.9      39.746
2014    9       20     8  31    6.39   479.8    5.9      39.739
2014    9       20     8  36    6.39   479.7    5.9      39.732
2014    9       20     8  42    6.39   479.7    5.9      39.726
2014    9       20     8  47    6.40   479.6    5.9      39.721
2014    9       20     8  52    6.40   479.6    5.9      39.716
2014    9       20     8  57    6.40   479.5    5.9      39.712
2014    9       20     9   3    6.40   479.5    6.0      39.708
2014    9       20     9   8    6.41   479.4    6.0      39.706
2014    9       20     9  13    6.41   479.4    6.0      39.704
2014    9       20     9  18    6.41   479.3    6.0      39.702
2014    9       20     9  24    6.42   479.3    6.0      39.702
2014    9       20     9  29    6.42   479.3    6.0      39.703
2014    9       20     9  34    6.43   479.2    6.0      39.704
2014    9       20     9  39    6.43   479.2    6.0      39.707
2014    9       20     9  45    6.43   479.2    6.0      39.710
2014    9       20     9  50    6.44   479.1    6.0      39.715
2014    9       20     9  55    6.44   479.1    6.0      39.721
2014    9       20    10   0    6.44   479.1    6.0      39.728
2014    9       20    10   6    6.45   479.0    6.0      39.737
2014    9       20    10  11    6.45   479.0    6.0      39.747
2014    9       20    10  16    6.46   479.0    6.0      39.758
2014    9       20    10  21    6.46   479.0    6.1      39.771
2014    9       20    10  26    6.47   478.9    6.1      39.786
2014    9       20    10  32    6.47   478.9    6.1      39.803
2014    9       20    10  37    6.47   478.9    6.1      39.823
2014    9       20    10  42    6.48   478.9    6.1      39.844
2014    9       20    10  47    6.48   478.9    6.1      39.867
2014    9       20    10  53    6.49   478.9    6.1      39.893
2014    9       20    10  58    6.49   478.9    6.1      39.921
2014    9       20    11   3    6.50   478.9    6.2      39.952
2014    9       20    11   8    6.50   478.9    6.2      39.986
2014    9       20    11  14    6.51   478.9    6.2      40.023
2014    9       20    11  19    6.51   479.0    6.2      40.063
2014    9       20    11  24    6.52   479.0    6.2      40.106
2014    9       20    11  29    6.52   479.0    6.2      40.151
2014    9       20    11  35    6.53   479.1    6.2      40.197
2014    9       20    11  40    6.53   479.1    6.3      40.243
2014    9       20    11  45    6.54   479.2    6.3      40.291
2014    9       20    11  50    6.54   479.3    6.3      40.341
2014    9       20    11  56    6.55   479.3    6.3      40.391
2014    9       20    12   1    6.55   479.4    6.3      40.442
2014    9       20    12   6    6.56   479.5    6.3      40.493
2014    9       20    12  11    6.56   479.6    6.3      40.544
2014    9       20    12  17    6.57   479.7    6.4      40.596
2014    9       20    12  22    6.57   479.7    6.4      40.645
2014    9       20    12  27    6.57   479.8    6.4      40.693
2014    9       20    12  32    6.58   479.9    6.4      40.739
2014    9       20    12  38    6.58   480.0    6.4      40.784
2014    9       20    12  43    6.59   480.1    6.4      40.828
2014    9       20    12  48    6.59   480.2    6.4      40.871
2014    9       20    12  53    6.59   480.3    6.4      40.912
2014    9       20    12  58    6.60   480.3    6.4      40.953
2014    9       20    13   4    6.60   480.4    6.4      40.992
2014    9       20    13   9    6.61   480.5    6.5      41.029
2014    9       20    13  14    6.61   480.6    6.5      41.065
2014    9       20    13  19    6.61   480.6    6.5      41.100
2014    9       20    13  25    6.62   480.7    6.5      41.133
2014    9       20    13  30    6.62   480.8    6.5      41.166
2014    9       20    13  35    6.63   480.9    6.5      41.197
2014    9       20    13  40    6.63   481.0    6.5      41.227
2014    9       20    13  46    6.63   481.0    6.5      41.257
2014    9       20    13  51    6.64   481.1    6.5      41.285
2014    9       20    13  56    6.64   481.2    6.5      41.313
2014    9       20    14   1    6.64   481.3    6.5      41.340
2014    9       20    14   7    6.65   481.4    6.5      41.366
2014    9       20    14  12    6.65   481.4    6.5      41.391
2014    9       20    14  17    6.65   481.5    6.5      41.416
2014    9       20    14  22    6.66   481.6    6.5      41.440
2014    9       20    14  28    6.66   481.7    6.5      41.462
2014    9       20    14  33    6.67   481.8    6.5      41.485
2014    9       20    14  38    6.67   481.9    6.5      41.506
2014    9       20    14  43    6.67   482.0    6.5      41.527
2014    9       20    14  49    6.68   482.1    6.5      41.547
2014    9       20    14  54    6.68   482.1    6.5      41.566
2014    9       20    14  59    6.68   482.2    6.5      41.584
2014    9       20    15   4    6.69   482.3    6.5      41.602
2014    9       20    15  10    6.69   482.4    6.5      41.619
2014    9       20    15  15    6.70   482.5    6.5      41.636
2014    9       20    15  20    6.70   482.6    6.5      41.652
2014    9       20    15  25    6.70   482.7    6.5      41.668
2014    9       20    15  31    6.71   482.8    6.5      41.683
2014    9       20    15  36    6.71   482.9    6.5      41.699
2014    9       20    15  41    6.72   483.0    6.5      41.713
2014    9       20    15  46    6.72   483.1    6.5      41.728
2014    9       20    15  51    6.72   483.2    6.5      41.742
2014    9       20    15  57    6.73   483.3    6.5      41.757
2014    9       20    16   2    6.73   483.4    6.5      41.771
2014    9       20    16   7    6.74   483.5    6.5      41.785
2014    9       20    16  12    6.74   483.6    6.5      41.800
2014    9       20    16  18    6.74   483.7    6.5      41.815
2014    9       20    16  23    6.75   483.8    6.5      41.829
2014    9       20    16  28    6.75   483.9    6.5      41.844
2014    9       20    16  33    6.76   484.0    6.5      41.860
2014    9       20    16  39    6.76   484.1    6.5      41.875
2014    9       20    16  44    6.76   484.2    6.5      41.892
2014    9       20    16  49    6.77   484.3    6.5      41.908
2014    9       20    16  54    6.77   484.4    6.5      41.925
2014    9       20    17   0    6.78   484.5    6.5      41.943
2014    9       20    17   5    6.78   484.6    6.5      41.961
2014    9       20    17  10    6.78   484.7    6.5      41.980
2014    9       20    17  15    6.79   484.8    6.5      41.999
2014    9       20    17  21    6.79   484.9    6.5      42.019
2014    9       20    17  26    6.80   485.0    6.5      42.040
2014    9       20    17  31    6.80   485.1    6.5      42.061
2014    9       20    17  36    6.81   485.3    6.5      42.083
2014    9       20    17  42    6.81   485.4    6.5      42.106
2014    9       20    17  47    6.81   485.5    6.6      42.130
2014    9       20    17  52    6.82   485.6    6.6      42.154
2014    9       20    17  57    6.82   485.7    6.6      42.179
2014    9       20    18   2    6.83   485.8    6.6      42.206
2014    9       20    18   8    6.83   485.9    6.6      42.233
2014    9       20    18  13    6.84   486.1    6.6      42.261
2014    9       20    18  18    6.84   486.2    6.6      42.289
2014    9       20    18  23    6.84   486.3    6.6      42.319
2014    9       20    18  29    6.85   486.4    6.6      42.350
2014    9       20    18  34    6.85   486.5    6.6      42.383
2014    9       20    18  39    6.86   486.6    6.6      42.417
2014    9       20    18  44    6.86   486.8    6.6      42.452
2014    9       20    18  50    6.86   486.9    6.6      42.488
2014    9       20    18  55    6.87   487.0    6.6      42.525
2014    9       20    19   0    6.87   487.1    6.6      42.563
2014    9       20    19   5    6.88   487.2    6.6      42.604
2014    9       20    19  11    6.88   487.4    6.6      42.646
2014    9       20    19  16    6.89   487.5    6.6      42.690
2014    9       20    19  21    6.89   487.6    6.6      42.736
2014    9       20    19  26    6.89   487.8    6.6      42.783
2014    9       20    19  32    6.90   487.9    6.6      42.832
2014    9       20    19  37    6.90   488.0    6.6      42.882
2014    9       20    19  42    6.91   488.2    6.7      42.932
2014    9       20    19  47    6.91   488.3    6.7      42.982
2014    9       20    19  53    6.91   488.4    6.7      43.034
2014    9       20    19  58    6.92   488.6    6.7      43.086
2014    9       20    20   3    6.92   488.7    6.7      43.139
2014    9       20    20   8    6.93   488.8    6.7      43.193
2014    9       20    20  14    6.93   489.0    6.7      43.248
2014    9       20    20  19    6.93   489.1    6.7      43.305
2014    9       20    20  24    6.94   489.2    6.7      43.364
2014    9       20    20  29    6.94   489.4    6.7      43.423
2014    9       20    20  35    6.95   489.5    6.7      43.484
2014    9       20    20  40    6.95   489.7    6.7      43.545
2014    9       20    20  45    6.96   489.8    6.8      43.607
2014    9       20    20  50    6.96   490.0    6.8      43.672
2014    9       20    20  56    6.96   490.1    6.8      43.740
2014    9       20    21   1    6.97   490.3    6.8      43.809
2014    9       20    21   6    6.97   490.4    6.8      43.880
2014    9       20    21  11    6.98   490.6    6.8      43.951
2014    9       20    21  16    6.98   490.8    6.8      44.024
2014    9       20    21  22    6.98   491.0    6.8      44.099
2014    9       20    21  27    6.99   491.2    6.8      44.173
2014    9       20    21  32    6.99   491.4    6.8      44.246
2014    9       20    21  37    7.00   491.6    6.8      44.318
2014    9       20    21  43    7.00   491.8    6.9      44.388
2014    9       20    21  48    7.00   492.0    6.9      44.457
2014    9       20    21  53    7.01   492.2    6.9      44.524
2014    9       20    21  58    7.01   492.4    6.9      44.589
2014    9       20    22   4    7.01   492.6    6.9      44.650
2014    9       20    22   9    7.02   492.8    6.9      44.709
2014    9       20    22  14    7.02   493.1    6.9      44.766
2014    9       20    22  19    7.02   493.3    6.9      44.820
2014    9       20    22  25    7.03   493.5    6.9      44.872
2014    9       20    22  30    7.03   493.7    6.9      44.922
2014    9       20    22  35    7.03   493.9    6.9      44.969
2014    9       20    22  40    7.03   494.2    6.9      45.015
2014    9       20    22  46    7.04   494.4    6.9      45.059
2014    9       20    22  51    7.04   494.6    6.9      45.101
2014    9       20    22  56    7.04   494.8    6.9      45.142
2014    9       20    23   1    7.04   495.0    6.8      45.181
2014    9       20    23   7    7.05   495.3    6.8      45.219
2014    9       20    23  12    7.05   495.5    6.8      45.256
2014    9       20    23  17    7.05   495.7    6.8      45.291
2014    9       20    23  22    7.05   495.9    6.8      45.326
2014    9       20    23  28    7.06   496.2    6.8      45.360
2014    9       20    23  33    7.06   496.4    6.8      45.393
2014    9       20    23  38    7.06   496.6    6.8      45.425
2014    9       20    23  43    7.06   496.8    6.8      45.456
2014    9       20    23  48    7.07   497.1    6.8      45.487
2014    9       20    23  54    7.07   497.3    6.8      45.518
2014    9       20    23  59    7.07   497.5    6.8      45.547
2014    9       21     0   4    7.07   497.7    6.8      45.577
2014    9       21     0   9    7.08   498.0    6.8      45.606
2014    9       21     0  15    7.08   498.2    6.8      45.635
2014    9       21     0  20    7.08   498.4    6.8      45.663
2014    9       21     0  25    7.08   498.6    6.7      45.691
2014    9       21     0  30    7.09   498.9    6.7      45.719
2014    9       21     0  36    7.09   499.1    6.7      45.747
2014    9       21     0  41    7.09   499.3    6.7      45.775
2014    9       21     0  46    7.09   499.5    6.7      45.803
2014    9       21     0  51    7.10   499.8    6.7      45.830
2014    9       21     0  57    7.10   500.0    6.7      45.858
2014    9       21     1   2    7.10   500.2    6.7      45.886
2014    9       21     1   7    7.10   500.4    6.7      45.914
2014    9       21     1  12    7.10   500.6    6.7      45.943
2014    9       21     1  18    7.11   500.9    6.7      45.971
2014    9       21     1  23    7.11   501.1    6.7      46.001
2014    9       21     1  28    7.11   501.3    6.7      46.031
2014    9       21     1  33    7.11   501.5    6.7      46.063
2014    9       21     1  39    7.12   501.7    6.7      46.095
2014    9       21     1  44    7.12   501.9    6.7      46.127
2014    9       21     1  49    7.12   502.1    6.7      46.162
2014    9       21     1  54    7.12   502.4    6.6      46.199
2014    9       21     1  59    7.13   502.6    6.6      46.239
2014    9       21     2   5    7.13   502.8    6.6      46.280
2014    9       21     2  10    7.13   503.0    6.6      46.324
2014    9       21     2  15    7.13   503.2    6.6      46.369
2014    9       21     2  20    7.14   503.4    6.6      46.417
2014    9       21     2  26    7.14   503.7    6.6      46.468
2014    9       21     2  31    7.14   503.9    6.6      46.523
2014    9       21     2  36    7.15   504.1    6.6      46.580
2014    9       21     2  41    7.15   504.4    6.6      46.640
2014    9       21     2  47    7.15   504.6    6.6      46.703
2014    9       21     2  52    7.15   504.9    6.6      46.768
2014    9       21     2  57    7.16   505.2    6.6      46.834
2014    9       21     3   2    7.16   505.4    6.6      46.900
2014    9       21     3   8    7.16   505.7    6.6      46.965
2014    9       21     3  13    7.17   506.0    6.6      47.027
2014    9       21     3  18    7.17   506.2    6.6      47.089
2014    9       21     3  23    7.17   506.5    6.6      47.151
2014    9       21     3  29    7.18   506.7    6.6      47.212
2014    9       21     3  34    7.18   507.0    6.6      47.273
2014    9       21     3  39    7.18   507.3    6.6      47.334
2014    9       21     3  44    7.18   507.5    6.6      47.395
2014    9       21     3  50    7.19   507.8    6.6      47.455
2014    9       21     3  55    7.19   508.0    6.6      47.515
2014    9       21     4   0    7.19   508.3    6.6      47.577
2014    9       21     4   5    7.19   508.5    6.6      47.640
2014    9       21     4  11    7.19   508.8    6.6      47.704
2014    9       21     4  16    7.20   509.0    6.6      47.768
2014    9       21     4  21    7.20   509.3    6.6      47.833
2014    9       21     4  26    7.20   509.6    6.7      47.900
2014    9       21     4  32    7.20   509.8    6.7      47.968
2014    9       21     4  37    7.21   510.1    6.7      48.034
2014    9       21     4  42    7.21   510.4    6.7      48.100
2014    9       21     4  47    7.21   510.6    6.7      48.164
2014    9       21     4  52    7.21   510.9    6.6      48.227
2014    9       21     4  58    7.21   511.2    6.6      48.290
2014    9       21     5   3    7.21   511.5    6.6      48.351
2014    9       21     5   8    7.22   511.7    6.6      48.410
2014    9       21     5  13    7.22   512.0    6.6      48.467
2014    9       21     5  19    7.22   512.3    6.6      48.522
2014    9       21     5  24    7.22   512.6    6.6      48.575
2014    9       21     5  29    7.22   512.9    6.6      48.627
2014    9       21     5  34    7.22   513.2    6.6      48.678
2014    9       21     5  40    7.22   513.5    6.6      48.727
2014    9       21     5  45    7.22   513.8    6.6      48.776
2014    9       21     5  50    7.22   514.1    6.6      48.823
2014    9       21     5  55    7.22   514.4    6.6      48.869
2014    9       21     6   1    7.22   514.7    6.6      48.915
2014    9       21     6   6    7.22   515.0    6.6      48.960
2014    9       21     6  11    7.23   515.3    6.6      49.004
2014    9       21     6  16    7.23   515.6    6.6      49.047
2014    9       21     6  22    7.23   516.0    6.6      49.089
2014    9       21     6  27    7.23   516.3    6.5      49.131
2014    9       21     6  32    7.23   516.6    6.5      49.173
2014    9       21     6  37    7.23   516.9    6.5      49.213
2014    9       21     6  43    7.23   517.2    6.5      49.254
2014    9       21     6  48    7.23   517.5    6.5      49.294
2014    9       21     6  53    7.23   517.8    6.5      49.334
2014    9       21     6  58    7.23   518.2    6.5      49.374
2014    9       21     7   4    7.23   518.5    6.5      49.413
2014    9       21     7   9    7.23   518.8    6.5      49.451
2014    9       21     7  14    7.23   519.1    6.5      49.490
2014    9       21     7  19    7.23   519.5    6.4      49.527
2014    9       21     7  25    7.23   519.8    6.4      49.564
2014    9       21     7  30    7.23   520.1    6.4      49.600
2014    9       21     7  35    7.23   520.4    6.4      49.636
2014    9       21     7  40    7.23   520.7    6.4      49.670
2014    9       21     7  45    7.23   521.0    6.4      49.705
2014    9       21     7  51    7.22   521.3    6.4      49.739
2014    9       21     7  56    7.22   521.7    6.4      49.772
2014    9       21     8   1    7.22   522.0    6.4      49.806
2014    9       21     8   6    7.22   522.3    6.4      49.839
2014    9       21     8  12    7.22   522.6    6.3      49.872
2014    9       21     8  17    7.22   522.9    6.3      49.905
2014    9       21     8  22    7.22   523.2    6.3      49.938
2014    9       21     8  27    7.22   523.5    6.3      49.971
2014    9       21     8  33    7.22   523.8    6.3      50.005
2014    9       21     8  38    7.22   524.1    6.3      50.039
2014    9       21     8  43    7.22   524.4    6.3      50.073
2014    9       21     8  48    7.21   524.7    6.3      50.109
2014    9       21     8  54    7.21   525.0    6.3      50.145
2014    9       21     8  59    7.21   525.3    6.3      50.181
2014    9       21     9   4    7.21   525.6    6.3      50.219
2014    9       21     9   9    7.21   525.9    6.2      50.259
2014    9       21     9  15    7.21   526.2    6.2      50.301
2014    9       21     9  20    7.21   526.5    6.2      50.345
2014    9       21     9  25    7.21   526.8    6.2      50.391
2014    9       21     9  30    7.21   527.0    6.2      50.438
2014    9       21     9  36    7.21   527.3    6.2      50.486
2014    9       21     9  41    7.21   527.6    6.2      50.538
2014    9       21     9  46    7.21   527.9    6.2      50.593
2014    9       21     9  51    7.21   528.2    6.2      50.650
2014    9       21     9  56    7.20   528.6    6.2      50.709
2014    9       21    10   2    7.20   528.9    6.2      50.770
2014    9       21    10   7    7.20   529.3    6.2      50.833
2014    9       21    10  12    7.20   529.6    6.2      50.896
2014    9       21    10  17    7.20   530.0    6.2      50.956
2014    9       21    10  23    7.20   530.3    6.2      51.014
2014    9       21    10  28    7.20   530.7    6.1      51.068
2014    9       21    10  33    7.20   531.1    6.1      51.120
2014    9       21    10  38    7.20   531.4    6.1      51.170
2014    9       21    10  44    7.19   531.8    6.1      51.217
2014    9       21    10  49    7.19   532.2    6.1      51.260
2014    9       21    10  54    7.19   532.5    6.1      51.302
2014    9       21    10  59    7.19   532.9    6.1      51.340
2014    9       21    11   5    7.19   533.3    6.1      51.377
2014    9       21    11  10    7.18   533.7    6.1      51.411
2014    9       21    11  15    7.18   534.0    6.1      51.444
2014    9       21    11  20    7.18   534.4    6.0      51.475
2014    9       21    11  26    7.18   534.8    6.0      51.504
2014    9       21    11  31    7.17   535.2    6.0      51.532
2014    9       21    11  36    7.17   535.6    6.0      51.557
2014    9       21    11  41    7.17   536.0    6.0      51.581
2014    9       21    11  47    7.17   536.3    6.0      51.604
2014    9       21    11  52    7.16   536.7    6.0      51.626
2014    9       21    11  57    7.16   537.1    5.9      51.646
2014    9       21    12   2    7.16   537.5    5.9      51.663
2014    9       21    12   8    7.15   537.8    5.9      51.678
2014    9       21    12  13    7.15   538.2    5.9      51.690
2014    9       21    12  18    7.15   538.6    5.9      51.702
2014    9       21    12  23    7.14   538.9    5.9      51.710
2014    9       21    12  29    7.14   539.2    5.8      51.715
2014    9       21    12  34    7.13   539.6    5.8      51.716
2014    9       21    12  39    7.13   539.9    5.8      51.715
2014    9       21    12  44    7.12   540.2    5.8      51.713
2014    9       21    12  49    7.12   540.5    5.8      51.711
2014    9       21    12  55    7.11   540.8    5.8      51.706
2014    9       21    13   0    7.11   541.1    5.7      51.702
2014    9       21    13   5    7.11   541.4    5.7      51.700
2014    9       21    13  10    7.10   541.7    5.7      51.699
2014    9       21    13  16    7.10   542.0    5.7      51.699
2014    9       21    13  21    7.09   542.3    5.7      51.700
2014    9       21    13  26    7.09   542.6    5.7      51.703
2014    9       21    13  31    7.08   542.9    5.6      51.705
2014    9       21    13  37    7.08   543.2    5.6      51.708
2014    9       21    13  42    7.08   543.5    5.6      51.712
2014    9       21    13  47    7.07   543.8    5.6      51.716
2014    9       21    13  52    7.07   544.1    5.6      51.721
2014    9       21    13  58    7.06   544.4    5.6      51.725
2014    9       21    14   3    7.06   544.7    5.6      51.730
2014    9       21    14   8    7.05   545.0    5.5      51.734
2014    9       21    14  13    7.05   545.3    5.5      51.737
2014    9       21    14  19    7.04   545.6    5.5      51.739
2014    9       21    14  24    7.04   545.9    5.5      51.741
2014    9       21    14  29    7.03   546.2    5.5      51.740
2014    9       21    14  34    7.03   546.5    5.5      51.739
2014    9       21    14  40    7.02   546.8    5.5      51.736
2014    9       21    14  45    7.02   547.0    5.4      51.731
2014    9       21    14  50    7.01   547.3    5.4      51.726
2014    9       21    14  55    7.01   547.6    5.4      51.720
2014    9       21    15   1    7.00   547.9    5.4      51.713
2014    9       21    15   6    6.99   548.1    5.4      51.705
2014    9       21    15  11    6.99   548.4    5.4      51.697
2014    9       21    15  16    6.98   548.7    5.4      51.689
2014    9       21    15  21    6.98   548.9    5.3      51.679
2014    9       21    15  27    6.97   549.2    5.3      51.670
2014    9       21    15  32    6.96   549.4    5.3      51.660
2014    9       21    15  37    6.96   549.7    5.3      51.650
2014    9       21    15  42    6.95   549.9    5.3      51.640
2014    9       21    15  48    6.95   550.2    5.3      51.630
2014    9       21    15  53    6.94   550.4    5.3      51.620
2014    9       21    15  58    6.93   550.7    5.3      51.610
2014    9       21    16   3    6.93   550.9    5.2      51.599
2014    9       21    16   9    6.92   551.2    5.2      51.589
2014    9       21    16  14    6.92   551.4    5.2      51.578
2014    9       21    16  19    6.91   551.6    5.2      51.568
2014    9       21    16  24    6.91   551.9    5.2      51.557
2014    9       21    16  30    6.90   552.1    5.2      51.546
2014    9       21    16  35    6.89   552.3    5.2      51.535
2014    9       21    16  40    6.89   552.5    5.1      51.525
2014    9       21    16  45    6.88   552.7    5.1      51.514
2014    9       21    16  51    6.88   552.9    5.1      51.503
2014    9       21    16  56    6.87   553.1    5.1      51.492
2014    9       21    17   1    6.86   553.4    5.1      51.480
2014    9       21    17   6    6.86   553.6    5.1      51.468
2014    9       21    17  12    6.85   553.8    5.1      51.456
2014    9       21    17  17    6.85   554.0    5.1      51.444
2014    9       21    17  22    6.84   554.2    5.1      51.430
2014    9       21    17  27    6.83   554.4    5.0      51.416
2014    9       21    17  33    6.83   554.6    5.0      51.401
2014    9       21    17  38    6.82   554.8    5.0      51.385
2014    9       21    17  43    6.82   555.0    5.0      51.368
2014    9       21    17  48    6.81   555.2    5.0      51.351
2014    9       21    17  53    6.80   555.4    5.0      51.332
2014    9       21    17  59    6.80   555.6    5.0      51.312
2014    9       21    18   4    6.79   555.8    5.0      51.291
2014    9       21    18   9    6.79   556.0    5.0      51.270
2014    9       21    18  14    6.78   556.2    4.9      51.247
2014    9       21    18  20    6.77   556.4    4.9      51.223
2014    9       21    18  25    6.77   556.6    4.9      51.197
2014    9       21    18  30    6.76   556.9    4.9      51.172
2014    9       21    18  35    6.76   557.1    4.9      51.145
2014    9       21    18  41    6.75   557.3    4.9      51.117
2014    9       21    18  46    6.74   557.5    4.9      51.087
2014    9       21    18  51    6.74   557.8    4.9      51.056
2014    9       21    18  56    6.73   558.0    4.8      51.024
2014    9       21    19   2    6.72   558.2    4.8      50.992
2014    9       21    19   7    6.72   558.5    4.8      50.958
2014    9       21    19  12    6.71   558.7    4.8      50.922
2014    9       21    19  17    6.70   558.9    4.8      50.882
2014    9       21    19  23    6.69   559.1    4.8      50.839
2014    9       21    19  28    6.69   559.3    4.8      50.794
2014    9       21    19  33    6.68   559.5    4.8      50.747
2014    9       21    19  38    6.67   559.7    4.7      50.695
2014    9       21    19  44    6.66   559.8    4.7      50.638
2014    9       21    19  49    6.66   560.0    4.7      50.577
2014    9       21    19  54    6.65   560.1    4.7      50.513
2014    9       21    19  59    6.64   560.2    4.7      50.447
2014    9       21    20   5    6.63   560.2    4.7      50.381
2014    9       21    20  10    6.63   560.3    4.7      50.314
2014    9       21    20  15    6.62   560.4    4.7      50.250
2014    9       21    20  20    6.61   560.4    4.6      50.190
2014    9       21    20  26    6.60   560.5    4.6      50.133
2014    9       21    20  31    6.60   560.5    4.6      50.079
2014    9       21    20  36    6.59   560.6    4.6      50.028
2014    9       21    20  41    6.58   560.7    4.6      49.980
2014    9       21    20  46    6.58   560.7    4.6      49.935
2014    9       21    20  52    6.57   560.8    4.6      49.893
2014    9       21    20  57    6.56   560.9    4.6      49.853
2014    9       21    21   2    6.56   561.0    4.6      49.814
2014    9       21    21   7    6.55   561.1    4.6      49.777
2014    9       21    21  13    6.54   561.1    4.5      49.742
2014    9       21    21  18    6.54   561.2    4.5      49.707
2014    9       21    21  23    6.53   561.3    4.5      49.671
2014    9       21    21  28    6.52   561.4    4.5      49.634
2014    9       21    21  34    6.52   561.5    4.5      49.596
2014    9       21    21  39    6.51   561.6    4.5      49.558
2014    9       21    21  44    6.50   561.7    4.5      49.518
2014    9       21    21  49    6.50   561.8    4.5      49.476
2014    9       21    21  55    6.49   561.9    4.5      49.434
2014    9       21    22   0    6.48   562.0    4.5      49.391
2014    9       21    22   5    6.48   562.0    4.5      49.346
2014    9       21    22  10    6.47   562.1    4.5      49.300
2014    9       21    22  16    6.46   562.2    4.4      49.252
2014    9       21    22  21    6.46   562.2    4.4      49.203
2014    9       21    22  26    6.45   562.3    4.4      49.154
2014    9       21    22  31    6.44   562.4    4.4      49.103
2014    9       21    22  37    6.44   562.4    4.4      49.052
2014    9       21    22  42    6.43   562.5    4.4      49.001
2014    9       21    22  47    6.42   562.5    4.4      48.949
2014    9       21    22  52    6.42   562.6    4.4      48.897
2014    9       21    22  57    6.41   562.6    4.4      48.845
2014    9       21    23   3    6.40   562.6    4.4      48.793
2014    9       21    23   8    6.40   562.7    4.4      48.740
2014    9       21    23  13    6.39   562.7    4.3      48.688
2014    9       21    23  18    6.38   562.7    4.3      48.635
2014    9       21    23  24    6.37   562.7    4.3      48.583
2014    9       21    23  29    6.37   562.8    4.3      48.531
2014    9       21    23  34    6.36   562.8    4.3      48.478
2014    9       21    23  39    6.35   562.8    4.3      48.426
2014    9       21    23  45    6.35   562.8    4.3      48.374
2014    9       21    23  50    6.34   562.8    4.3      48.322
2014    9       21    23  55    6.33   562.8    4.3      48.271
2014    9       22     0   0    6.33   562.8    4.3      48.219
2014    9       22     0   6    6.32   562.8    4.3      48.168
2014    9       22     0  11    6.32   562.8    4.3      48.117
2014    9       22     0  16    6.31   562.8    4.2      48.066
2014    9       22     0  21    6.30   562.8    4.2      48.015
2014    9       22     0  27    6.30   562.8    4.2      47.964
2014    9       22     0  32    6.29   562.8    4.2      47.914
2014    9       22     0  37    6.28   562.8    4.2      47.864
2014    9       22     0  42    6.28   562.8    4.2      47.814
2014    9       22     0  48    6.27   562.7    4.2      47.764
2014    9       22     0  53    6.26   562.7    4.2      47.715
2014    9       22     0  58    6.26   562.7    4.2      47.665
2014    9       22     1   3    6.25   562.7    4.2      47.616
2014    9       22     1   9    6.24   562.7    4.2      47.566
2014    9       22     1  14    6.24   562.7    4.2      47.517
2014    9       22     1  19    6.23   562.6    4.2      47.468
2014    9       22     1  24    6.23   562.6    4.2      47.419
2014    9       22     1  30    6.22   562.6    4.2      47.370
2014    9       22     1  35    6.21   562.6    4.1      47.321
2014    9       22     1  40    6.21   562.6    4.1      47.271
2014    9       22     1  45    6.20   562.6    4.1      47.222
2014    9       22     1  50    6.19   562.5    4.1      47.172
2014    9       22     1  56    6.19   562.5    4.1      47.123
2014    9       22     2   1    6.18   562.5    4.1      47.073
2014    9       22     2   6    6.17   562.5    4.1      47.023
2014    9       22     2  11    6.17   562.4    4.1      46.972
2014    9       22     2  17    6.16   562.4    4.1      46.921
2014    9       22     2  22    6.16   562.3    4.1      46.870
2014    9       22     2  27    6.15   562.3    4.1      46.819
2014    9       22     2  32    6.14   562.2    4.1      46.768
2014    9       22     2  38    6.14   562.2    4.1      46.717
2014    9       22     2  43    6.13   562.1    4.1      46.666
2014    9       22     2  48    6.13   562.0    4.1      46.616
2014    9       22     2  53    6.12   561.9    4.1      46.567
2014    9       22     2  59    6.11   561.8    4.1      46.518
2014    9       22     3   4    6.11   561.7    4.1      46.470
2014    9       22     3   9    6.10   561.6    4.1      46.424
2014    9       22     3  14    6.10   561.5    4.1      46.379
2014    9       22     3  20    6.09   561.4    4.1      46.335
2014    9       22     3  25    6.09   561.3    4.1      46.293
2014    9       22     3  30    6.08   561.2    4.1      46.254
2014    9       22     3  35    6.08   561.1    4.1      46.216
2014    9       22     3  41    6.07   561.0    4.1      46.181
2014    9       22     3  46    6.07   560.9    4.1      46.146
2014    9       22     3  51    6.06   560.8    4.1      46.114
2014    9       22     3  56    6.06   560.8    4.1      46.084
2014    9       22     4   2    6.05   560.7    4.1      46.057
2014    9       22     4   7    6.05   560.6    4.1      46.029
2014    9       22     4  12    6.04   560.5    4.1      46.002
2014    9       22     4  17    6.04   560.4    4.1      45.975
2014    9       22     4  23    6.04   560.4    4.0      45.948
2014    9       22     4  28    6.03   560.3    4.0      45.921
2014    9       22     4  33    6.03   560.2    4.0      45.892
2014    9       22     4  38    6.02   560.2    4.0      45.862
2014    9       22     4  43    6.02   560.1    4.0      45.831
2014    9       22     4  49    6.01   560.0    4.0      45.798
2014    9       22     4  54    6.01   560.0    4.0      45.764
2014    9       22     4  59    6.00   559.9    4.0      45.730
2014    9       22     5   4    6.00   559.8    4.0      45.694
2014    9       22     5  10    6.00   559.8    4.0      45.658
2014    9       22     5  15    5.99   559.7    4.0      45.621
2014    9       22     5  20    5.99   559.6    4.0      45.583
2014    9       22     5  25    5.98   559.5    4.0      45.544
2014    9       22     5  31    5.98   559.5    4.0      45.505
2014    9       22     5  36    5.97   559.4    4.0      45.466
2014    9       22     5  41    5.97   559.3    4.0      45.426
2014    9       22     5  46    5.96   559.2    4.0      45.386
2014    9       22     5  52    5.96   559.2    4.0      45.345
2014    9       22     5  57    5.95   559.1    4.0      45.304
2014    9       22     6   2    5.95   559.0    4.0      45.264
2014    9       22     6   7    5.95   558.9    4.0      45.222
2014    9       22     6  13    5.94   558.8    4.0      45.181
2014    9       22     6  18    5.94   558.8    4.0      45.140
2014    9       22     6  23    5.93   558.7    4.0      45.099
2014    9       22     6  28    5.93   558.6    4.0      45.057
2014    9       22     6  33    5.92   558.5    4.0      45.015
2014    9       22     6  39    5.92   558.4    4.0      44.974
2014    9       22     6  44    5.91   558.4    4.0      44.932
2014    9       22     6  49    5.91   558.3    4.0      44.890
2014    9       22     6  54    5.90   558.2    4.0      44.848
2014    9       22     7   0    5.90   558.1    4.0      44.806
2014    9       22     7   5    5.90   558.0    4.0      44.764
2014    9       22     7  10    5.89   557.9    4.0      44.722
2014    9       22     7  15    5.89   557.8    4.0      44.681
2014    9       22     7  21    5.88   557.7    4.0      44.639
2014    9       22     7  26    5.88   557.7    3.9      44.597
2014    9       22     7  31    5.87   557.6    3.9      44.555
2014    9       22     7  36    5.87   557.5    3.9      44.513
2014    9       22     7  42    5.86   557.4    3.9      44.472
2014    9       22     7  47    5.86   557.3    3.9      44.430
2014    9       22     7  52    5.86   557.2    3.9      44.389
2014    9       22     7  57    5.85   557.1    3.9      44.348
2014    9       22     8   3    5.85   557.0    3.9      44.307
2014    9       22     8   8    5.84   556.9    3.9      44.267
2014    9       22     8  13    5.84   556.8    3.9      44.227
2014    9       22     8  18    5.83   556.7    3.9      44.187
2014    9       22     8  24    5.83   556.6    3.9      44.148
2014    9       22     8  29    5.82   556.5    3.9      44.109
2014    9       22     8  34    5.82   556.4    3.9      44.071
2014    9       22     8  39    5.82   556.3    3.9      44.033
2014    9       22     8  45    5.81   556.2    3.9      43.995
2014    9       22     8  50    5.81   556.1    3.9      43.958
2014    9       22     8  55    5.80   556.0    3.9      43.922
2014    9       22     9   0    5.80   555.8    3.9      43.886
2014    9       22     9   6    5.80   555.7    3.9      43.851
2014    9       22     9  11    5.79   555.6    3.9      43.816
2014    9       22     9  16    5.79   555.5    3.9      43.782
2014    9       22     9  21    5.78   555.4    3.9      43.748
2014    9       22     9  27    5.78   555.3    3.9      43.715
2014    9       22     9  32    5.78   555.2    3.9      43.682
2014    9       22     9  37    5.77   555.1    3.9      43.649
2014    9       22     9  42    5.77   555.0    3.9      43.616
2014    9       22     9  47    5.76   554.8    3.9      43.584
2014    9       22     9  53    5.76   554.7    3.9      43.552
2014    9       22     9  58    5.76   554.6    3.9      43.520
2014    9       22    10   3    5.75   554.5    3.9      43.488
2014    9       22    10   8    5.75   554.4    3.9      43.455
2014    9       22    10  14    5.75   554.2    3.9      43.423
2014    9       22    10  19    5.74   554.1    3.9      43.391
2014    9       22    10  24    5.74   554.0    3.9      43.358
2014    9       22    10  29    5.74   553.9    3.9      43.325
2014    9       22    10  35    5.73   553.7    3.9      43.292
2014    9       22    10  40    5.73   553.6    3.9      43.259
2014    9       22    10  45    5.73   553.5    3.9      43.227
2014    9       22    10  50    5.72   553.4    3.9      43.194
2014    9       22    10  56    5.72   553.2    3.9      43.161
2014    9       22    11   1    5.72   553.1    3.9      43.129
2014    9       22    11   6    5.71   553.0    3.9      43.096
2014    9       22    11  11    5.71   552.9    3.9      43.063
2014    9       22    11  17    5.71   552.7    3.9      43.030
2014    9       22    11  22    5.70   552.6    3.9      42.997
2014    9       22    11  27    5.70   552.5    3.9      42.964
2014    9       22    11  32    5.70   552.3    3.9      42.930
2014    9       22    11  38    5.69   552.2    3.9      42.897
2014    9       22    11  43    5.69   552.1    3.9      42.862
2014    9       22    11  48    5.69   551.9    3.9      42.829
2014    9       22    11  53    5.68   551.8    3.9      42.794
2014    9       22    11  59    5.68   551.7    3.9      42.760
2014    9       22    12   4    5.68   551.5    3.9      42.726
2014    9       22    12   9    5.68   551.4    3.9      42.692
2014    9       22    12  14    5.67   551.3    3.9      42.658
2014    9       22    12  19    5.67   551.1    3.9      42.625
2014    9       22    12  25    5.67   551.0    3.8      42.591
2014    9       22    12  30    5.66   550.9    3.8      42.557
2014    9       22    12  35    5.66   550.7    3.8      42.524
2014    9       22    12  40    5.66   550.6    3.8      42.491
2014    9       22    12  46    5.66   550.4    3.8      42.458
2014    9       22    12  51    5.65   550.3    3.8      42.425
2014    9       22    12  56    5.65   550.2    3.8      42.392
2014    9       22    13   1    5.65   550.0    3.8      42.358
2014    9       22    13   7    5.64   549.9    3.8      42.325
2014    9       22    13  12    5.64   549.8    3.8      42.293
2014    9       22    13  17    5.64   549.6    3.8      42.260
2014    9       22    13  22    5.63   549.5    3.8      42.227
2014    9       22    13  28    5.63   549.4    3.8      42.194
2014    9       22    13  33    5.63   549.2    3.8      42.161
2014    9       22    13  38    5.63   549.1    3.8      42.127
2014    9       22    13  43    5.62   548.9    3.8      42.094
2014    9       22    13  49    5.62   548.8    3.8      42.060
2014    9       22    13  54    5.62   548.6    3.8      42.027
2014    9       22    13  59    5.61   548.5    3.8      41.993
2014    9       22    14   4    5.61   548.4    3.8      41.959
2014    9       22    14  10    5.61   548.2    3.8      41.925
2014    9       22    14  15    5.61   548.1    3.8      41.892
2014    9       22    14  20    5.60   547.9    3.8      41.858
2014    9       22    14  25    5.60   547.8    3.8      41.824
2014    9       22    14  30    5.60   547.6    3.8      41.789
2014    9       22    14  36    5.59   547.5    3.8      41.755
2014    9       22    14  41    5.59   547.3    3.8      41.721
2014    9       22    14  46    5.59   547.2    3.8      41.687
2014    9       22    14  51    5.59   547.0    3.8      41.652
2014    9       22    14  57    5.58   546.9    3.8      41.618
2014    9       22    15   2    5.58   546.7    3.8      41.584
2014    9       22    15   7    5.58   546.6    3.8      41.549
2014    9       22    15  12    5.58   546.4    3.8      41.515
2014    9       22    15  18    5.57   546.3    3.8      41.481
2014    9       22    15  23    5.57   546.2    3.8      41.447
2014    9       22    15  28    5.57   546.0    3.8      41.413
2014    9       22    15  33    5.56   545.9    3.8      41.379
2014    9       22    15  39    5.56   545.7    3.8      41.345
2014    9       22    15  44    5.56   545.6    3.8      41.311
2014    9       22    15  49    5.56   545.4    3.8      41.278
2014    9       22    15  54    5.55   545.3    3.8      41.244
2014    9       22    16   0    5.55   545.1    3.8      41.211
2014    9       22    16   5    5.55   544.9    3.8      41.177
2014    9       22    16  10    5.55   544.8    3.8      41.144
2014    9       22    16  15    5.54   544.6    3.8      41.110
2014    9       22    16  21    5.54   544.5    3.8      41.077
2014    9       22    16  26    5.54   544.3    3.8      41.043
2014    9       22    16  31    5.54   544.2    3.8      41.010
2014    9       22    16  36    5.53   544.0    3.8      40.977
2014    9       22    16  42    5.53   543.9    3.8      40.943
2014    9       22    16  47    5.53   543.7    3.8      40.909
2014    9       22    16  52    5.53   543.6    3.8      40.876
2014    9       22    16  57    5.52   543.4    3.8      40.842
2014    9       22    17   3    5.52   543.3    3.8      40.808
2014    9       22    17   8    5.52   543.1    3.8      40.774
2014    9       22    17  13    5.52   542.9    3.8      40.740
2014    9       22    17  18    5.51   542.8    3.8      40.706
2014    9       22    17  24    5.51   542.6    3.8      40.671
2014    9       22    17  29    5.51   542.5    3.8      40.636
2014    9       22    17  34    5.51   542.3    3.8      40.602
2014    9       22    17  39    5.50   542.2    3.8      40.567
2014    9       22    17  44    5.50   542.0    3.8      40.532
2014    9       22    17  50    5.50   541.8    3.8      40.496
2014    9       22    17  55    5.50   541.7    3.8      40.461
2014    9       22    18   0    5.50   541.5    3.8      40.426
2014    9       22    18   5    5.49   541.3    3.8      40.390
2014    9       22    18  11    5.49   541.2    3.8      40.354
2014    9       22    18  16    5.49   541.0    3.8      40.319
2014    9       22    18  21    5.49   540.9    3.8      40.283
2014    9       22    18  26    5.49   540.7    3.8      40.247
2014    9       22    18  32    5.48   540.5    3.8      40.211
2014    9       22    18  37    5.48   540.4    3.8      40.175
2014    9       22    18  42    5.48   540.2    3.8      40.139
2014    9       22    18  47    5.48   540.0    3.8      40.102
2014    9       22    18  53    5.48   539.9    3.8      40.066
2014    9       22    18  58    5.47   539.7    3.8      40.030
2014    9       22    19   3    5.47   539.5    3.8      39.994
2014    9       22    19   8    5.47   539.4    3.8      39.959
2014    9       22    19  14    5.47   539.2    3.8      39.923
2014    9       22    19  19    5.47   539.0    3.8      39.888
2014    9       22    19  24    5.46   538.8    3.8      39.852
2014    9       22    19  29    5.46   538.7    3.8      39.817
2014    9       22    19  35    5.46   538.5    3.8      39.782
2014    9       22    19  40    5.46   538.3    3.8      39.747
2014    9       22    19  45    5.46   538.2    3.8      39.713
2014    9       22    19  50    5.45   538.0    3.8      39.679
2014    9       22    19  56    5.45   537.8    3.8      39.645
2014    9       22    20   1    5.45   537.7    3.8      39.611
2014    9       22    20   6    5.45   537.5    3.8      39.578
2014    9       22    20  11    5.45   537.3    3.8      39.545
2014    9       22    20  16    5.45   537.1    3.8      39.512
2014    9       22    20  22    5.44   537.0    3.8      39.480
2014    9       22    20  27    5.44   536.8    3.8      39.448
2014    9       22    20  32    5.44   536.6    3.8      39.416
2014    9       22    20  37    5.44   536.5    3.8      39.385
2014    9       22    20  43    5.44   536.3    3.8      39.354
2014    9       22    20  48    5.44   536.1    3.8      39.324
2014    9       22    20  53    5.43   536.0    3.8      39.294
2014    9       22    20  58    5.43   535.8    3.8      39.263
2014    9       22    21   4    5.43   535.6    3.8      39.234
2014    9       22    21   9    5.43   535.4    3.8      39.205
2014    9       22    21  14    5.43   535.3    3.8      39.176
2014    9       22    21  19    5.43   535.1    3.8      39.147
2014    9       22    21  25    5.42   534.9    3.8      39.119
2014    9       22    21  30    5.42   534.7    3.8      39.091
2014    9       22    21  35    5.42   534.5    3.8      39.063
2014    9       22    21  40    5.42   534.4    3.8      39.035
2014    9       22    21  46    5.42   534.2    3.8      39.007
2014    9       22    21  51    5.42   534.0    3.8      38.980
2014    9       22    21  56    5.41   533.8    3.8      38.952
2014    9       22    22   1    5.41   533.6    3.8      38.925
2014    9       22    22   7    5.41   533.4    3.8      38.898
2014    9       22    22  12    5.41   533.3    3.8      38.871
2014    9       22    22  17    5.41   533.1    3.8      38.845
2014    9       22    22  22    5.41   532.9    3.8      38.819
2014    9       22    22  27    5.40   532.7    3.8      38.792
2014    9       22    22  33    5.40   532.5    3.8      38.766
2014    9       22    22  38    5.40   532.3    3.8      38.740
2014    9       22    22  43    5.40   532.1    3.8      38.715
2014    9       22    22  48    5.40   532.0    3.8      38.688
2014    9       22    22  54    5.40   531.8    3.8      38.663
2014    9       22    22  59    5.39   531.6    3.8      38.636
2014    9       22    23   4    5.39   531.4    3.8      38.610
2014    9       22    23   9    5.39   531.2    3.8      38.584
2014    9       22    23  15    5.39   531.0    3.8      38.558
2014    9       22    23  20    5.39   530.8    3.8      38.531
2014    9       22    23  25    5.39   530.6    3.8      38.505
2014    9       22    23  30    5.39   530.4    3.8      38.478
2014    9       22    23  36    5.38   530.2    3.8      38.451
2014    9       22    23  41    5.38   530.1    3.8      38.424
2014    9       22    23  46    5.38   529.9    3.8      38.397
2014    9       22    23  51    5.38   529.7    3.8      38.370
2014    9       22    23  57    5.38   529.5    3.8      38.342
2014    9       23     0   2    5.38   529.3    3.8      38.314
2014    9       23     0   7    5.38   529.1    3.8      38.286
2014    9       23     0  12    5.37   528.9    3.8      38.258
2014    9       23     0  18    5.37   528.7    3.8      38.230
2014    9       23     0  23    5.37   528.5    3.8      38.202
2014    9       23     0  28    5.37   528.3    3.8      38.173
2014    9       23     0  33    5.37   528.1    3.8      38.145
2014    9       23     0  39    5.37   527.9    3.8      38.116
2014    9       23     0  44    5.37   527.7    3.8      38.087
2014    9       23     0  49    5.36   527.5    3.8      38.058
2014    9       23     0  54    5.36   527.3    3.8      38.029
2014    9       23     1   0    5.36   527.1    3.8      38.000
2014    9       23     1   5    5.36   526.9    3.8      37.971
2014    9       23     1  10    5.36   526.7    3.8      37.941
2014    9       23     1  15    5.36   526.5    3.8      37.912
2014    9       23     1  21    5.36   526.3    3.8      37.883
2014    9       23     1  26    5.36   526.1    3.8      37.854
2014    9       23     1  31    5.35   525.9    3.8      37.825
2014    9       23     1  36    5.35   525.7    3.8      37.795
2014    9       23     1  41    5.35   525.5    3.8      37.766
2014    9       23     1  47    5.35   525.3    3.8      37.737
2014    9       23     1  52    5.35   525.1    3.8      37.707
2014    9       23     1  57    5.35   524.9    3.8      37.678
2014    9       23     2   2    5.35   524.6    3.8      37.648
2014    9       23     2   8    5.35   524.4    3.8      37.618
2014    9       23     2  13    5.35   524.2    3.8      37.589
2014    9       23     2  18    5.34   524.0    3.8      37.559
2014    9       23     2  23    5.34   523.8    3.8      37.528
2014    9       23     2  29    5.34   523.6    3.8      37.498
2014    9       23     2  34    5.34   523.4    3.8      37.467
2014    9       23     2  39    5.34   523.2    3.8      37.435
2014    9       23     2  44    5.34   523.0    3.8      37.404
2014    9       23     2  50    5.34   522.8    3.8      37.373
2014    9       23     2  55    5.34   522.6    3.8      37.340
2014    9       23     3   0    5.34   522.4    3.8      37.308
2014    9       23     3   5    5.34   522.2    3.8      37.276
2014    9       23     3  11    5.33   521.9    3.8      37.243
2014    9       23     3  16    5.33   521.7    3.8      37.211
2014    9       23     3  21    5.33   521.5    3.8      37.178
2014    9       23     3  26    5.33   521.3    3.8      37.145
2014    9       23     3  32    5.33   521.1    3.8      37.111
2014    9       23     3  37    5.33   520.9    3.8      37.078
2014    9       23     3  42    5.33   520.6    3.8      37.044
2014    9       23     3  47    5.33   520.4    3.8      37.011
2014    9       23     3  52    5.33   520.2    3.8      36.977
2014    9       23     3  58    5.33   520.0    3.8      36.944
2014    9       23     4   3    5.32   519.8    3.8      36.911
2014    9       23     4   8    5.32   519.5    3.8      36.877
2014    9       23     4  13    5.32   519.3    3.8      36.844
2014    9       23     4  19    5.32   519.1    3.8      36.811
2014    9       23     4  24    5.32   518.9    3.8      36.778
2014    9       23     4  29    5.32   518.7    3.8      36.745
2014    9       23     4  34    5.32   518.4    3.8      36.712
2014    9       23     4  40    5.32   518.2    3.8      36.680
2014    9       23     4  45    5.32   518.0    3.8      36.648
2014    9       23     4  50    5.32   517.7    3.8      36.615
2014    9       23     4  55    5.32   517.5    3.8      36.584
2014    9       23     5   1    5.32   517.3    3.8      36.552
2014    9       23     5   6    5.31   517.1    3.8      36.521
2014    9       23     5  11    5.31   516.8    3.8      36.490
2014    9       23     5  16    5.31   516.6    3.8      36.459
2014    9       23     5  22    5.31   516.4    3.8      36.429
2014    9       23     5  27    5.31   516.1    3.8      36.399
2014    9       23     5  32    5.31   515.9    3.8      36.370
2014    9       23     5  37    5.31   515.7    3.8      36.340
2014    9       23     5  43    5.31   515.4    3.9      36.311
2014    9       23     5  48    5.31   515.2    3.9      36.283
2014    9       23     5  53    5.31   515.0    3.9      36.254
2014    9       23     5  58    5.31   514.7    3.9      36.226
2014    9       23     6   4    5.31   514.5    3.9      36.199
2014    9       23     6   9    5.31   514.3    3.9      36.171
2014    9       23     6  14    5.31   514.0    3.9      36.144
2014    9       23     6  19    5.31   513.8    3.9      36.117
2014    9       23     6  24    5.31   513.6    3.9      36.090
2014    9       23     6  30    5.31   513.3    3.9      36.064
2014    9       23     6  35    5.31   513.1    3.9      36.038
2014    9       23     6  40    5.30   512.8    3.9      36.012
2014    9       23     6  45    5.30   512.6    3.9      35.986
2014    9       23     6  51    5.30   512.4    3.9      35.960
2014    9       23     6  56    5.30   512.1    3.9      35.935
2014    9       23     7   1    5.30   511.9    3.9      35.910
2014    9       23     7   6    5.30   511.6    3.9      35.885
2014    9       23     7  12    5.30   511.4    3.9      35.860
2014    9       23     7  17    5.30   511.1    3.9      35.835
2014    9       23     7  22    5.30   510.9    3.9      35.811
2014    9       23     7  27    5.30   510.6    3.9      35.786
2014    9       23     7  33    5.30   510.4    3.9      35.763
2014    9       23     7  38    5.30   510.1    3.9      35.739
2014    9       23     7  43    5.30   509.9    3.9      35.715
2014    9       23     7  48    5.30   509.6    3.9      35.692
2014    9       23     7  54    5.30   509.4    3.9      35.669
2014    9       23     7  59    5.30   509.1    3.9      35.646
2014    9       23     8   4    5.30   508.9    3.9      35.624
2014    9       23     8   9    5.30   508.6    3.9      35.602
2014    9       23     8  15    5.30   508.3    3.9      35.581
2014    9       23     8  20    5.30   508.1    3.9      35.559
2014    9       23     8  25    5.30   507.8    3.9      35.539
2014    9       23     8  30    5.30   507.6    3.9      35.518
2014    9       23     8  36    5.30   507.3    3.9      35.498
2014    9       23     8  41    5.30   507.1    3.9      35.479
2014    9       23     8  46    5.30   506.8    4.0      35.460
2014    9       23     8  51    5.30   506.5    4.0      35.441
2014    9       23     8  57    5.30   506.3    4.0      35.422
2014    9       23     9   2    5.30   506.0    4.0      35.404
2014    9       23     9   7    5.30   505.8    4.0      35.387
2014    9       23     9  12    5.30   505.5    4.0      35.370
2014    9       23     9  17    5.30   505.2    4.0      35.352
2014    9       23     9  23    5.30   505.0    4.0      35.336
2014    9       23     9  28    5.31   504.7    4.0      35.319
2014    9       23     9  33    5.31   504.5    4.0      35.303
2014    9       23     9  38    5.31   504.2    4.0      35.287
2014    9       23     9  44    5.31   503.9    4.0      35.271
2014    9       23     9  49    5.31   503.7    4.0      35.255
2014    9       23     9  54    5.31   503.4    4.0      35.239
2014    9       23     9  59    5.31   503.2    4.0      35.224
2014    9       23    10   5    5.31   502.9    4.0      35.208
2014    9       23    10  10    5.31   502.6    4.0      35.193
2014    9       23    10  15    5.31   502.4    4.0      35.177
2014    9       23    10  20    5.31   502.1    4.0      35.161
2014    9       23    10  26    5.31   501.9    4.0      35.146
2014    9       23    10  31    5.31   501.6    4.0      35.130
2014    9       23    10  36    5.32   501.4    4.0      35.115
2014    9       23    10  41    5.32   501.1    4.0      35.100
2014    9       23    10  47    5.32   500.8    4.0      35.084
2014    9       23    10  52    5.32   500.6    4.1      35.069
2014    9       23    10  57    5.32   500.3    4.1      35.054
2014    9       23    11   2    5.32   500.1    4.1      35.039
2014    9       23    11   8    5.32   499.8    4.1      35.024
2014    9       23    11  13    5.32   499.6    4.1      35.009
2014    9       23    11  18    5.32   499.3    4.1      34.995
2014    9       23    11  23    5.33   499.0    4.1      34.980
2014    9       23    11  28    5.33   498.8    4.1      34.966
2014    9       23    11  34    5.33   498.5    4.1      34.952
2014    9       23    11  39    5.33   498.3    4.1      34.938
2014    9       23    11  44    5.33   498.0    4.1      34.924
2014    9       23    11  49    5.33   497.8    4.1      34.910
2014    9       23    11  55    5.33   497.5    4.1      34.897
2014    9       23    12   0    5.34   497.3    4.1      34.884
2014    9       23    12   5    5.34   497.0    4.1      34.871
2014    9       23    12  10    5.34   496.8    4.1      34.859
2014    9       23    12  16    5.34   496.5    4.1      34.847
2014    9       23    12  21    5.34   496.3    4.1      34.836
2014    9       23    12  26    5.34   496.0    4.1      34.825
2014    9       23    12  31    5.35   495.8    4.2      34.815
2014    9       23    12  37    5.35   495.6    4.2      34.805
2014    9       23    12  42    5.35   495.3    4.2      34.795
2014    9       23    12  47    5.35   495.1    4.2      34.787
2014    9       23    12  52    5.35   494.9    4.2      34.779
2014    9       23    12  58    5.35   494.6    4.2      34.772
2014    9       23    13   3    5.36   494.4    4.2      34.766
2014    9       23    13   8    5.36   494.2    4.2      34.760
2014    9       23    13  13    5.36   494.0    4.2      34.754
2014    9       23    13  19    5.36   493.8    4.2      34.748
2014    9       23    13  24    5.36   493.5    4.2      34.742
2014    9       23    13  29    5.37   493.3    4.2      34.735
2014    9       23    13  34    5.37   493.1    4.2      34.728
2014    9       23    13  40    5.37   492.9    4.2      34.721
2014    9       23    13  45    5.37   492.7    4.2      34.714
2014    9       23    13  50    5.37   492.4    4.2      34.707
2014    9       23    13  55    5.38   492.2    4.2      34.699
2014    9       23    14   1    5.38   492.0    4.2      34.691
2014    9       23    14   6    5.38   491.8    4.3      34.684
2014    9       23    14  11    5.38   491.6    4.3      34.676
2014    9       23    14  16    5.38   491.4    4.3      34.668
2014    9       23    14  21    5.39   491.1    4.3      34.660
2014    9       23    14  27    5.39   490.9    4.3      34.653
2014    9       23    14  32    5.39   490.7    4.3      34.645
2014    9       23    14  37    5.39   490.5    4.3      34.637
2014    9       23    14  42    5.40   490.3    4.3      34.629
2014    9       23    14  48    5.40   490.1    4.3      34.622
2014    9       23    14  53    5.40   489.9    4.3      34.614
2014    9       23    14  58    5.40   489.7    4.3      34.607
2014    9       23    15   3    5.41   489.5    4.3      34.599
2014    9       23    15   9    5.41   489.3    4.3      34.592
2014    9       23    15  14    5.41   489.1    4.3      34.585
2014    9       23    15  19    5.41   488.9    4.3      34.578
2014    9       23    15  24    5.42   488.6    4.3      34.571
2014    9       23    15  30    5.42   488.4    4.3      34.564
2014    9       23    15  35    5.42   488.2    4.3      34.558
2014    9       23    15  40    5.42   488.0    4.4      34.551
2014    9       23    15  45    5.43   487.8    4.4      34.546
2014    9       23    15  51    5.43   487.6    4.4      34.540
2014    9       23    15  56    5.43   487.4    4.4      34.535
2014    9       23    16   1    5.43   487.2    4.4      34.529
2014    9       23    16   6    5.44   487.0    4.4      34.525
2014    9       23    16  12    5.44   486.8    4.4      34.520
2014    9       23    16  17    5.44   486.6    4.4      34.517
2014    9       23    16  22    5.45   486.4    4.4      34.513
2014    9       23    16  27    5.45   486.2    4.4      34.510
2014    9       23    16  33    5.45   486.0    4.4      34.508
2014    9       23    16  38    5.46   485.8    4.4      34.505
2014    9       23    16  43    5.46   485.7    4.4      34.504
2014    9       23    16  48    5.46   485.5    4.4      34.503
2014    9       23    16  54    5.47   485.3    4.4      34.502
2014    9       23    16  59    5.47   485.1    4.4      34.502
2014    9       23    17   4    5.47   484.9    4.5      34.503
2014    9       23    17   9    5.48   484.7    4.5      34.504
2014    9       23    17  14    5.48   484.5    4.5      34.506
2014    9       23    17  20    5.48   484.3    4.5      34.509
2014    9       23    17  25    5.49   484.1    4.5      34.512
2014    9       23    17  30    5.49   484.0    4.5      34.515
2014    9       23    17  35    5.50   483.8    4.5      34.520
2014    9       23    17  41    5.50   483.6    4.5      34.525
2014    9       23    17  46    5.50   483.4    4.5      34.530
2014    9       23    17  51    5.51   483.3    4.5      34.536
2014    9       23    17  56    5.51   483.1    4.5      34.543
2014    9       23    18   2    5.52   482.9    4.5      34.551
2014    9       23    18   7    5.52   482.7    4.5      34.559
2014    9       23    18  12    5.52   482.6    4.6      34.568
2014    9       23    18  17    5.53   482.4    4.6      34.577
2014    9       23    18  23    5.53   482.2    4.6      34.588
2014    9       23    18  28    5.54   482.1    4.6      34.599
2014    9       23    18  33    5.54   481.9    4.6      34.610
2014    9       23    18  38    5.54   481.7    4.6      34.622
2014    9       23    18  44    5.55   481.6    4.6      34.635
2014    9       23    18  49    5.55   481.4    4.6      34.649
2014    9       23    18  54    5.56   481.3    4.6      34.663
2014    9       23    18  59    5.56   481.1    4.6      34.679
2014    9       23    19   5    5.57   481.0    4.6      34.695
2014    9       23    19  10    5.57   480.8    4.7      34.711
2014    9       23    19  15    5.57   480.7    4.7      34.729
2014    9       23    19  20    5.58   480.5    4.7      34.748
2014    9       23    19  25    5.58   480.4    4.7      34.767
2014    9       23    19  31    5.59   480.2    4.7      34.787
2014    9       23    19  36    5.59   480.1    4.7      34.809
2014    9       23    19  41    5.60   480.0    4.7      34.831
2014    9       23    19  46    5.60   479.8    4.7      34.854
2014    9       23    19  52    5.61   479.7    4.7      34.879
2014    9       23    19  57    5.61   479.6    4.7      34.904
2014    9       23    20   2    5.62   479.5    4.8      34.931
2014    9       23    20   7    5.62   479.4    4.8      34.959
2014    9       23    20  13    5.63   479.3    4.8      34.987
2014    9       23    20  18    5.63   479.1    4.8      35.017
2014    9       23    20  23    5.64   479.0    4.8      35.046
2014    9       23    20  28    5.64   478.9    4.8      35.077
2014    9       23    20  34    5.65   478.8    4.8      35.107
2014    9       23    20  39    5.65   478.7    4.8      35.138
2014    9       23    20  44    5.65   478.6    4.8      35.168
2014    9       23    20  49    5.66   478.5    4.8      35.199
2014    9       23    20  55    5.66   478.4    4.9      35.230
2014    9       23    21   0    5.67   478.3    4.9      35.260
2014    9       23    21   5    5.67   478.2    4.9      35.289
2014    9       23    21  10    5.68   478.1    4.9      35.317
2014    9       23    21  16    5.68   478.0    4.9      35.345
2014    9       23    21  21    5.69   477.9    4.9      35.372
2014    9       23    21  26    5.69   477.8    4.9      35.398
2014    9       23    21  31    5.70   477.7    4.9      35.424
2014    9       23    21  37    5.70   477.6    4.9      35.449
2014    9       23    21  42    5.71   477.5    4.9      35.473
2014    9       23    21  47    5.71   477.4    4.9      35.496
2014    9       23    21  52    5.72   477.3    4.9      35.519
2014    9       23    21  58    5.72   477.2    5.0      35.541
2014    9       23    22   3    5.73   477.1    5.0      35.563
2014    9       23    22   8    5.73   477.1    5.0      35.584
2014    9       23    22  13    5.74   477.0    5.0      35.604
2014    9       23    22  18    5.74   476.9    5.0      35.625
2014    9       23    22  24    5.75   476.8    5.0      35.645
2014    9       23    22  29    5.76   476.7    5.0      35.664
2014    9       23    22  34    5.76   476.6    5.0      35.683
2014    9       23    22  39    5.77   476.5    5.0      35.702
2014    9       23    22  45    5.77   476.5    5.0      35.721
2014    9       23    22  50    5.78   476.4    5.0      35.740
2014    9       23    22  55    5.78   476.3    5.0      35.758
2014    9       23    23   0    5.79   476.2    5.0      35.777
2014    9       23    23   6    5.79   476.2    5.0      35.795
2014    9       23    23  11    5.80   476.1    5.1      35.814
2014    9       23    23  16    5.80   476.0    5.1      35.832
2014    9       23    23  21    5.81   475.9    5.1      35.851
2014    9       23    23  27    5.81   475.9    5.1      35.870
2014    9       23    23  32    5.82   475.8    5.1      35.888
2014    9       23    23  37    5.83   475.7    5.1      35.907
2014    9       23    23  42    5.83   475.7    5.1      35.926
2014    9       23    23  48    5.84   475.6    5.1      35.945
2014    9       23    23  53    5.84   475.6    5.1      35.965
2014    9       23    23  58    5.85   475.5    5.1      35.984
2014    9       24     0   3    5.85   475.4    5.1      36.004
2014    9       24     0   9    5.86   475.4    5.1      36.024
2014    9       24     0  14    5.86   475.3    5.1      36.044
2014    9       24     0  19    5.87   475.3    5.1      36.064
2014    9       24     0  24    5.87   475.2    5.1      36.084
2014    9       24     0  30    5.88   475.2    5.2      36.105
2014    9       24     0  35    5.89   475.1    5.2      36.126
2014    9       24     0  40    5.89   475.1    5.2      36.147
2014    9       24     0  45    5.90   475.0    5.2      36.169
2014    9       24     0  50    5.90   475.0    5.2      36.190
2014    9       24     0  56    5.91   474.9    5.2      36.212
2014    9       24     1   1    5.91   474.9    5.2      36.235
2014    9       24     1   6    5.92   474.9    5.2      36.257
2014    9       24     1  11    5.93   474.8    5.2      36.280
2014    9       24     1  17    5.93   474.8    5.2      36.303
2014    9       24     1  22    5.94   474.7    5.2      36.327
2014    9       24     1  27    5.94   474.7    5.2      36.351
2014    9       24     1  32    5.95   474.7    5.2      36.376
2014    9       24     1  38    5.95   474.6    5.2      36.400
2014    9       24     1  43    5.96   474.6    5.2      36.426
2014    9       24     1  48    5.96   474.6    5.3      36.451
2014    9       24     1  53    5.97   474.5    5.3      36.478
2014    9       24     1  59    5.98   474.5    5.3      36.504
2014    9       24     2   4    5.98   474.5    5.3      36.532
2014    9       24     2   9    5.99   474.4    5.3      36.560
2014    9       24     2  14    5.99   474.4    5.3      36.588
2014    9       24     2  20    6.00   474.4    5.3      36.617
2014    9       24     2  25    6.00   474.4    5.3      36.647
2014    9       24     2  30    6.01   474.3    5.3      36.678
2014    9       24     2  35    6.01   474.3    5.3      36.709
2014    9       24     2  41    6.02   474.3    5.3      36.741
2014    9       24     2  46    6.03   474.3    5.3      36.774
2014    9       24     2  51    6.03   474.2    5.3      36.807
2014    9       24     2  56    6.04   474.2    5.3      36.841
2014    9       24     3   1    6.04   474.2    5.4      36.876
2014    9       24     3   7    6.05   474.2    5.4      36.912
2014    9       24     3  12    6.05   474.2    5.4      36.949
2014    9       24     3  17    6.06   474.2    5.4      36.987
2014    9       24     3  22    6.07   474.1    5.4      37.025
2014    9       24     3  28    6.07   474.1    5.4      37.065
2014    9       24     3  33    6.08   474.1    5.4      37.105
2014    9       24     3  38    6.08   474.1    5.4      37.146
2014    9       24     3  43    6.09   474.1    5.4      37.189
2014    9       24     3  49    6.10   474.1    5.4      37.233
2014    9       24     3  54    6.10   474.1    5.4      37.278
2014    9       24     3  59    6.11   474.1    5.4      37.324
2014    9       24     4   4    6.11   474.1    5.5      37.370
2014    9       24     4  10    6.12   474.1    5.5      37.417
2014    9       24     4  15    6.13   474.1    5.5      37.464
2014    9       24     4  20    6.13   474.1    5.5      37.511
2014    9       24     4  25    6.14   474.1    5.5      37.559
2014    9       24     4  31    6.14   474.1    5.5      37.606
2014    9       24     4  36    6.15   474.1    5.5      37.654
2014    9       24     4  41    6.16   474.1    5.5      37.701
2014    9       24     4  46    6.16   474.1    5.5      37.749
2014    9       24     4  52    6.17   474.1    5.5      37.797
2014    9       24     4  57    6.17   474.1    5.5      37.846
2014    9       24     5   2    6.18   474.1    5.5      37.894
2014    9       24     5   7    6.19   474.2    5.6      37.943
2014    9       24     5  13    6.19   474.2    5.6      37.991
2014    9       24     5  18    6.20   474.2    5.6      38.040
2014    9       24     5  23    6.21   474.2    5.6      38.089
2014    9       24     5  28    6.21   474.2    5.6      38.138
2014    9       24     5  34    6.22   474.3    5.6      38.185
2014    9       24     5  39    6.22   474.3    5.6      38.233
2014    9       24     5  44    6.23   474.3    5.6      38.280
2014    9       24     5  49    6.24   474.4    5.6      38.326
2014    9       24     5  55    6.24   474.4    5.6      38.371
2014    9       24     6   0    6.25   474.4    5.6      38.415
2014    9       24     6   5    6.25   474.5    5.6      38.459
2014    9       24     6  10    6.26   474.5    5.6      38.501
2014    9       24     6  15    6.27   474.5    5.6      38.543
2014    9       24     6  21    6.27   474.6    5.7      38.584
2014    9       24     6  26    6.28   474.6    5.7      38.624
2014    9       24     6  31    6.28   474.6    5.7      38.663
2014    9       24     6  36    6.29   474.7    5.7      38.702
2014    9       24     6  42    6.30   474.7    5.7      38.740
2014    9       24     6  47    6.30   474.8    5.7      38.778
2014    9       24     6  52    6.31   474.8    5.7      38.814
2014    9       24     6  57    6.31   474.8    5.7      38.851
2014    9       24     7   3    6.32   474.9    5.7      38.887
2014    9       24     7   8    6.33   474.9    5.7      38.922
2014    9       24     7  13    6.33   475.0    5.7      38.957
2014    9       24     7  18    6.34   475.0    5.7      38.992
2014    9       24     7  24    6.34   475.0    5.7      39.026
2014    9       24     7  29    6.35   475.1    5.7      39.060
2014    9       24     7  34    6.35   475.1    5.7      39.093
2014    9       24     7  39    6.36   475.2    5.7      39.127
2014    9       24     7  45    6.37   475.2    5.7      39.160
2014    9       24     7  50    6.37   475.2    5.7      39.192
2014    9       24     7  55    6.38   475.3    5.7      39.225
2014    9       24     8   0    6.38   475.3    5.7      39.257
2014    9       24     8   6    6.39   475.4    5.8      39.289
2014    9       24     8  11    6.39   475.4    5.8      39.320
2014    9       24     8  16    6.40   475.4    5.8      39.352
2014    9       24     8  21    6.41   475.5    5.8      39.383
2014    9       24     8  26    6.41   475.5    5.8      39.414
2014    9       24     8  32    6.42   475.6    5.8      39.445
2014    9       24     8  37    6.42   475.6    5.8      39.477
2014    9       24     8  42    6.43   475.6    5.8      39.508
2014    9       24     8  47    6.43   475.7    5.8      39.539
2014    9       24     8  53    6.44   475.7    5.8      39.570
2014    9       24     8  58    6.45   475.8    5.8      39.601
2014    9       24     9   3    6.45   475.8    5.8      39.633
2014    9       24     9   8    6.46   475.8    5.8      39.665
2014    9       24     9  14    6.46   475.9    5.8      39.697
2014    9       24     9  19    6.47   475.9    5.8      39.729
2014    9       24     9  24    6.47   476.0    5.8      39.762
2014    9       24     9  29    6.48   476.0    5.8      39.796
2014    9       24     9  35    6.49   476.0    5.8      39.830
2014    9       24     9  40    6.49   476.1    5.8      39.864
2014    9       24     9  45    6.50   476.1    5.8      39.900
2014    9       24     9  50    6.50   476.2    5.8      39.936
2014    9       24     9  56    6.51   476.2    5.8      39.974
2014    9       24    10   1    6.52   476.3    5.8      40.012
2014    9       24    10   6    6.52   476.3    5.8      40.052
2014    9       24    10  11    6.53   476.4    5.9      40.093
2014    9       24    10  17    6.53   476.4    5.9      40.135
2014    9       24    10  22    6.54   476.5    5.9      40.179
2014    9       24    10  27    6.54   476.5    5.9      40.224
2014    9       24    10  32    6.55   476.6    5.9      40.271
2014    9       24    10  38    6.56   476.7    5.9      40.320
2014    9       24    10  43    6.56   476.7    5.9      40.371
2014    9       24    10  48    6.57   476.8    5.9      40.423
2014    9       24    10  53    6.57   476.9    5.9      40.477
2014    9       24    10  58    6.58   477.0    5.9      40.531
2014    9       24    11   4    6.59   477.1    5.9      40.587
2014    9       24    11   9    6.59   477.1    5.9      40.643
2014    9       24    11  14    6.60   477.2    5.9      40.699
2014    9       24    11  19    6.61   477.3    5.9      40.755
2014    9       24    11  25    6.61   477.4    5.9      40.813
2014    9       24    11  30    6.62   477.5    5.9      40.870
2014    9       24    11  35    6.62   477.6    5.9      40.929
2014    9       24    11  40    6.63   477.7    5.9      40.988
2014    9       24    11  46    6.64   477.8    6.0      41.048
2014    9       24    11  51    6.64   477.9    6.0      41.108
2014    9       24    11  56    6.65   478.0    6.0      41.169
2014    9       24    12   1    6.65   478.1    6.0      41.230
2014    9       24    12   7    6.66   478.2    6.0      41.290
2014    9       24    12  12    6.66   478.3    6.0      41.351
2014    9       24    12  17    6.67   478.4    6.0      41.411
2014    9       24    12  22    6.68   478.5    6.0      41.471
2014    9       24    12  28    6.68   478.6    6.0      41.530
2014    9       24    12  33    6.69   478.7    6.0      41.589
2014    9       24    12  38    6.69   478.8    6.0      41.647
2014    9       24    12  43    6.70   479.0    6.0      41.703
2014    9       24    12  49    6.71   479.1    6.0      41.759
2014    9       24    12  54    6.71   479.2    6.0      41.813
2014    9       24    12  59    6.72   479.3    6.0      41.867
2014    9       24    13   4    6.72   479.4    6.0      41.920
2014    9       24    13  10    6.73   479.5    6.0      41.973
2014    9       24    13  15    6.73   479.6    6.0      42.025
2014    9       24    13  20    6.74   479.8    6.0      42.076
2014    9       24    13  25    6.74   479.9    6.0      42.126
2014    9       24    13  31    6.75   480.0    6.0      42.176
2014    9       24    13  36    6.76   480.1    6.0      42.226
2014    9       24    13  41    6.76   480.2    6.0      42.275
2014    9       24    13  46    6.77   480.3    6.0      42.323
2014    9       24    13  52    6.77   480.4    6.1      42.371
2014    9       24    13  57    6.78   480.6    6.1      42.419
2014    9       24    14   2    6.78   480.7    6.1      42.467
2014    9       24    14   7    6.79   480.8    6.1      42.514
2014    9       24    14  12    6.79   480.9    6.1      42.562
2014    9       24    14  18    6.80   481.0    6.1      42.609
2014    9       24    14  23    6.81   481.1    6.1      42.656
2014    9       24    14  28    6.81   481.3    6.1      42.703
2014    9       24    14  33    6.82   481.4    6.1      42.752
2014    9       24    14  39    6.82   481.5    6.1      42.801
2014    9       24    14  44    6.83   481.6    6.1      42.851
2014    9       24    14  49    6.83   481.7    6.1      42.903
2014    9       24    14  54    6.84   481.9    6.1      42.956
2014    9       24    15   0    6.85   482.0    6.1      43.010
2014    9       24    15   5    6.85   482.1    6.1      43.065
2014    9       24    15  10    6.86   482.3    6.1      43.122
2014    9       24    15  15    6.86   482.4    6.1      43.181
2014    9       24    15  21    6.87   482.6    6.1      43.243
2014    9       24    15  26    6.87   482.7    6.1      43.306
2014    9       24    15  31    6.88   482.9    6.2      43.372
2014    9       24    15  36    6.89   483.0    6.2      43.439
2014    9       24    15  42    6.89   483.2    6.2      43.508
2014    9       24    15  47    6.90   483.3    6.2      43.576
2014    9       24    15  52    6.90   483.5    6.2      43.642
2014    9       24    15  57    6.91   483.6    6.2      43.708
2014    9       24    16   2    6.91   483.8    6.2      43.772
2014    9       24    16   8    6.92   484.0    6.2      43.834
2014    9       24    16  13    6.92   484.1    6.2      43.896
2014    9       24    16  18    6.93   484.3    6.2      43.956
2014    9       24    16  23    6.93   484.4    6.2      44.015
2014    9       24    16  29    6.94   484.6    6.2      44.073
2014    9       24    16  34    6.94   484.7    6.2      44.130
2014    9       24    16  39    6.95   484.9    6.2      44.185
2014    9       24    16  44    6.95   485.0    6.2      44.240
2014    9       24    16  50    6.96   485.2    6.2      44.294
2014    9       24    16  55    6.96   485.3    6.2      44.348
2014    9       24    17   0    6.97   485.5    6.2      44.400
2014    9       24    17   5    6.97   485.6    6.2      44.452
2014    9       24    17  11    6.98   485.8    6.2      44.504
2014    9       24    17  16    6.98   485.9    6.2      44.555
2014    9       24    17  21    6.99   486.1    6.2      44.605
2014    9       24    17  26    6.99   486.2    6.2      44.656
2014    9       24    17  32    7.00   486.4    6.2      44.707
2014    9       24    17  37    7.00   486.5    6.2      44.758
2014    9       24    17  42    7.01   486.7    6.2      44.809
2014    9       24    17  47    7.01   486.8    6.2      44.860
2014    9       24    17  53    7.02   487.0    6.2      44.911
2014    9       24    17  58    7.02   487.2    6.2      44.963
2014    9       24    18   3    7.03   487.3    6.2      45.016
2014    9       24    18   8    7.03   487.5    6.2      45.069
2014    9       24    18  14    7.04   487.6    6.2      45.123
2014    9       24    18  19    7.04   487.8    6.2      45.179
2014    9       24    18  24    7.05   488.0    6.2      45.234
2014    9       24    18  29    7.05   488.1    6.2      45.291
2014    9       24    18  35    7.06   488.3    6.2      45.347
2014    9       24    18  40    7.06   488.5    6.2      45.404
2014    9       24    18  45    7.07   488.7    6.2      45.461
2014    9       24    18  50    7.07   488.8    6.2      45.517
2014    9       24    18  55    7.08   489.0    6.2      45.573
2014    9       24    19   1    7.08   489.2    6.2      45.629
2014    9       24    19   6    7.09   489.4    6.2      45.684
2014    9       24    19  11    7.09   489.6    6.2      45.739
2014    9       24    19  16    7.10   489.7    6.2      45.793
2014    9       24    19  22    7.10   489.9    6.2      45.846
2014    9       24    19  27    7.11   490.1    6.2      45.898
2014    9       24    19  32    7.11   490.3    6.2      45.950
2014    9       24    19  37    7.11   490.4    6.2      46.001
2014    9       24    19  43    7.12   490.6    6.2      46.052
2014    9       24    19  48    7.12   490.8    6.2      46.102
2014    9       24    19  53    7.13   491.0    6.2      46.151
2014    9       24    19  58    7.13   491.1    6.2      46.200
2014    9       24    20   4    7.14   491.3    6.2      46.249
2014    9       24    20   9    7.14   491.5    6.2      46.297
2014    9       24    20  14    7.15   491.7    6.2      46.344
2014    9       24    20  19    7.15   491.8    6.2      46.391
2014    9       24    20  25    7.16   492.0    6.2      46.438
2014    9       24    20  30    7.16   492.2    6.2      46.484
2014    9       24    20  35    7.17   492.4    6.2      46.530
2014    9       24    20  40    7.17   492.5    6.2      46.576
2014    9       24    20  46    7.17   492.7    6.2      46.621
2014    9       24    20  51    7.18   492.9    6.2      46.666
2014    9       24    20  56    7.18   493.0    6.2      46.711
2014    9       24    21   1    7.19   493.2    6.2      46.756
2014    9       24    21   7    7.19   493.4    6.2      46.801
2014    9       24    21  12    7.20   493.5    6.2      46.846
2014    9       24    21  17    7.20   493.7    6.2      46.891
2014    9       24    21  22    7.21   493.8    6.2      46.936
2014    9       24    21  28    7.21   494.0    6.2      46.982
2014    9       24    21  33    7.21   494.2    6.2      47.028
2014    9       24    21  38    7.22   494.3    6.2      47.075
2014    9       24    21  43    7.22   494.5    6.2      47.124
2014    9       24    21  48    7.23   494.7    6.2      47.174
2014    9       24    21  54    7.23   494.8    6.2      47.227
2014    9       24    21  59    7.24   495.0    6.2      47.281
2014    9       24    22   4    7.24   495.1    6.2      47.336
2014    9       24    22   9    7.25   495.3    6.2      47.394
2014    9       24    22  15    7.25   495.5    6.2      47.456
2014    9       24    22  20    7.26   495.6    6.2      47.522
2014    9       24    22  25    7.26   495.8    6.2      47.592
2014    9       24    22  30    7.27   496.0    6.2      47.667
2014    9       24    22  36    7.27   496.2    6.2      47.745
2014    9       24    22  41    7.28   496.4    6.3      47.827
2014    9       24    22  46    7.29   496.6    6.3      47.913
2014    9       24    22  51    7.29   496.8    6.3      48.001
2014    9       24    22  57    7.30   497.0    6.3      48.093
2014    9       24    23   2    7.30   497.3    6.3      48.187
2014    9       24    23   7    7.31   497.5    6.3      48.282
2014    9       24    23  12    7.31   497.7    6.3      48.378
2014    9       24    23  18    7.32   498.0    6.3      48.476
2014    9       24    23  23    7.32   498.2    6.3      48.575
2014    9       24    23  28    7.33   498.5    6.3      48.671
2014    9       24    23  33    7.33   498.7    6.3      48.764
2014    9       24    23  39    7.33   499.0    6.3      48.855
2014    9       24    23  44    7.34   499.3    6.3      48.942
2014    9       24    23  49    7.34   499.5    6.3      49.028
2014    9       24    23  54    7.35   499.8    6.3      49.111
2014    9       24    23  59    7.35   500.0    6.3      49.192
2014    9       25     0   5    7.36   500.3    6.3      49.271
