year    month   day   hour  minute  B_enl V_enl   n_enl       T_enl
[year] [month] [day] [hour][minute] [nT]  [km/s]  [cm-3]      [kK]
2014    9        1     0   5    4.81   581.1    3.5      55.934
2014    9        1     0  11    4.81   581.0    3.5      55.921
2014    9        1     0  16    4.80   580.9    3.5      55.908
2014    9        1     0  22    4.80   580.8    3.5      55.896
2014    9        1     0  27    4.80   580.8    3.5      55.883
2014    9        1     0  33    4.80   580.7    3.5      55.872
2014    9        1     0  39    4.80   580.6    3.5      55.860
2014    9        1     0  44    4.80   580.6    3.5      55.849
2014    9        1     0  50    4.80   580.5    3.5      55.839
2014    9        1     0  55    4.80   580.4    3.5      55.829
2014    9        1     1   1    4.80   580.3    3.5      55.819
2014    9        1     1   7    4.80   580.3    3.5      55.811
2014    9        1     1  12    4.80   580.2    3.5      55.802
2014    9        1     1  18    4.80   580.1    3.5      55.794
2014    9        1     1  24    4.79   580.1    3.5      55.787
2014    9        1     1  29    4.79   580.0    3.5      55.780
2014    9        1     1  35    4.79   579.9    3.5      55.773
2014    9        1     1  40    4.79   579.8    3.5      55.767
2014    9        1     1  46    4.79   579.8    3.5      55.761
2014    9        1     1  52    4.79   579.7    3.5      55.755
2014    9        1     1  57    4.79   579.6    3.5      55.750
2014    9        1     2   3    4.79   579.5    3.5      55.744
2014    9        1     2   8    4.79   579.5    3.5      55.739
2014    9        1     2  14    4.79   579.4    3.5      55.733
2014    9        1     2  20    4.79   579.3    3.5      55.727
2014    9        1     2  25    4.79   579.2    3.5      55.722
2014    9        1     2  31    4.78   579.2    3.5      55.716
2014    9        1     2  36    4.78   579.1    3.5      55.710
2014    9        1     2  42    4.78   579.0    3.5      55.703
2014    9        1     2  48    4.78   578.9    3.5      55.697
2014    9        1     2  53    4.78   578.8    3.5      55.691
2014    9        1     2  59    4.78   578.8    3.5      55.684
2014    9        1     3   4    4.78   578.7    3.5      55.677
2014    9        1     3  10    4.78   578.6    3.5      55.670
2014    9        1     3  16    4.78   578.5    3.5      55.663
2014    9        1     3  21    4.78   578.4    3.5      55.656
2014    9        1     3  27    4.78   578.4    3.5      55.648
2014    9        1     3  33    4.77   578.3    3.5      55.639
2014    9        1     3  38    4.77   578.2    3.5      55.631
2014    9        1     3  44    4.77   578.1    3.5      55.622
2014    9        1     3  49    4.77   578.0    3.5      55.613
2014    9        1     3  55    4.77   577.9    3.5      55.603
2014    9        1     4   1    4.77   577.9    3.5      55.594
2014    9        1     4   6    4.77   577.8    3.5      55.584
2014    9        1     4  12    4.77   577.7    3.5      55.574
2014    9        1     4  17    4.77   577.6    3.5      55.564
2014    9        1     4  23    4.77   577.5    3.5      55.553
2014    9        1     4  29    4.76   577.4    3.5      55.543
2014    9        1     4  34    4.76   577.3    3.5      55.533
2014    9        1     4  40    4.76   577.3    3.5      55.522
2014    9        1     4  45    4.76   577.2    3.5      55.511
2014    9        1     4  51    4.76   577.1    3.5      55.501
2014    9        1     4  57    4.76   577.0    3.5      55.490
2014    9        1     5   2    4.76   576.9    3.5      55.479
2014    9        1     5   8    4.76   576.8    3.5      55.468
2014    9        1     5  14    4.76   576.7    3.5      55.456
2014    9        1     5  19    4.76   576.6    3.5      55.444
2014    9        1     5  25    4.75   576.6    3.5      55.432
2014    9        1     5  30    4.75   576.5    3.5      55.420
2014    9        1     5  36    4.75   576.4    3.5      55.407
2014    9        1     5  42    4.75   576.3    3.5      55.395
2014    9        1     5  47    4.75   576.2    3.5      55.382
2014    9        1     5  53    4.75   576.1    3.5      55.368
2014    9        1     5  58    4.75   576.0    3.5      55.355
2014    9        1     6   4    4.75   575.9    3.5      55.341
2014    9        1     6  10    4.75   575.8    3.5      55.327
2014    9        1     6  15    4.74   575.7    3.5      55.312
2014    9        1     6  21    4.74   575.7    3.5      55.298
2014    9        1     6  26    4.74   575.6    3.5      55.283
2014    9        1     6  32    4.74   575.5    3.5      55.268
2014    9        1     6  38    4.74   575.4    3.5      55.252
2014    9        1     6  43    4.74   575.3    3.5      55.237
2014    9        1     6  49    4.74   575.2    3.5      55.221
2014    9        1     6  54    4.74   575.1    3.5      55.205
2014    9        1     7   0    4.74   575.0    3.5      55.189
2014    9        1     7   6    4.73   574.9    3.5      55.173
2014    9        1     7  11    4.73   574.8    3.5      55.157
2014    9        1     7  17    4.73   574.7    3.5      55.141
2014    9        1     7  23    4.73   574.6    3.5      55.125
2014    9        1     7  28    4.73   574.5    3.5      55.109
2014    9        1     7  34    4.73   574.4    3.5      55.093
2014    9        1     7  39    4.73   574.3    3.5      55.078
2014    9        1     7  45    4.73   574.2    3.5      55.062
2014    9        1     7  51    4.73   574.1    3.5      55.047
2014    9        1     7  56    4.72   574.0    3.5      55.033
2014    9        1     8   2    4.72   573.9    3.5      55.018
2014    9        1     8   7    4.72   573.8    3.5      55.004
2014    9        1     8  13    4.72   573.7    3.5      54.991
2014    9        1     8  19    4.72   573.6    3.5      54.977
2014    9        1     8  24    4.72   573.5    3.5      54.965
2014    9        1     8  30    4.72   573.4    3.5      54.952
2014    9        1     8  35    4.72   573.3    3.5      54.939
2014    9        1     8  41    4.72   573.2    3.5      54.927
2014    9        1     8  47    4.72   573.1    3.5      54.915
2014    9        1     8  52    4.71   573.0    3.5      54.903
2014    9        1     8  58    4.71   572.9    3.5      54.891
2014    9        1     9   4    4.71   572.9    3.5      54.878
2014    9        1     9   9    4.71   572.8    3.5      54.866
2014    9        1     9  15    4.71   572.7    3.5      54.853
2014    9        1     9  20    4.71   572.6    3.5      54.841
2014    9        1     9  26    4.71   572.5    3.5      54.828
2014    9        1     9  32    4.71   572.4    3.5      54.815
2014    9        1     9  37    4.71   572.3    3.5      54.802
2014    9        1     9  43    4.70   572.2    3.5      54.788
2014    9        1     9  48    4.70   572.1    3.5      54.775
2014    9        1     9  54    4.70   572.0    3.5      54.761
2014    9        1    10   0    4.70   571.9    3.5      54.747
2014    9        1    10   5    4.70   571.8    3.5      54.733
2014    9        1    10  11    4.70   571.7    3.5      54.719
2014    9        1    10  16    4.70   571.6    3.5      54.705
2014    9        1    10  22    4.70   571.5    3.5      54.691
2014    9        1    10  28    4.70   571.4    3.5      54.677
2014    9        1    10  33    4.69   571.4    3.5      54.662
2014    9        1    10  39    4.69   571.3    3.5      54.648
2014    9        1    10  44    4.69   571.2    3.5      54.633
2014    9        1    10  50    4.69   571.1    3.5      54.618
2014    9        1    10  56    4.69   571.0    3.5      54.602
2014    9        1    11   1    4.69   570.9    3.5      54.587
2014    9        1    11   7    4.69   570.8    3.5      54.572
2014    9        1    11  13    4.69   570.7    3.5      54.556
2014    9        1    11  18    4.69   570.6    3.5      54.541
2014    9        1    11  24    4.68   570.5    3.5      54.525
2014    9        1    11  29    4.68   570.4    3.5      54.509
2014    9        1    11  35    4.68   570.3    3.5      54.494
2014    9        1    11  41    4.68   570.2    3.5      54.478
2014    9        1    11  46    4.68   570.1    3.5      54.463
2014    9        1    11  52    4.68   570.0    3.5      54.447
2014    9        1    11  57    4.68   569.9    3.5      54.431
2014    9        1    12   3    4.68   569.8    3.5      54.416
2014    9        1    12   9    4.67   569.7    3.5      54.400
2014    9        1    12  14    4.67   569.6    3.5      54.383
2014    9        1    12  20    4.67   569.5    3.5      54.367
2014    9        1    12  25    4.67   569.4    3.5      54.350
2014    9        1    12  31    4.67   569.3    3.5      54.333
2014    9        1    12  37    4.67   569.2    3.5      54.316
2014    9        1    12  42    4.67   569.0    3.5      54.299
2014    9        1    12  48    4.66   568.9    3.5      54.282
2014    9        1    12  53    4.66   568.8    3.5      54.265
2014    9        1    12  59    4.66   568.7    3.5      54.248
2014    9        1    13   5    4.66   568.6    3.5      54.231
2014    9        1    13  10    4.66   568.5    3.5      54.214
2014    9        1    13  16    4.66   568.4    3.5      54.196
2014    9        1    13  22    4.66   568.3    3.5      54.179
2014    9        1    13  27    4.66   568.2    3.5      54.162
2014    9        1    13  33    4.65   568.1    3.5      54.145
2014    9        1    13  38    4.65   568.0    3.5      54.128
2014    9        1    13  44    4.65   567.8    3.5      54.111
2014    9        1    13  50    4.65   567.7    3.5      54.094
2014    9        1    13  55    4.65   567.6    3.5      54.077
2014    9        1    14   1    4.65   567.5    3.5      54.059
2014    9        1    14   6    4.65   567.4    3.5      54.042
2014    9        1    14  12    4.65   567.3    3.5      54.024
2014    9        1    14  18    4.64   567.2    3.5      54.005
2014    9        1    14  23    4.64   567.0    3.5      53.987
2014    9        1    14  29    4.64   566.9    3.5      53.969
2014    9        1    14  34    4.64   566.8    3.5      53.950
2014    9        1    14  40    4.64   566.7    3.5      53.932
2014    9        1    14  46    4.64   566.6    3.5      53.913
2014    9        1    14  51    4.64   566.4    3.5      53.895
2014    9        1    14  57    4.63   566.3    3.5      53.878
2014    9        1    15   3    4.63   566.2    3.5      53.860
2014    9        1    15   8    4.63   566.1    3.5      53.843
2014    9        1    15  14    4.63   566.0    3.5      53.826
2014    9        1    15  19    4.63   565.8    3.5      53.809
2014    9        1    15  25    4.63   565.7    3.5      53.793
2014    9        1    15  31    4.63   565.6    3.5      53.778
2014    9        1    15  36    4.63   565.5    3.5      53.762
2014    9        1    15  42    4.62   565.3    3.5      53.747
2014    9        1    15  47    4.62   565.2    3.5      53.733
2014    9        1    15  53    4.62   565.1    3.5      53.718
2014    9        1    15  59    4.62   565.0    3.5      53.704
2014    9        1    16   4    4.62   564.9    3.5      53.689
2014    9        1    16  10    4.62   564.7    3.5      53.675
2014    9        1    16  15    4.62   564.6    3.5      53.661
2014    9        1    16  21    4.62   564.5    3.5      53.647
2014    9        1    16  27    4.61   564.4    3.5      53.633
2014    9        1    16  32    4.61   564.3    3.5      53.620
2014    9        1    16  38    4.61   564.1    3.5      53.606
2014    9        1    16  43    4.61   564.0    3.5      53.593
2014    9        1    16  49    4.61   563.9    3.5      53.580
2014    9        1    16  55    4.61   563.8    3.5      53.568
2014    9        1    17   0    4.61   563.6    3.5      53.555
2014    9        1    17   6    4.61   563.5    3.5      53.543
2014    9        1    17  12    4.61   563.4    3.5      53.532
2014    9        1    17  17    4.60   563.3    3.5      53.520
2014    9        1    17  23    4.60   563.2    3.5      53.507
2014    9        1    17  28    4.60   563.1    3.5      53.494
2014    9        1    17  34    4.60   562.9    3.5      53.481
2014    9        1    17  40    4.60   562.8    3.5      53.467
2014    9        1    17  45    4.60   562.7    3.5      53.453
2014    9        1    17  51    4.60   562.6    3.5      53.439
2014    9        1    17  56    4.60   562.5    3.5      53.424
2014    9        1    18   2    4.59   562.4    3.5      53.409
2014    9        1    18   8    4.59   562.2    3.5      53.394
2014    9        1    18  13    4.59   562.1    3.5      53.378
2014    9        1    18  19    4.59   562.0    3.5      53.362
2014    9        1    18  24    4.59   561.9    3.5      53.346
2014    9        1    18  30    4.59   561.8    3.5      53.329
2014    9        1    18  36    4.59   561.7    3.5      53.313
2014    9        1    18  41    4.59   561.5    3.5      53.296
2014    9        1    18  47    4.58   561.4    3.5      53.279
2014    9        1    18  53    4.58   561.3    3.5      53.262
2014    9        1    18  58    4.58   561.2    3.5      53.245
2014    9        1    19   4    4.58   561.1    3.5      53.227
2014    9        1    19   9    4.58   561.0    3.5      53.209
2014    9        1    19  15    4.58   560.8    3.5      53.191
2014    9        1    19  21    4.58   560.7    3.5      53.172
2014    9        1    19  26    4.58   560.6    3.5      53.153
2014    9        1    19  32    4.57   560.5    3.5      53.134
2014    9        1    19  37    4.57   560.4    3.5      53.115
2014    9        1    19  43    4.57   560.3    3.5      53.095
2014    9        1    19  49    4.57   560.1    3.5      53.075
2014    9        1    19  54    4.57   560.0    3.5      53.056
2014    9        1    20   0    4.57   559.9    3.5      53.035
2014    9        1    20   5    4.57   559.8    3.5      53.015
2014    9        1    20  11    4.56   559.7    3.5      52.995
2014    9        1    20  17    4.56   559.6    3.5      52.975
2014    9        1    20  22    4.56   559.4    3.5      52.955
2014    9        1    20  28    4.56   559.3    3.5      52.934
2014    9        1    20  33    4.56   559.2    3.5      52.913
2014    9        1    20  39    4.56   559.1    3.5      52.893
2014    9        1    20  45    4.56   559.0    3.5      52.873
2014    9        1    20  50    4.56   558.9    3.5      52.852
2014    9        1    20  56    4.55   558.7    3.5      52.833
2014    9        1    21   2    4.55   558.6    3.5      52.813
2014    9        1    21   7    4.55   558.5    3.5      52.793
2014    9        1    21  13    4.55   558.4    3.5      52.773
2014    9        1    21  18    4.55   558.3    3.5      52.754
2014    9        1    21  24    4.55   558.2    3.5      52.733
2014    9        1    21  30    4.55   558.0    3.5      52.712
2014    9        1    21  35    4.54   557.9    3.5      52.691
2014    9        1    21  41    4.54   557.8    3.5      52.670
2014    9        1    21  46    4.54   557.7    3.5      52.648
2014    9        1    21  52    4.54   557.6    3.5      52.626
2014    9        1    21  58    4.54   557.5    3.5      52.603
2014    9        1    22   3    4.54   557.3    3.5      52.581
2014    9        1    22   9    4.54   557.2    3.5      52.558
2014    9        1    22  14    4.53   557.1    3.5      52.535
2014    9        1    22  20    4.53   557.0    3.5      52.512
2014    9        1    22  26    4.53   556.9    3.5      52.488
2014    9        1    22  31    4.53   556.7    3.5      52.465
2014    9        1    22  37    4.53   556.6    3.5      52.442
2014    9        1    22  42    4.53   556.5    3.5      52.419
2014    9        1    22  48    4.53   556.3    3.5      52.396
2014    9        1    22  54    4.52   556.2    3.5      52.373
2014    9        1    22  59    4.52   556.1    3.5      52.350
2014    9        1    23   5    4.52   556.0    3.5      52.328
2014    9        1    23  11    4.52   555.8    3.5      52.306
2014    9        1    23  16    4.52   555.7    3.5      52.284
2014    9        1    23  22    4.52   555.6    3.5      52.263
2014    9        1    23  27    4.52   555.4    3.5      52.242
2014    9        1    23  33    4.51   555.3    3.5      52.221
2014    9        1    23  39    4.51   555.2    3.5      52.200
2014    9        1    23  44    4.51   555.0    3.5      52.180
2014    9        1    23  50    4.51   554.9    3.5      52.160
2014    9        1    23  55    4.51   554.8    3.5      52.141
2014    9        2     0   1    4.51   554.6    3.5      52.123
2014    9        2     0   7    4.51   554.5    3.5      52.105
2014    9        2     0  12    4.50   554.4    3.5      52.088
2014    9        2     0  18    4.50   554.2    3.5      52.071
2014    9        2     0  23    4.50   554.1    3.5      52.055
2014    9        2     0  29    4.50   554.0    3.5      52.039
2014    9        2     0  35    4.50   553.8    3.5      52.023
2014    9        2     0  40    4.50   553.7    3.5      52.007
2014    9        2     0  46    4.50   553.5    3.5      51.991
2014    9        2     0  51    4.49   553.4    3.5      51.975
2014    9        2     0  57    4.49   553.3    3.5      51.959
2014    9        2     1   3    4.49   553.1    3.5      51.944
2014    9        2     1   8    4.49   553.0    3.5      51.929
2014    9        2     1  14    4.49   552.9    3.5      51.913
2014    9        2     1  20    4.49   552.7    3.5      51.898
2014    9        2     1  25    4.49   552.6    3.5      51.882
2014    9        2     1  31    4.49   552.4    3.5      51.866
2014    9        2     1  36    4.48   552.3    3.5      51.850
2014    9        2     1  42    4.48   552.1    3.5      51.834
2014    9        2     1  48    4.48   552.0    3.5      51.818
2014    9        2     1  53    4.48   551.9    3.5      51.802
2014    9        2     1  59    4.48   551.7    3.5      51.787
2014    9        2     2   4    4.48   551.6    3.5      51.771
2014    9        2     2  10    4.48   551.4    3.5      51.756
2014    9        2     2  16    4.48   551.3    3.5      51.741
2014    9        2     2  21    4.47   551.1    3.5      51.727
2014    9        2     2  27    4.47   551.0    3.5      51.712
2014    9        2     2  32    4.47   550.8    3.5      51.698
2014    9        2     2  38    4.47   550.7    3.5      51.685
2014    9        2     2  44    4.47   550.5    3.5      51.673
2014    9        2     2  49    4.47   550.4    3.5      51.661
2014    9        2     2  55    4.47   550.2    3.5      51.651
2014    9        2     3   1    4.47   550.1    3.5      51.641
2014    9        2     3   6    4.47   550.0    3.5      51.632
2014    9        2     3  12    4.46   549.8    3.5      51.623
2014    9        2     3  17    4.46   549.7    3.5      51.614
2014    9        2     3  23    4.46   549.6    3.5      51.603
2014    9        2     3  29    4.46   549.4    3.5      51.593
2014    9        2     3  34    4.46   549.3    3.5      51.581
2014    9        2     3  40    4.46   549.1    3.5      51.569
2014    9        2     3  45    4.46   549.0    3.5      51.556
2014    9        2     3  51    4.46   548.9    3.5      51.543
2014    9        2     3  57    4.46   548.8    3.5      51.529
2014    9        2     4   2    4.45   548.6    3.5      51.515
2014    9        2     4   8    4.45   548.5    3.5      51.500
2014    9        2     4  13    4.45   548.4    3.5      51.484
2014    9        2     4  19    4.45   548.2    3.5      51.468
2014    9        2     4  25    4.45   548.1    3.5      51.452
2014    9        2     4  30    4.45   548.0    3.5      51.434
2014    9        2     4  36    4.45   547.9    3.5      51.416
2014    9        2     4  41    4.45   547.8    3.5      51.398
2014    9        2     4  47    4.44   547.6    3.5      51.379
2014    9        2     4  53    4.44   547.5    3.5      51.359
2014    9        2     4  58    4.44   547.4    3.5      51.339
2014    9        2     5   4    4.44   547.3    3.5      51.318
2014    9        2     5  10    4.44   547.1    3.5      51.296
2014    9        2     5  15    4.44   547.0    3.5      51.274
2014    9        2     5  21    4.44   546.9    3.5      51.251
2014    9        2     5  26    4.43   546.8    3.5      51.228
2014    9        2     5  32    4.43   546.6    3.5      51.204
2014    9        2     5  38    4.43   546.5    3.5      51.180
2014    9        2     5  43    4.43   546.4    3.5      51.155
2014    9        2     5  49    4.43   546.3    3.5      51.130
2014    9        2     5  54    4.43   546.2    3.5      51.104
2014    9        2     6   0    4.43   546.0    3.5      51.078
2014    9        2     6   6    4.42   545.9    3.5      51.052
2014    9        2     6  11    4.42   545.8    3.5      51.026
2014    9        2     6  17    4.42   545.6    3.5      50.999
2014    9        2     6  22    4.42   545.5    3.5      50.971
2014    9        2     6  28    4.42   545.4    3.5      50.944
2014    9        2     6  34    4.42   545.3    3.5      50.916
2014    9        2     6  39    4.42   545.1    3.5      50.888
2014    9        2     6  45    4.41   545.0    3.5      50.860
2014    9        2     6  51    4.41   544.9    3.5      50.832
2014    9        2     6  56    4.41   544.7    3.5      50.803
2014    9        2     7   2    4.41   544.6    3.5      50.774
2014    9        2     7   7    4.41   544.5    3.5      50.745
2014    9        2     7  13    4.41   544.3    3.5      50.717
2014    9        2     7  19    4.40   544.2    3.5      50.688
2014    9        2     7  24    4.40   544.1    3.5      50.659
2014    9        2     7  30    4.40   543.9    3.5      50.631
2014    9        2     7  35    4.40   543.8    3.5      50.602
2014    9        2     7  41    4.40   543.7    3.5      50.574
2014    9        2     7  47    4.40   543.5    3.5      50.546
2014    9        2     7  52    4.40   543.4    3.5      50.519
2014    9        2     7  58    4.39   543.3    3.5      50.493
2014    9        2     8   3    4.39   543.1    3.5      50.467
2014    9        2     8   9    4.39   543.0    3.5      50.442
2014    9        2     8  15    4.39   542.8    3.5      50.417
2014    9        2     8  20    4.39   542.7    3.5      50.392
2014    9        2     8  26    4.39   542.6    3.5      50.368
2014    9        2     8  31    4.39   542.4    3.5      50.343
2014    9        2     8  37    4.39   542.3    3.5      50.319
2014    9        2     8  43    4.38   542.1    3.5      50.295
2014    9        2     8  48    4.38   542.0    3.5      50.272
2014    9        2     8  54    4.38   541.9    3.5      50.248
2014    9        2     9   0    4.38   541.7    3.5      50.225
2014    9        2     9   5    4.38   541.6    3.5      50.202
2014    9        2     9  11    4.38   541.4    3.5      50.179
2014    9        2     9  16    4.38   541.3    3.5      50.156
2014    9        2     9  22    4.37   541.1    3.5      50.134
2014    9        2     9  28    4.37   541.0    3.5      50.112
2014    9        2     9  33    4.37   540.8    3.5      50.091
2014    9        2     9  39    4.37   540.6    3.5      50.071
2014    9        2     9  44    4.37   540.5    3.5      50.050
2014    9        2     9  50    4.37   540.3    3.5      50.031
2014    9        2     9  56    4.37   540.2    3.5      50.013
2014    9        2    10   1    4.37   540.0    3.5      49.996
2014    9        2    10   7    4.36   539.8    3.5      49.981
2014    9        2    10  12    4.36   539.7    3.5      49.966
2014    9        2    10  18    4.36   539.5    3.5      49.953
2014    9        2    10  24    4.36   539.4    3.5      49.941
2014    9        2    10  29    4.36   539.2    3.5      49.929
2014    9        2    10  35    4.36   539.1    3.5      49.917
2014    9        2    10  40    4.36   538.9    3.5      49.905
2014    9        2    10  46    4.36   538.7    3.6      49.894
2014    9        2    10  52    4.36   538.6    3.6      49.883
2014    9        2    10  57    4.35   538.4    3.6      49.873
2014    9        2    11   3    4.35   538.3    3.6      49.863
2014    9        2    11   9    4.35   538.1    3.6      49.853
2014    9        2    11  14    4.35   538.0    3.6      49.843
2014    9        2    11  20    4.35   537.8    3.6      49.833
2014    9        2    11  25    4.35   537.7    3.6      49.823
2014    9        2    11  31    4.35   537.6    3.6      49.812
2014    9        2    11  37    4.35   537.4    3.6      49.801
2014    9        2    11  42    4.35   537.3    3.6      49.789
2014    9        2    11  48    4.34   537.1    3.6      49.777
2014    9        2    11  53    4.34   537.0    3.6      49.764
2014    9        2    11  59    4.34   536.8    3.6      49.751
2014    9        2    12   5    4.34   536.7    3.6      49.738
2014    9        2    12  10    4.34   536.5    3.6      49.724
2014    9        2    12  16    4.34   536.4    3.6      49.709
2014    9        2    12  21    4.34   536.2    3.6      49.694
2014    9        2    12  27    4.34   536.1    3.6      49.679
2014    9        2    12  33    4.33   535.9    3.6      49.663
2014    9        2    12  38    4.33   535.8    3.6      49.647
2014    9        2    12  44    4.33   535.6    3.6      49.631
2014    9        2    12  50    4.33   535.4    3.6      49.615
2014    9        2    12  55    4.33   535.3    3.6      49.598
2014    9        2    13   1    4.33   535.1    3.6      49.581
2014    9        2    13   6    4.33   535.0    3.6      49.565
2014    9        2    13  12    4.33   534.8    3.6      49.550
2014    9        2    13  18    4.33   534.7    3.6      49.535
2014    9        2    13  23    4.32   534.5    3.6      49.520
2014    9        2    13  29    4.32   534.4    3.6      49.505
2014    9        2    13  34    4.32   534.2    3.6      49.490
2014    9        2    13  40    4.32   534.1    3.6      49.476
2014    9        2    13  46    4.32   533.9    3.6      49.460
2014    9        2    13  51    4.32   533.8    3.6      49.444
2014    9        2    13  57    4.32   533.6    3.6      49.428
2014    9        2    14   2    4.32   533.5    3.6      49.410
2014    9        2    14   8    4.32   533.3    3.6      49.392
2014    9        2    14  14    4.32   533.2    3.6      49.373
2014    9        2    14  19    4.31   533.1    3.6      49.354
2014    9        2    14  25    4.31   532.9    3.6      49.334
2014    9        2    14  30    4.31   532.8    3.6      49.313
2014    9        2    14  36    4.31   532.6    3.6      49.292
2014    9        2    14  42    4.31   532.5    3.6      49.270
2014    9        2    14  47    4.31   532.4    3.6      49.247
2014    9        2    14  53    4.31   532.2    3.6      49.224
2014    9        2    14  59    4.31   532.1    3.6      49.201
2014    9        2    15   4    4.31   532.0    3.6      49.176
2014    9        2    15  10    4.30   531.8    3.6      49.152
2014    9        2    15  15    4.30   531.7    3.6      49.127
2014    9        2    15  21    4.30   531.6    3.6      49.101
2014    9        2    15  27    4.30   531.4    3.6      49.075
2014    9        2    15  32    4.30   531.3    3.6      49.049
2014    9        2    15  38    4.30   531.1    3.6      49.023
2014    9        2    15  43    4.30   531.0    3.6      48.995
2014    9        2    15  49    4.29   530.9    3.6      48.968
2014    9        2    15  55    4.29   530.7    3.6      48.940
2014    9        2    16   0    4.29   530.6    3.6      48.912
2014    9        2    16   6    4.29   530.5    3.6      48.883
2014    9        2    16  11    4.29   530.3    3.6      48.855
2014    9        2    16  17    4.29   530.2    3.6      48.825
2014    9        2    16  23    4.29   530.1    3.6      48.796
2014    9        2    16  28    4.29   529.9    3.6      48.766
2014    9        2    16  34    4.28   529.8    3.6      48.736
2014    9        2    16  39    4.28   529.6    3.6      48.706
2014    9        2    16  45    4.28   529.5    3.6      48.676
2014    9        2    16  51    4.28   529.3    3.6      48.645
2014    9        2    16  56    4.28   529.2    3.6      48.615
2014    9        2    17   2    4.28   529.0    3.6      48.585
2014    9        2    17   8    4.28   528.9    3.6      48.554
2014    9        2    17  13    4.27   528.7    3.6      48.524
2014    9        2    17  19    4.27   528.6    3.6      48.495
2014    9        2    17  24    4.27   528.4    3.6      48.465
2014    9        2    17  30    4.27   528.3    3.6      48.436
2014    9        2    17  36    4.27   528.1    3.6      48.408
2014    9        2    17  41    4.27   528.0    3.6      48.380
2014    9        2    17  47    4.27   527.8    3.6      48.353
2014    9        2    17  52    4.27   527.7    3.6      48.326
2014    9        2    17  58    4.26   527.5    3.6      48.300
2014    9        2    18   4    4.26   527.4    3.6      48.276
2014    9        2    18   9    4.26   527.2    3.6      48.252
2014    9        2    18  15    4.26   527.1    3.6      48.230
2014    9        2    18  20    4.26   526.9    3.6      48.208
2014    9        2    18  26    4.26   526.8    3.6      48.187
2014    9        2    18  32    4.26   526.6    3.6      48.166
2014    9        2    18  37    4.26   526.5    3.6      48.146
2014    9        2    18  43    4.26   526.3    3.6      48.125
2014    9        2    18  48    4.25   526.2    3.6      48.105
2014    9        2    18  54    4.25   526.0    3.6      48.084
2014    9        2    19   0    4.25   525.9    3.6      48.064
2014    9        2    19   5    4.25   525.7    3.6      48.043
2014    9        2    19  11    4.25   525.6    3.6      48.022
2014    9        2    19  17    4.25   525.4    3.6      48.002
2014    9        2    19  22    4.25   525.2    3.6      47.980
2014    9        2    19  28    4.25   525.1    3.6      47.959
2014    9        2    19  33    4.25   524.9    3.6      47.938
2014    9        2    19  39    4.24   524.7    3.6      47.917
2014    9        2    19  45    4.24   524.6    3.6      47.897
2014    9        2    19  50    4.24   524.4    3.6      47.876
2014    9        2    19  56    4.24   524.2    3.6      47.855
2014    9        2    20   1    4.24   524.1    3.6      47.835
2014    9        2    20   7    4.24   523.9    3.6      47.816
2014    9        2    20  13    4.24   523.7    3.6      47.797
2014    9        2    20  18    4.24   523.5    3.6      47.778
2014    9        2    20  24    4.24   523.4    3.6      47.760
2014    9        2    20  29    4.24   523.2    3.6      47.743
2014    9        2    20  35    4.23   523.0    3.6      47.728
2014    9        2    20  41    4.23   522.9    3.6      47.713
2014    9        2    20  46    4.23   522.7    3.6      47.700
2014    9        2    20  52    4.23   522.5    3.6      47.688
2014    9        2    20  58    4.23   522.4    3.6      47.676
2014    9        2    21   3    4.23   522.2    3.6      47.666
2014    9        2    21   9    4.23   522.0    3.6      47.655
2014    9        2    21  14    4.23   521.9    3.6      47.644
2014    9        2    21  20    4.23   521.7    3.6      47.634
2014    9        2    21  26    4.23   521.6    3.6      47.623
2014    9        2    21  31    4.23   521.4    3.6      47.612
2014    9        2    21  37    4.23   521.3    3.6      47.601
2014    9        2    21  42    4.23   521.1    3.6      47.590
2014    9        2    21  48    4.22   520.9    3.7      47.578
2014    9        2    21  54    4.22   520.8    3.7      47.565
2014    9        2    21  59    4.22   520.6    3.7      47.552
2014    9        2    22   5    4.22   520.5    3.7      47.538
2014    9        2    22  10    4.22   520.3    3.7      47.524
2014    9        2    22  16    4.22   520.1    3.7      47.509
2014    9        2    22  22    4.22   520.0    3.7      47.493
2014    9        2    22  27    4.22   519.8    3.7      47.477
2014    9        2    22  33    4.22   519.7    3.7      47.461
2014    9        2    22  38    4.22   519.5    3.7      47.444
2014    9        2    22  44    4.22   519.4    3.7      47.426
2014    9        2    22  50    4.21   519.2    3.7      47.408
2014    9        2    22  55    4.21   519.0    3.7      47.390
2014    9        2    23   1    4.21   518.9    3.7      47.371
2014    9        2    23   7    4.21   518.7    3.7      47.352
2014    9        2    23  12    4.21   518.6    3.7      47.333
2014    9        2    23  18    4.21   518.4    3.7      47.313
2014    9        2    23  23    4.21   518.3    3.7      47.293
2014    9        2    23  29    4.21   518.1    3.7      47.272
2014    9        2    23  35    4.21   518.0    3.7      47.251
2014    9        2    23  40    4.21   517.8    3.7      47.230
2014    9        2    23  46    4.20   517.6    3.7      47.209
2014    9        2    23  51    4.20   517.5    3.7      47.188
2014    9        2    23  57    4.20   517.3    3.7      47.166
2014    9        3     0   3    4.20   517.2    3.7      47.144
2014    9        3     0   8    4.20   517.0    3.7      47.122
2014    9        3     0  14    4.20   516.9    3.7      47.100
2014    9        3     0  19    4.20   516.7    3.7      47.078
2014    9        3     0  25    4.20   516.6    3.7      47.055
2014    9        3     0  31    4.20   516.4    3.7      47.032
2014    9        3     0  36    4.20   516.3    3.7      47.008
2014    9        3     0  42    4.20   516.1    3.7      46.984
2014    9        3     0  47    4.19   516.0    3.7      46.960
2014    9        3     0  53    4.19   515.8    3.7      46.936
2014    9        3     0  59    4.19   515.7    3.7      46.911
2014    9        3     1   4    4.19   515.5    3.7      46.886
2014    9        3     1  10    4.19   515.4    3.7      46.862
2014    9        3     1  16    4.19   515.2    3.7      46.837
2014    9        3     1  21    4.19   515.1    3.7      46.811
2014    9        3     1  27    4.19   514.9    3.7      46.786
2014    9        3     1  32    4.19   514.8    3.7      46.760
2014    9        3     1  38    4.19   514.6    3.7      46.734
2014    9        3     1  44    4.18   514.5    3.7      46.709
2014    9        3     1  49    4.18   514.3    3.7      46.682
2014    9        3     1  55    4.18   514.2    3.7      46.656
2014    9        3     2   0    4.18   514.0    3.7      46.629
2014    9        3     2   6    4.18   513.9    3.7      46.602
2014    9        3     2  12    4.18   513.7    3.7      46.575
2014    9        3     2  17    4.18   513.6    3.7      46.547
2014    9        3     2  23    4.18   513.4    3.7      46.520
2014    9        3     2  28    4.18   513.3    3.7      46.492
2014    9        3     2  34    4.18   513.1    3.7      46.463
2014    9        3     2  40    4.17   513.0    3.7      46.435
2014    9        3     2  45    4.17   512.8    3.7      46.406
2014    9        3     2  51    4.17   512.7    3.7      46.377
2014    9        3     2  56    4.17   512.5    3.7      46.349
2014    9        3     3   2    4.17   512.3    3.7      46.320
2014    9        3     3   8    4.17   512.2    3.7      46.291
2014    9        3     3  13    4.17   512.0    3.7      46.262
2014    9        3     3  19    4.17   511.9    3.7      46.234
2014    9        3     3  25    4.17   511.7    3.7      46.206
2014    9        3     3  30    4.17   511.5    3.7      46.178
2014    9        3     3  36    4.16   511.4    3.7      46.151
2014    9        3     3  41    4.16   511.2    3.7      46.124
2014    9        3     3  47    4.16   511.0    3.7      46.098
2014    9        3     3  53    4.16   510.9    3.7      46.072
2014    9        3     3  58    4.16   510.7    3.7      46.047
2014    9        3     4   4    4.16   510.6    3.7      46.023
2014    9        3     4   9    4.16   510.4    3.7      45.999
2014    9        3     4  15    4.16   510.2    3.7      45.976
2014    9        3     4  21    4.16   510.1    3.7      45.953
2014    9        3     4  26    4.16   509.9    3.7      45.931
2014    9        3     4  32    4.16   509.8    3.7      45.910
2014    9        3     4  37    4.16   509.6    3.7      45.889
2014    9        3     4  43    4.16   509.5    3.7      45.869
2014    9        3     4  49    4.15   509.3    3.7      45.850
2014    9        3     4  54    4.15   509.2    3.7      45.831
2014    9        3     5   0    4.15   509.0    3.7      45.812
2014    9        3     5   5    4.15   508.8    3.7      45.793
2014    9        3     5  11    4.15   508.7    3.7      45.775
2014    9        3     5  17    4.15   508.5    3.7      45.756
2014    9        3     5  22    4.15   508.4    3.7      45.737
2014    9        3     5  28    4.15   508.2    3.7      45.718
2014    9        3     5  34    4.15   508.0    3.7      45.699
2014    9        3     5  39    4.15   507.9    3.7      45.680
2014    9        3     5  45    4.15   507.7    3.7      45.661
2014    9        3     5  50    4.15   507.5    3.7      45.642
2014    9        3     5  56    4.15   507.4    3.7      45.623
2014    9        3     6   2    4.14   507.2    3.7      45.603
2014    9        3     6   7    4.14   507.0    3.7      45.584
2014    9        3     6  13    4.14   506.9    3.7      45.565
2014    9        3     6  18    4.14   506.7    3.7      45.545
2014    9        3     6  24    4.14   506.5    3.7      45.526
2014    9        3     6  30    4.14   506.4    3.7      45.507
2014    9        3     6  35    4.14   506.2    3.7      45.488
2014    9        3     6  41    4.14   506.0    3.7      45.469
2014    9        3     6  46    4.14   505.9    3.7      45.450
2014    9        3     6  52    4.14   505.7    3.8      45.431
2014    9        3     6  58    4.14   505.5    3.8      45.413
2014    9        3     7   3    4.14   505.4    3.8      45.395
2014    9        3     7   9    4.14   505.2    3.8      45.376
2014    9        3     7  14    4.14   505.0    3.8      45.358
2014    9        3     7  20    4.13   504.9    3.8      45.341
2014    9        3     7  26    4.13   504.7    3.8      45.323
2014    9        3     7  31    4.13   504.5    3.8      45.306
2014    9        3     7  37    4.13   504.4    3.8      45.289
2014    9        3     7  43    4.13   504.2    3.8      45.272
2014    9        3     7  48    4.13   504.0    3.8      45.256
2014    9        3     7  54    4.13   503.9    3.8      45.239
2014    9        3     7  59    4.13   503.7    3.8      45.222
2014    9        3     8   5    4.13   503.5    3.8      45.205
2014    9        3     8  11    4.13   503.4    3.8      45.188
2014    9        3     8  16    4.13   503.2    3.8      45.170
2014    9        3     8  22    4.13   503.1    3.8      45.153
2014    9        3     8  27    4.13   502.9    3.8      45.135
2014    9        3     8  33    4.13   502.7    3.8      45.117
2014    9        3     8  39    4.13   502.6    3.8      45.098
2014    9        3     8  44    4.13   502.4    3.8      45.080
2014    9        3     8  50    4.13   502.3    3.8      45.061
2014    9        3     8  55    4.13   502.1    3.8      45.042
2014    9        3     9   1    4.12   501.9    3.8      45.022
2014    9        3     9   7    4.12   501.8    3.8      45.003
2014    9        3     9  12    4.12   501.6    3.8      44.983
2014    9        3     9  18    4.12   501.5    3.8      44.962
2014    9        3     9  24    4.12   501.3    3.8      44.942
2014    9        3     9  29    4.12   501.1    3.8      44.921
2014    9        3     9  35    4.12   501.0    3.8      44.899
2014    9        3     9  40    4.12   500.8    3.8      44.878
2014    9        3     9  46    4.12   500.7    3.8      44.856
2014    9        3     9  52    4.12   500.5    3.8      44.833
2014    9        3     9  57    4.12   500.4    3.8      44.810
2014    9        3    10   3    4.12   500.2    3.8      44.787
2014    9        3    10   8    4.12   500.0    3.8      44.764
2014    9        3    10  14    4.12   499.9    3.8      44.740
2014    9        3    10  20    4.12   499.7    3.8      44.716
2014    9        3    10  25    4.11   499.6    3.8      44.692
2014    9        3    10  31    4.11   499.4    3.8      44.667
2014    9        3    10  36    4.11   499.3    3.8      44.642
2014    9        3    10  42    4.11   499.1    3.8      44.617
2014    9        3    10  48    4.11   498.9    3.8      44.592
2014    9        3    10  53    4.11   498.8    3.8      44.567
2014    9        3    10  59    4.11   498.6    3.8      44.541
2014    9        3    11   4    4.11   498.5    3.8      44.515
2014    9        3    11  10    4.11   498.3    3.8      44.489
2014    9        3    11  16    4.11   498.2    3.8      44.464
2014    9        3    11  21    4.11   498.0    3.8      44.438
2014    9        3    11  27    4.11   497.8    3.8      44.412
2014    9        3    11  33    4.11   497.7    3.8      44.386
2014    9        3    11  38    4.10   497.5    3.8      44.360
2014    9        3    11  44    4.10   497.4    3.8      44.334
2014    9        3    11  49    4.10   497.2    3.8      44.308
2014    9        3    11  55    4.10   497.1    3.8      44.282
2014    9        3    12   1    4.10   496.9    3.8      44.256
2014    9        3    12   6    4.10   496.8    3.8      44.231
2014    9        3    12  12    4.10   496.6    3.8      44.205
2014    9        3    12  17    4.10   496.4    3.8      44.179
2014    9        3    12  23    4.10   496.3    3.8      44.153
2014    9        3    12  29    4.10   496.1    3.8      44.128
2014    9        3    12  34    4.10   496.0    3.8      44.102
2014    9        3    12  40    4.10   495.8    3.8      44.076
2014    9        3    12  45    4.10   495.7    3.8      44.051
2014    9        3    12  51    4.10   495.5    3.8      44.025
2014    9        3    12  57    4.10   495.3    3.8      43.999
2014    9        3    13   2    4.09   495.2    3.8      43.974
2014    9        3    13   8    4.09   495.0    3.8      43.949
2014    9        3    13  13    4.09   494.9    3.8      43.923
2014    9        3    13  19    4.09   494.7    3.8      43.898
2014    9        3    13  25    4.09   494.5    3.8      43.873
2014    9        3    13  30    4.09   494.4    3.8      43.848
2014    9        3    13  36    4.09   494.2    3.8      43.824
2014    9        3    13  42    4.09   494.1    3.9      43.799
2014    9        3    13  47    4.09   493.9    3.9      43.775
2014    9        3    13  53    4.09   493.7    3.9      43.752
2014    9        3    13  58    4.09   493.6    3.9      43.728
2014    9        3    14   4    4.09   493.4    3.9      43.705
2014    9        3    14  10    4.09   493.2    3.9      43.682
2014    9        3    14  15    4.09   493.1    3.9      43.660
2014    9        3    14  21    4.09   492.9    3.9      43.639
2014    9        3    14  26    4.09   492.7    3.9      43.617
2014    9        3    14  32    4.09   492.6    3.9      43.596
2014    9        3    14  38    4.08   492.4    3.9      43.576
2014    9        3    14  43    4.08   492.2    3.9      43.556
2014    9        3    14  49    4.08   492.1    3.9      43.536
2014    9        3    14  54    4.08   491.9    3.9      43.517
2014    9        3    15   0    4.08   491.8    3.9      43.498
2014    9        3    15   6    4.08   491.6    3.9      43.479
2014    9        3    15  11    4.08   491.4    3.9      43.461
2014    9        3    15  17    4.08   491.3    3.9      43.443
2014    9        3    15  22    4.08   491.1    3.9      43.425
2014    9        3    15  28    4.08   491.0    3.9      43.407
2014    9        3    15  34    4.08   490.8    3.9      43.389
2014    9        3    15  39    4.08   490.6    3.9      43.372
2014    9        3    15  45    4.08   490.5    3.9      43.354
2014    9        3    15  51    4.08   490.3    3.9      43.337
2014    9        3    15  56    4.08   490.2    3.9      43.319
2014    9        3    16   2    4.08   490.0    3.9      43.302
2014    9        3    16   7    4.08   489.8    3.9      43.284
2014    9        3    16  13    4.08   489.7    3.9      43.267
2014    9        3    16  19    4.08   489.5    3.9      43.249
2014    9        3    16  24    4.08   489.4    3.9      43.231
2014    9        3    16  30    4.08   489.2    3.9      43.213
2014    9        3    16  35    4.08   489.0    3.9      43.194
2014    9        3    16  41    4.08   488.9    3.9      43.175
2014    9        3    16  47    4.08   488.7    3.9      43.156
2014    9        3    16  52    4.08   488.6    3.9      43.136
2014    9        3    16  58    4.08   488.4    3.9      43.116
2014    9        3    17   3    4.08   488.2    3.9      43.096
2014    9        3    17   9    4.08   488.1    3.9      43.074
2014    9        3    17  15    4.07   487.9    3.9      43.053
2014    9        3    17  20    4.07   487.8    3.9      43.031
2014    9        3    17  26    4.07   487.6    3.9      43.009
2014    9        3    17  31    4.07   487.4    3.9      42.986
2014    9        3    17  37    4.07   487.3    4.0      42.963
2014    9        3    17  43    4.07   487.1    4.0      42.940
2014    9        3    17  48    4.07   487.0    4.0      42.916
2014    9        3    17  54    4.07   486.8    4.0      42.892
2014    9        3    18   0    4.07   486.6    4.0      42.868
2014    9        3    18   5    4.07   486.5    4.0      42.844
2014    9        3    18  11    4.07   486.3    4.0      42.819
2014    9        3    18  16    4.07   486.2    4.0      42.794
2014    9        3    18  22    4.07   486.0    4.0      42.769
2014    9        3    18  28    4.07   485.9    4.0      42.743
2014    9        3    18  33    4.07   485.7    4.0      42.718
2014    9        3    18  39    4.07   485.5    4.0      42.692
2014    9        3    18  44    4.07   485.4    4.0      42.666
2014    9        3    18  50    4.07   485.2    4.0      42.640
2014    9        3    18  56    4.07   485.1    4.0      42.613
2014    9        3    19   1    4.06   484.9    4.0      42.587
2014    9        3    19   7    4.06   484.7    4.0      42.560
2014    9        3    19  12    4.06   484.6    4.0      42.533
2014    9        3    19  18    4.06   484.4    4.0      42.506
2014    9        3    19  24    4.06   484.3    4.0      42.479
2014    9        3    19  29    4.06   484.1    4.0      42.452
2014    9        3    19  35    4.06   484.0    4.0      42.424
2014    9        3    19  41    4.06   483.8    4.0      42.396
2014    9        3    19  46    4.06   483.6    4.0      42.369
2014    9        3    19  52    4.06   483.5    4.0      42.341
2014    9        3    19  57    4.06   483.3    4.0      42.313
2014    9        3    20   3    4.06   483.2    4.0      42.285
2014    9        3    20   9    4.06   483.0    4.0      42.257
2014    9        3    20  14    4.06   482.8    4.0      42.229
2014    9        3    20  20    4.06   482.7    4.0      42.201
2014    9        3    20  25    4.06   482.5    4.0      42.173
2014    9        3    20  31    4.06   482.4    4.0      42.145
2014    9        3    20  37    4.06   482.2    4.0      42.117
2014    9        3    20  42    4.05   482.0    4.0      42.090
2014    9        3    20  48    4.05   481.9    4.0      42.062
2014    9        3    20  53    4.05   481.7    4.0      42.035
2014    9        3    20  59    4.05   481.5    4.0      42.008
2014    9        3    21   5    4.05   481.4    4.0      41.980
2014    9        3    21  10    4.05   481.2    4.0      41.954
2014    9        3    21  16    4.05   481.1    4.0      41.927
2014    9        3    21  21    4.05   480.9    4.0      41.901
2014    9        3    21  27    4.05   480.7    4.0      41.875
2014    9        3    21  33    4.05   480.6    4.0      41.849
2014    9        3    21  38    4.05   480.4    4.0      41.823
2014    9        3    21  44    4.05   480.2    4.0      41.798
2014    9        3    21  50    4.05   480.1    4.0      41.773
2014    9        3    21  55    4.05   479.9    4.0      41.749
2014    9        3    22   1    4.05   479.8    4.0      41.725
2014    9        3    22   6    4.05   479.6    4.0      41.701
2014    9        3    22  12    4.05   479.4    4.0      41.677
2014    9        3    22  18    4.05   479.3    4.0      41.654
2014    9        3    22  23    4.05   479.1    4.0      41.631
2014    9        3    22  29    4.05   479.0    4.0      41.608
2014    9        3    22  34    4.05   478.8    4.0      41.585
2014    9        3    22  40    4.05   478.6    4.0      41.563
2014    9        3    22  46    4.05   478.5    4.1      41.541
2014    9        3    22  51    4.05   478.3    4.1      41.519
2014    9        3    22  57    4.05   478.2    4.1      41.497
2014    9        3    23   2    4.04   478.0    4.1      41.475
2014    9        3    23   8    4.04   477.8    4.1      41.453
2014    9        3    23  14    4.04   477.7    4.1      41.432
2014    9        3    23  19    4.04   477.5    4.1      41.410
2014    9        3    23  25    4.04   477.4    4.1      41.389
2014    9        3    23  30    4.04   477.2    4.1      41.367
2014    9        3    23  36    4.04   477.0    4.1      41.346
2014    9        3    23  42    4.04   476.9    4.1      41.324
2014    9        3    23  47    4.04   476.7    4.1      41.302
2014    9        3    23  53    4.04   476.6    4.1      41.281
2014    9        3    23  59    4.04   476.4    4.1      41.258
2014    9        4     0   4    4.04   476.2    4.1      41.236
2014    9        4     0  10    4.04   476.1    4.1      41.214
2014    9        4     0  15    4.04   475.9    4.1      41.191
2014    9        4     0  21    4.04   475.8    4.1      41.168
2014    9        4     0  27    4.04   475.6    4.1      41.145
2014    9        4     0  32    4.04   475.4    4.1      41.121
2014    9        4     0  38    4.04   475.3    4.1      41.098
2014    9        4     0  43    4.04   475.1    4.1      41.074
2014    9        4     0  49    4.04   475.0    4.1      41.050
2014    9        4     0  55    4.04   474.8    4.1      41.025
2014    9        4     1   0    4.04   474.7    4.1      41.000
2014    9        4     1   6    4.04   474.5    4.1      40.975
2014    9        4     1  11    4.04   474.3    4.1      40.950
2014    9        4     1  17    4.04   474.2    4.1      40.925
2014    9        4     1  23    4.04   474.0    4.1      40.899
2014    9        4     1  28    4.04   473.9    4.1      40.873
2014    9        4     1  34    4.04   473.7    4.1      40.846
2014    9        4     1  39    4.04   473.5    4.1      40.819
2014    9        4     1  45    4.04   473.4    4.1      40.792
2014    9        4     1  51    4.04   473.2    4.1      40.766
2014    9        4     1  56    4.04   473.1    4.2      40.738
2014    9        4     2   2    4.03   472.9    4.2      40.711
2014    9        4     2   8    4.03   472.8    4.2      40.683
2014    9        4     2  13    4.03   472.6    4.2      40.655
2014    9        4     2  19    4.03   472.4    4.2      40.627
2014    9        4     2  24    4.03   472.3    4.2      40.599
2014    9        4     2  30    4.03   472.1    4.2      40.571
2014    9        4     2  36    4.03   472.0    4.2      40.542
2014    9        4     2  41    4.03   471.8    4.2      40.514
2014    9        4     2  47    4.03   471.6    4.2      40.485
2014    9        4     2  52    4.03   471.5    4.2      40.456
2014    9        4     2  58    4.03   471.3    4.2      40.427
2014    9        4     3   4    4.03   471.2    4.2      40.398
2014    9        4     3   9    4.03   471.0    4.2      40.368
2014    9        4     3  15    4.03   470.8    4.2      40.339
2014    9        4     3  20    4.03   470.7    4.2      40.309
2014    9        4     3  26    4.03   470.5    4.2      40.280
2014    9        4     3  32    4.03   470.4    4.2      40.250
2014    9        4     3  37    4.03   470.2    4.2      40.220
2014    9        4     3  43    4.03   470.0    4.2      40.190
2014    9        4     3  49    4.03   469.9    4.2      40.160
2014    9        4     3  54    4.03   469.7    4.2      40.130
2014    9        4     4   0    4.03   469.6    4.2      40.100
2014    9        4     4   5    4.03   469.4    4.2      40.070
2014    9        4     4  11    4.02   469.2    4.2      40.039
2014    9        4     4  17    4.02   469.1    4.2      40.009
2014    9        4     4  22    4.02   468.9    4.2      39.978
2014    9        4     4  28    4.02   468.8    4.2      39.948
2014    9        4     4  33    4.02   468.6    4.2      39.917
2014    9        4     4  39    4.02   468.5    4.2      39.886
2014    9        4     4  45    4.02   468.3    4.2      39.855
2014    9        4     4  50    4.02   468.1    4.2      39.824
2014    9        4     4  56    4.02   468.0    4.2      39.793
2014    9        4     5   1    4.02   467.8    4.2      39.762
2014    9        4     5   7    4.02   467.7    4.2      39.731
2014    9        4     5  13    4.02   467.5    4.2      39.700
2014    9        4     5  18    4.02   467.3    4.2      39.669
2014    9        4     5  24    4.02   467.2    4.2      39.637
2014    9        4     5  29    4.02   467.0    4.3      39.606
2014    9        4     5  35    4.02   466.9    4.3      39.574
2014    9        4     5  41    4.02   466.7    4.3      39.543
2014    9        4     5  46    4.02   466.5    4.3      39.511
2014    9        4     5  52    4.02   466.4    4.3      39.479
2014    9        4     5  57    4.02   466.2    4.3      39.448
2014    9        4     6   3    4.02   466.0    4.3      39.416
2014    9        4     6   9    4.02   465.9    4.3      39.384
2014    9        4     6  14    4.01   465.7    4.3      39.353
2014    9        4     6  20    4.01   465.6    4.3      39.321
2014    9        4     6  26    4.01   465.4    4.3      39.289
2014    9        4     6  31    4.01   465.2    4.3      39.258
2014    9        4     6  37    4.01   465.1    4.3      39.226
2014    9        4     6  42    4.01   464.9    4.3      39.195
2014    9        4     6  48    4.01   464.7    4.3      39.164
2014    9        4     6  54    4.01   464.6    4.3      39.133
2014    9        4     6  59    4.01   464.4    4.3      39.102
2014    9        4     7   5    4.01   464.3    4.3      39.071
2014    9        4     7  10    4.01   464.1    4.3      39.040
2014    9        4     7  16    4.01   463.9    4.3      39.010
2014    9        4     7  22    4.01   463.8    4.3      38.979
2014    9        4     7  27    4.01   463.6    4.3      38.949
2014    9        4     7  33    4.01   463.4    4.3      38.919
2014    9        4     7  38    4.01   463.3    4.3      38.889
2014    9        4     7  44    4.01   463.1    4.3      38.860
2014    9        4     7  50    4.01   462.9    4.3      38.831
2014    9        4     7  55    4.01   462.8    4.3      38.801
2014    9        4     8   1    4.01   462.6    4.3      38.772
2014    9        4     8   7    4.01   462.5    4.3      38.743
2014    9        4     8  12    4.01   462.3    4.3      38.715
2014    9        4     8  18    4.01   462.1    4.3      38.686
2014    9        4     8  23    4.01   462.0    4.3      38.658
2014    9        4     8  29    4.01   461.8    4.3      38.629
2014    9        4     8  35    4.01   461.7    4.3      38.600
2014    9        4     8  40    4.01   461.5    4.3      38.572
2014    9        4     8  46    4.01   461.3    4.4      38.544
2014    9        4     8  51    4.01   461.2    4.4      38.515
2014    9        4     8  57    4.00   461.0    4.4      38.487
2014    9        4     9   3    4.00   460.9    4.4      38.459
2014    9        4     9   8    4.00   460.7    4.4      38.431
2014    9        4     9  14    4.00   460.5    4.4      38.403
2014    9        4     9  19    4.00   460.4    4.4      38.375
2014    9        4     9  25    4.00   460.2    4.4      38.347
2014    9        4     9  31    4.00   460.1    4.4      38.319
2014    9        4     9  36    4.00   459.9    4.4      38.291
2014    9        4     9  42    4.00   459.7    4.4      38.262
2014    9        4     9  47    4.00   459.6    4.4      38.234
2014    9        4     9  53    4.00   459.4    4.4      38.206
2014    9        4     9  59    4.00   459.3    4.4      38.178
2014    9        4    10   4    4.00   459.1    4.4      38.150
2014    9        4    10  10    4.00   458.9    4.4      38.121
2014    9        4    10  16    4.00   458.8    4.4      38.093
2014    9        4    10  21    4.00   458.6    4.4      38.064
2014    9        4    10  27    4.00   458.5    4.4      38.035
2014    9        4    10  32    4.00   458.3    4.4      38.007
2014    9        4    10  38    4.00   458.1    4.4      37.977
2014    9        4    10  44    4.00   458.0    4.4      37.948
2014    9        4    10  49    4.00   457.8    4.4      37.919
2014    9        4    10  55    4.00   457.7    4.4      37.889
2014    9        4    11   0    4.00   457.5    4.4      37.860
2014    9        4    11   6    4.00   457.3    4.4      37.830
2014    9        4    11  12    4.00   457.2    4.4      37.800
2014    9        4    11  17    4.00   457.0    4.4      37.769
2014    9        4    11  23    3.99   456.8    4.4      37.739
2014    9        4    11  28    3.99   456.7    4.4      37.708
2014    9        4    11  34    3.99   456.5    4.5      37.677
2014    9        4    11  40    3.99   456.4    4.5      37.645
2014    9        4    11  45    3.99   456.2    4.5      37.614
2014    9        4    11  51    3.99   456.0    4.5      37.582
2014    9        4    11  56    3.99   455.9    4.5      37.550
2014    9        4    12   2    3.99   455.7    4.5      37.517
2014    9        4    12   8    3.99   455.6    4.5      37.485
2014    9        4    12  13    3.99   455.4    4.5      37.452
2014    9        4    12  19    3.99   455.2    4.5      37.419
2014    9        4    12  25    3.99   455.1    4.5      37.386
2014    9        4    12  30    3.99   454.9    4.5      37.352
2014    9        4    12  36    3.99   454.8    4.5      37.318
2014    9        4    12  41    3.99   454.6    4.5      37.284
2014    9        4    12  47    3.99   454.4    4.5      37.250
2014    9        4    12  53    3.99   454.3    4.5      37.215
2014    9        4    12  58    3.99   454.1    4.5      37.181
2014    9        4    13   4    3.99   454.0    4.5      37.146
2014    9        4    13   9    3.99   453.8    4.5      37.111
2014    9        4    13  15    3.99   453.6    4.5      37.076
2014    9        4    13  21    3.99   453.5    4.5      37.040
2014    9        4    13  26    3.99   453.3    4.5      37.005
2014    9        4    13  32    3.98   453.1    4.5      36.969
2014    9        4    13  37    3.98   453.0    4.5      36.933
2014    9        4    13  43    3.98   452.8    4.5      36.897
2014    9        4    13  49    3.98   452.6    4.5      36.861
2014    9        4    13  54    3.98   452.5    4.5      36.826
2014    9        4    14   0    3.98   452.3    4.5      36.790
2014    9        4    14   5    3.98   452.2    4.5      36.754
2014    9        4    14  11    3.98   452.0    4.5      36.718
2014    9        4    14  17    3.98   451.8    4.5      36.682
2014    9        4    14  22    3.98   451.7    4.5      36.647
2014    9        4    14  28    3.98   451.5    4.5      36.611
2014    9        4    14  34    3.98   451.3    4.6      36.575
2014    9        4    14  39    3.98   451.2    4.6      36.540
2014    9        4    14  45    3.98   451.0    4.6      36.505
2014    9        4    14  50    3.98   450.8    4.6      36.470
2014    9        4    14  56    3.98   450.7    4.6      36.435
2014    9        4    15   2    3.98   450.5    4.6      36.401
2014    9        4    15   7    3.98   450.4    4.6      36.366
2014    9        4    15  13    3.98   450.2    4.6      36.332
2014    9        4    15  18    3.98   450.0    4.6      36.298
2014    9        4    15  24    3.98   449.9    4.6      36.264
2014    9        4    15  30    3.98   449.7    4.6      36.231
2014    9        4    15  35    3.97   449.5    4.6      36.198
2014    9        4    15  41    3.97   449.4    4.6      36.165
2014    9        4    15  46    3.97   449.2    4.6      36.132
2014    9        4    15  52    3.97   449.0    4.6      36.100
2014    9        4    15  58    3.97   448.9    4.6      36.067
2014    9        4    16   3    3.97   448.7    4.6      36.035
2014    9        4    16   9    3.97   448.5    4.6      36.003
2014    9        4    16  15    3.97   448.4    4.6      35.971
2014    9        4    16  20    3.97   448.2    4.6      35.939
2014    9        4    16  26    3.97   448.1    4.6      35.907
2014    9        4    16  31    3.97   447.9    4.6      35.876
2014    9        4    16  37    3.97   447.7    4.6      35.844
2014    9        4    16  43    3.97   447.6    4.6      35.813
2014    9        4    16  48    3.97   447.4    4.6      35.782
2014    9        4    16  54    3.97   447.2    4.6      35.750
2014    9        4    16  59    3.97   447.1    4.6      35.719
2014    9        4    17   5    3.97   446.9    4.6      35.688
2014    9        4    17  11    3.97   446.7    4.6      35.657
2014    9        4    17  16    3.97   446.6    4.6      35.626
2014    9        4    17  22    3.97   446.4    4.6      35.594
2014    9        4    17  27    3.97   446.2    4.6      35.563
2014    9        4    17  33    3.97   446.1    4.6      35.532
2014    9        4    17  39    3.96   445.9    4.6      35.501
2014    9        4    17  44    3.96   445.7    4.6      35.469
2014    9        4    17  50    3.96   445.6    4.7      35.438
2014    9        4    17  55    3.96   445.4    4.7      35.407
2014    9        4    18   1    3.96   445.2    4.7      35.375
2014    9        4    18   7    3.96   445.1    4.7      35.343
2014    9        4    18  12    3.96   444.9    4.7      35.312
2014    9        4    18  18    3.96   444.7    4.7      35.280
2014    9        4    18  24    3.96   444.5    4.7      35.248
2014    9        4    18  29    3.96   444.4    4.7      35.216
2014    9        4    18  35    3.96   444.2    4.7      35.184
2014    9        4    18  40    3.96   444.0    4.7      35.151
2014    9        4    18  46    3.96   443.9    4.7      35.119
2014    9        4    18  52    3.96   443.7    4.7      35.086
2014    9        4    18  57    3.96   443.5    4.7      35.053
2014    9        4    19   3    3.96   443.3    4.7      35.020
2014    9        4    19   8    3.96   443.2    4.7      34.988
2014    9        4    19  14    3.96   443.0    4.7      34.955
2014    9        4    19  20    3.96   442.8    4.7      34.921
2014    9        4    19  25    3.96   442.7    4.7      34.888
2014    9        4    19  31    3.95   442.5    4.7      34.855
2014    9        4    19  36    3.95   442.3    4.7      34.821
2014    9        4    19  42    3.95   442.1    4.7      34.788
2014    9        4    19  48    3.95   442.0    4.7      34.754
2014    9        4    19  53    3.95   441.8    4.7      34.721
2014    9        4    19  59    3.95   441.6    4.7      34.687
2014    9        4    20   4    3.95   441.4    4.7      34.653
2014    9        4    20  10    3.95   441.3    4.7      34.620
2014    9        4    20  16    3.95   441.1    4.7      34.586
2014    9        4    20  21    3.95   440.9    4.7      34.552
2014    9        4    20  27    3.95   440.8    4.7      34.519
2014    9        4    20  33    3.95   440.6    4.7      34.485
2014    9        4    20  38    3.95   440.4    4.7      34.452
2014    9        4    20  44    3.95   440.2    4.7      34.418
2014    9        4    20  49    3.95   440.1    4.7      34.385
2014    9        4    20  55    3.95   439.9    4.7      34.352
2014    9        4    21   1    3.95   439.7    4.7      34.319
2014    9        4    21   6    3.95   439.5    4.8      34.286
2014    9        4    21  12    3.95   439.4    4.8      34.253
2014    9        4    21  17    3.95   439.2    4.8      34.221
2014    9        4    21  23    3.95   439.0    4.8      34.188
2014    9        4    21  29    3.95   438.9    4.8      34.156
2014    9        4    21  34    3.95   438.7    4.8      34.124
2014    9        4    21  40    3.95   438.5    4.8      34.092
2014    9        4    21  45    3.94   438.3    4.8      34.061
2014    9        4    21  51    3.94   438.2    4.8      34.029
2014    9        4    21  57    3.94   438.0    4.8      33.998
2014    9        4    22   2    3.94   437.8    4.8      33.967
2014    9        4    22   8    3.94   437.7    4.8      33.937
2014    9        4    22  13    3.94   437.5    4.8      33.906
2014    9        4    22  19    3.94   437.3    4.8      33.876
2014    9        4    22  25    3.94   437.2    4.8      33.846
2014    9        4    22  30    3.94   437.0    4.8      33.816
2014    9        4    22  36    3.94   436.8    4.8      33.786
2014    9        4    22  42    3.94   436.6    4.8      33.757
2014    9        4    22  47    3.94   436.5    4.8      33.727
2014    9        4    22  53    3.94   436.3    4.8      33.698
2014    9        4    22  58    3.94   436.1    4.8      33.669
2014    9        4    23   4    3.94   436.0    4.8      33.640
2014    9        4    23  10    3.94   435.8    4.8      33.611
2014    9        4    23  15    3.94   435.6    4.8      33.582
2014    9        4    23  21    3.94   435.5    4.8      33.553
2014    9        4    23  26    3.94   435.3    4.8      33.523
2014    9        4    23  32    3.94   435.1    4.8      33.494
2014    9        4    23  38    3.94   435.0    4.8      33.465
2014    9        4    23  43    3.94   434.8    4.8      33.435
2014    9        4    23  49    3.94   434.6    4.8      33.406
2014    9        4    23  54    3.94   434.4    4.9      33.376
2014    9        5     0   0    3.94   434.3    4.9      33.347
2014    9        5     0   6    3.94   434.1    4.9      33.317
2014    9        5     0  11    3.94   433.9    4.9      33.287
2014    9        5     0  17    3.94   433.8    4.9      33.257
2014    9        5     0  22    3.94   433.6    4.9      33.227
2014    9        5     0  28    3.94   433.4    4.9      33.197
2014    9        5     0  34    3.93   433.2    4.9      33.167
2014    9        5     0  39    3.93   433.1    4.9      33.137
2014    9        5     0  45    3.93   432.9    4.9      33.107
2014    9        5     0  51    3.93   432.7    4.9      33.077
2014    9        5     0  56    3.93   432.5    4.9      33.046
2014    9        5     1   2    3.93   432.4    4.9      33.015
2014    9        5     1   7    3.93   432.2    4.9      32.985
2014    9        5     1  13    3.93   432.0    4.9      32.954
2014    9        5     1  19    3.93   431.8    4.9      32.923
2014    9        5     1  24    3.93   431.7    4.9      32.892
2014    9        5     1  30    3.93   431.5    4.9      32.861
2014    9        5     1  35    3.93   431.3    4.9      32.829
2014    9        5     1  41    3.93   431.1    4.9      32.798
2014    9        5     1  47    3.93   431.0    4.9      32.766
2014    9        5     1  52    3.93   430.8    4.9      32.734
2014    9        5     1  58    3.93   430.6    4.9      32.703
2014    9        5     2   3    3.93   430.4    4.9      32.671
2014    9        5     2   9    3.93   430.2    4.9      32.639
2014    9        5     2  15    3.93   430.1    4.9      32.606
2014    9        5     2  20    3.93   429.9    4.9      32.574
2014    9        5     2  26    3.93   429.7    4.9      32.542
2014    9        5     2  32    3.93   429.5    4.9      32.510
2014    9        5     2  37    3.92   429.3    4.9      32.477
2014    9        5     2  43    3.92   429.1    4.9      32.445
2014    9        5     2  48    3.92   429.0    4.9      32.413
2014    9        5     2  54    3.92   428.8    4.9      32.380
2014    9        5     3   0    3.92   428.6    4.9      32.348
2014    9        5     3   5    3.92   428.4    4.9      32.315
2014    9        5     3  11    3.92   428.2    5.0      32.283
2014    9        5     3  16    3.92   428.0    5.0      32.251
2014    9        5     3  22    3.92   427.9    5.0      32.219
2014    9        5     3  28    3.92   427.7    5.0      32.187
2014    9        5     3  33    3.92   427.5    5.0      32.155
2014    9        5     3  39    3.92   427.3    5.0      32.123
2014    9        5     3  44    3.92   427.1    5.0      32.092
2014    9        5     3  50    3.92   426.9    5.0      32.061
2014    9        5     3  56    3.92   426.7    5.0      32.030
2014    9        5     4   1    3.92   426.5    5.0      31.999
2014    9        5     4   7    3.92   426.4    5.0      31.968
2014    9        5     4  12    3.92   426.2    5.0      31.938
2014    9        5     4  18    3.92   426.0    5.0      31.907
2014    9        5     4  24    3.92   425.8    5.0      31.877
2014    9        5     4  29    3.92   425.6    5.0      31.848
2014    9        5     4  35    3.92   425.4    5.0      31.818
2014    9        5     4  41    3.92   425.2    5.0      31.789
2014    9        5     4  46    3.92   425.1    5.0      31.760
2014    9        5     4  52    3.92   424.9    5.0      31.731
2014    9        5     4  57    3.92   424.7    5.0      31.703
2014    9        5     5   3    3.92   424.5    5.0      31.675
2014    9        5     5   9    3.92   424.3    5.0      31.647
2014    9        5     5  14    3.92   424.1    5.0      31.619
2014    9        5     5  20    3.92   424.0    5.0      31.592
2014    9        5     5  25    3.92   423.8    5.0      31.565
2014    9        5     5  31    3.92   423.6    5.0      31.538
2014    9        5     5  37    3.92   423.4    5.0      31.511
2014    9        5     5  42    3.92   423.2    5.0      31.484
2014    9        5     5  48    3.92   423.0    5.0      31.458
2014    9        5     5  53    3.92   422.9    5.0      31.432
2014    9        5     5  59    3.92   422.7    5.0      31.406
2014    9        5     6   5    3.92   422.5    5.0      31.380
2014    9        5     6  10    3.92   422.3    5.0      31.355
2014    9        5     6  16    3.92   422.1    5.0      31.329
2014    9        5     6  21    3.92   422.0    5.0      31.304
2014    9        5     6  27    3.92   421.8    5.0      31.278
2014    9        5     6  33    3.92   421.6    5.1      31.253
2014    9        5     6  38    3.92   421.4    5.1      31.228
2014    9        5     6  44    3.92   421.2    5.1      31.203
2014    9        5     6  50    3.92   421.1    5.1      31.178
2014    9        5     6  55    3.92   420.9    5.1      31.153
2014    9        5     7   1    3.92   420.7    5.1      31.128
2014    9        5     7   6    3.92   420.5    5.1      31.103
2014    9        5     7  12    3.92   420.3    5.1      31.078
2014    9        5     7  18    3.92   420.2    5.1      31.053
2014    9        5     7  23    3.92   420.0    5.1      31.029
2014    9        5     7  29    3.92   419.8    5.1      31.004
2014    9        5     7  34    3.92   419.6    5.1      30.979
2014    9        5     7  40    3.92   419.5    5.1      30.954
2014    9        5     7  46    3.92   419.3    5.1      30.929
2014    9        5     7  51    3.92   419.1    5.1      30.904
2014    9        5     7  57    3.92   418.9    5.1      30.880
2014    9        5     8   2    3.92   418.7    5.1      30.855
2014    9        5     8   8    3.92   418.6    5.1      30.830
2014    9        5     8  14    3.92   418.4    5.1      30.805
2014    9        5     8  19    3.92   418.2    5.1      30.780
2014    9        5     8  25    3.92   418.0    5.1      30.755
2014    9        5     8  30    3.92   417.8    5.1      30.730
2014    9        5     8  36    3.92   417.7    5.1      30.705
2014    9        5     8  42    3.92   417.5    5.1      30.680
2014    9        5     8  47    3.92   417.3    5.1      30.655
2014    9        5     8  53    3.92   417.1    5.1      30.630
2014    9        5     8  59    3.92   416.9    5.1      30.605
2014    9        5     9   4    3.92   416.8    5.1      30.580
2014    9        5     9  10    3.92   416.6    5.1      30.555
2014    9        5     9  15    3.92   416.4    5.1      30.530
2014    9        5     9  21    3.92   416.2    5.1      30.505
2014    9        5     9  27    3.92   416.0    5.1      30.480
2014    9        5     9  32    3.92   415.9    5.2      30.456
2014    9        5     9  38    3.92   415.7    5.2      30.431
2014    9        5     9  43    3.92   415.5    5.2      30.407
2014    9        5     9  49    3.92   415.3    5.2      30.382
2014    9        5     9  55    3.92   415.1    5.2      30.358
2014    9        5    10   0    3.92   414.9    5.2      30.333
2014    9        5    10   6    3.92   414.8    5.2      30.309
2014    9        5    10  11    3.92   414.6    5.2      30.285
2014    9        5    10  17    3.92   414.4    5.2      30.261
2014    9        5    10  23    3.92   414.2    5.2      30.238
2014    9        5    10  28    3.92   414.0    5.2      30.214
2014    9        5    10  34    3.92   413.8    5.2      30.191
2014    9        5    10  39    3.92   413.7    5.2      30.168
2014    9        5    10  45    3.92   413.5    5.2      30.145
2014    9        5    10  51    3.92   413.3    5.2      30.122
2014    9        5    10  56    3.92   413.1    5.2      30.099
2014    9        5    11   2    3.92   412.9    5.2      30.077
2014    9        5    11   8    3.92   412.7    5.2      30.055
2014    9        5    11  13    3.92   412.6    5.2      30.033
2014    9        5    11  19    3.92   412.4    5.2      30.011
2014    9        5    11  24    3.92   412.2    5.2      29.990
2014    9        5    11  30    3.92   412.0    5.2      29.968
2014    9        5    11  36    3.92   411.8    5.2      29.947
2014    9        5    11  41    3.92   411.7    5.2      29.926
2014    9        5    11  47    3.92   411.5    5.2      29.905
2014    9        5    11  52    3.92   411.3    5.2      29.885
2014    9        5    11  58    3.92   411.1    5.2      29.864
2014    9        5    12   4    3.92   410.9    5.2      29.844
2014    9        5    12   9    3.92   410.7    5.2      29.824
2014    9        5    12  15    3.92   410.6    5.2      29.804
2014    9        5    12  20    3.92   410.4    5.2      29.785
2014    9        5    12  26    3.92   410.2    5.2      29.765
2014    9        5    12  32    3.92   410.0    5.3      29.745
2014    9        5    12  37    3.92   409.8    5.3      29.726
2014    9        5    12  43    3.92   409.7    5.3      29.707
2014    9        5    12  49    3.93   409.5    5.3      29.688
2014    9        5    12  54    3.93   409.3    5.3      29.668
2014    9        5    13   0    3.93   409.1    5.3      29.649
2014    9        5    13   5    3.93   408.9    5.3      29.631
2014    9        5    13  11    3.93   408.8    5.3      29.612
2014    9        5    13  17    3.93   408.6    5.3      29.593
2014    9        5    13  22    3.93   408.4    5.3      29.574
2014    9        5    13  28    3.93   408.2    5.3      29.555
2014    9        5    13  33    3.93   408.0    5.3      29.536
2014    9        5    13  39    3.93   407.9    5.3      29.518
2014    9        5    13  45    3.93   407.7    5.3      29.499
2014    9        5    13  50    3.93   407.5    5.3      29.480
2014    9        5    13  56    3.93   407.3    5.3      29.462
2014    9        5    14   1    3.93   407.1    5.3      29.443
2014    9        5    14   7    3.93   407.0    5.3      29.425
2014    9        5    14  13    3.93   406.8    5.3      29.406
2014    9        5    14  18    3.93   406.6    5.3      29.388
2014    9        5    14  24    3.93   406.4    5.3      29.369
2014    9        5    14  29    3.93   406.2    5.3      29.351
2014    9        5    14  35    3.93   406.1    5.3      29.332
2014    9        5    14  41    3.93   405.9    5.3      29.314
2014    9        5    14  46    3.93   405.7    5.3      29.296
2014    9        5    14  52    3.94   405.5    5.3      29.277
2014    9        5    14  58    3.94   405.3    5.3      29.259
2014    9        5    15   3    3.94   405.2    5.3      29.241
2014    9        5    15   9    3.94   405.0    5.3      29.223
2014    9        5    15  14    3.94   404.8    5.3      29.205
2014    9        5    15  20    3.94   404.6    5.4      29.187
2014    9        5    15  26    3.94   404.4    5.4      29.169
2014    9        5    15  31    3.94   404.3    5.4      29.151
2014    9        5    15  37    3.94   404.1    5.4      29.133
2014    9        5    15  42    3.94   403.9    5.4      29.115
2014    9        5    15  48    3.94   403.7    5.4      29.098
2014    9        5    15  54    3.94   403.6    5.4      29.080
2014    9        5    15  59    3.94   403.4    5.4      29.063
2014    9        5    16   5    3.94   403.2    5.4      29.046
2014    9        5    16  10    3.94   403.0    5.4      29.029
2014    9        5    16  16    3.94   402.9    5.4      29.012
2014    9        5    16  22    3.95   402.7    5.4      28.995
2014    9        5    16  27    3.95   402.5    5.4      28.978
2014    9        5    16  33    3.95   402.3    5.4      28.961
2014    9        5    16  38    3.95   402.2    5.4      28.945
2014    9        5    16  44    3.95   402.0    5.4      28.929
2014    9        5    16  50    3.95   401.8    5.4      28.913
2014    9        5    16  55    3.95   401.6    5.4      28.897
2014    9        5    17   1    3.95   401.5    5.4      28.881
2014    9        5    17   7    3.95   401.3    5.4      28.865
2014    9        5    17  12    3.95   401.1    5.4      28.850
2014    9        5    17  18    3.95   401.0    5.4      28.835
2014    9        5    17  23    3.96   400.8    5.4      28.820
2014    9        5    17  29    3.96   400.6    5.4      28.805
2014    9        5    17  35    3.96   400.4    5.4      28.790
2014    9        5    17  40    3.96   400.3    5.4      28.776
2014    9        5    17  46    3.96   400.1    5.4      28.762
2014    9        5    17  51    3.96   399.9    5.4      28.748
2014    9        5    17  57    3.96   399.8    5.5      28.734
2014    9        5    18   3    3.96   399.6    5.5      28.720
2014    9        5    18   8    3.96   399.4    5.5      28.707
2014    9        5    18  14    3.96   399.2    5.5      28.694
2014    9        5    18  19    3.97   399.1    5.5      28.681
2014    9        5    18  25    3.97   398.9    5.5      28.668
2014    9        5    18  31    3.97   398.7    5.5      28.656
2014    9        5    18  36    3.97   398.6    5.5      28.643
2014    9        5    18  42    3.97   398.4    5.5      28.631
2014    9        5    18  47    3.97   398.2    5.5      28.620
2014    9        5    18  53    3.97   398.1    5.5      28.608
2014    9        5    18  59    3.97   397.9    5.5      28.596
2014    9        5    19   4    3.97   397.7    5.5      28.585
2014    9        5    19  10    3.97   397.6    5.5      28.574
2014    9        5    19  16    3.98   397.4    5.5      28.563
2014    9        5    19  21    3.98   397.2    5.5      28.552
2014    9        5    19  27    3.98   397.1    5.5      28.542
2014    9        5    19  32    3.98   396.9    5.5      28.531
2014    9        5    19  38    3.98   396.8    5.5      28.521
2014    9        5    19  44    3.98   396.6    5.5      28.511
2014    9        5    19  49    3.98   396.4    5.5      28.501
2014    9        5    19  55    3.98   396.3    5.6      28.491
2014    9        5    20   0    3.98   396.1    5.6      28.481
2014    9        5    20   6    3.99   395.9    5.6      28.471
2014    9        5    20  12    3.99   395.8    5.6      28.461
2014    9        5    20  17    3.99   395.6    5.6      28.452
2014    9        5    20  23    3.99   395.4    5.6      28.442
2014    9        5    20  28    3.99   395.3    5.6      28.433
2014    9        5    20  34    3.99   395.1    5.6      28.424
2014    9        5    20  40    3.99   394.9    5.6      28.414
2014    9        5    20  45    3.99   394.8    5.6      28.405
2014    9        5    20  51    4.00   394.6    5.6      28.396
2014    9        5    20  57    4.00   394.4    5.6      28.387
2014    9        5    21   2    4.00   394.3    5.6      28.378
2014    9        5    21   8    4.00   394.1    5.6      28.369
2014    9        5    21  13    4.00   394.0    5.6      28.361
2014    9        5    21  19    4.00   393.8    5.6      28.352
2014    9        5    21  25    4.00   393.6    5.6      28.343
2014    9        5    21  30    4.00   393.5    5.6      28.335
2014    9        5    21  36    4.01   393.3    5.6      28.326
2014    9        5    21  41    4.01   393.1    5.7      28.318
2014    9        5    21  47    4.01   393.0    5.7      28.310
2014    9        5    21  53    4.01   392.8    5.7      28.301
2014    9        5    21  58    4.01   392.7    5.7      28.293
2014    9        5    22   4    4.01   392.5    5.7      28.285
2014    9        5    22   9    4.01   392.3    5.7      28.276
2014    9        5    22  15    4.01   392.2    5.7      28.268
2014    9        5    22  21    4.02   392.0    5.7      28.260
2014    9        5    22  26    4.02   391.9    5.7      28.252
2014    9        5    22  32    4.02   391.7    5.7      28.244
2014    9        5    22  37    4.02   391.5    5.7      28.236
2014    9        5    22  43    4.02   391.4    5.7      28.228
2014    9        5    22  49    4.02   391.2    5.7      28.220
2014    9        5    22  54    4.02   391.1    5.7      28.212
2014    9        5    23   0    4.03   390.9    5.7      28.204
2014    9        5    23   6    4.03   390.7    5.7      28.197
2014    9        5    23  11    4.03   390.6    5.7      28.189
2014    9        5    23  17    4.03   390.4    5.7      28.181
2014    9        5    23  22    4.03   390.3    5.7      28.174
2014    9        5    23  28    4.03   390.1    5.7      28.166
2014    9        5    23  34    4.04   390.0    5.8      28.158
2014    9        5    23  39    4.04   389.8    5.8      28.151
2014    9        5    23  45    4.04   389.6    5.8      28.143
2014    9        5    23  50    4.04   389.5    5.8      28.136
2014    9        5    23  56    4.04   389.3    5.8      28.128
2014    9        6     0   2    4.04   389.2    5.8      28.121
2014    9        6     0   7    4.04   389.0    5.8      28.113
2014    9        6     0  13    4.05   388.9    5.8      28.106
2014    9        6     0  18    4.05   388.7    5.8      28.099
2014    9        6     0  24    4.05   388.6    5.8      28.091
2014    9        6     0  30    4.05   388.4    5.8      28.084
2014    9        6     0  35    4.05   388.2    5.8      28.077
2014    9        6     0  41    4.06   388.1    5.8      28.070
2014    9        6     0  46    4.06   387.9    5.8      28.063
2014    9        6     0  52    4.06   387.8    5.8      28.055
2014    9        6     0  58    4.06   387.6    5.8      28.049
2014    9        6     1   3    4.06   387.5    5.8      28.041
2014    9        6     1   9    4.06   387.3    5.8      28.035
2014    9        6     1  15    4.07   387.2    5.8      28.028
2014    9        6     1  20    4.07   387.0    5.8      28.021
2014    9        6     1  26    4.07   386.9    5.8      28.014
2014    9        6     1  31    4.07   386.7    5.9      28.007
2014    9        6     1  37    4.07   386.6    5.9      28.001
2014    9        6     1  43    4.08   386.4    5.9      27.994
2014    9        6     1  48    4.08   386.3    5.9      27.988
2014    9        6     1  54    4.08   386.1    5.9      27.981
2014    9        6     1  59    4.08   386.0    5.9      27.975
2014    9        6     2   5    4.08   385.8    5.9      27.968
2014    9        6     2  11    4.08   385.7    5.9      27.962
2014    9        6     2  16    4.09   385.5    5.9      27.956
2014    9        6     2  22    4.09   385.4    5.9      27.949
2014    9        6     2  27    4.09   385.3    5.9      27.943
2014    9        6     2  33    4.09   385.1    5.9      27.937
2014    9        6     2  39    4.09   385.0    5.9      27.931
2014    9        6     2  44    4.10   384.8    5.9      27.925
2014    9        6     2  50    4.10   384.7    5.9      27.919
2014    9        6     2  55    4.10   384.5    5.9      27.913
2014    9        6     3   1    4.10   384.4    5.9      27.907
2014    9        6     3   7    4.10   384.2    5.9      27.902
2014    9        6     3  12    4.11   384.1    5.9      27.896
2014    9        6     3  18    4.11   384.0    5.9      27.890
2014    9        6     3  24    4.11   383.8    5.9      27.885
2014    9        6     3  29    4.11   383.7    6.0      27.880
2014    9        6     3  35    4.11   383.5    6.0      27.874
2014    9        6     3  40    4.12   383.4    6.0      27.869
2014    9        6     3  46    4.12   383.3    6.0      27.863
2014    9        6     3  52    4.12   383.1    6.0      27.858
2014    9        6     3  57    4.12   383.0    6.0      27.853
2014    9        6     4   3    4.12   382.8    6.0      27.848
2014    9        6     4   8    4.13   382.7    6.0      27.843
2014    9        6     4  14    4.13   382.6    6.0      27.838
2014    9        6     4  20    4.13   382.4    6.0      27.834
2014    9        6     4  25    4.13   382.3    6.0      27.829
2014    9        6     4  31    4.13   382.1    6.0      27.824
2014    9        6     4  36    4.14   382.0    6.0      27.820
2014    9        6     4  42    4.14   381.9    6.0      27.815
2014    9        6     4  48    4.14   381.7    6.0      27.811
2014    9        6     4  53    4.14   381.6    6.0      27.807
2014    9        6     4  59    4.15   381.5    6.0      27.803
2014    9        6     5   5    4.15   381.3    6.0      27.799
2014    9        6     5  10    4.15   381.2    6.1      27.795
2014    9        6     5  16    4.15   381.1    6.1      27.791
2014    9        6     5  21    4.15   380.9    6.1      27.787
2014    9        6     5  27    4.16   380.8    6.1      27.784
2014    9        6     5  33    4.16   380.7    6.1      27.781
2014    9        6     5  38    4.16   380.5    6.1      27.777
2014    9        6     5  44    4.16   380.4    6.1      27.774
2014    9        6     5  49    4.16   380.3    6.1      27.771
2014    9        6     5  55    4.17   380.1    6.1      27.769
2014    9        6     6   1    4.17   380.0    6.1      27.766
2014    9        6     6   6    4.17   379.9    6.1      27.764
2014    9        6     6  12    4.17   379.8    6.1      27.762
2014    9        6     6  17    4.18   379.6    6.1      27.759
2014    9        6     6  23    4.18   379.5    6.1      27.758
2014    9        6     6  29    4.18   379.4    6.1      27.756
2014    9        6     6  34    4.18   379.2    6.1      27.754
2014    9        6     6  40    4.18   379.1    6.2      27.753
2014    9        6     6  45    4.19   379.0    6.2      27.752
2014    9        6     6  51    4.19   378.8    6.2      27.751
2014    9        6     6  57    4.19   378.7    6.2      27.750
2014    9        6     7   2    4.19   378.6    6.2      27.750
2014    9        6     7   8    4.20   378.5    6.2      27.750
2014    9        6     7  14    4.20   378.3    6.2      27.750
2014    9        6     7  19    4.20   378.2    6.2      27.750
2014    9        6     7  25    4.20   378.1    6.2      27.751
2014    9        6     7  30    4.21   378.0    6.2      27.751
2014    9        6     7  36    4.21   377.8    6.2      27.752
2014    9        6     7  42    4.21   377.7    6.2      27.753
2014    9        6     7  47    4.21   377.6    6.2      27.755
2014    9        6     7  53    4.22   377.5    6.2      27.757
2014    9        6     7  58    4.22   377.3    6.2      27.758
2014    9        6     8   4    4.22   377.2    6.3      27.761
2014    9        6     8  10    4.22   377.1    6.3      27.763
2014    9        6     8  15    4.23   377.0    6.3      27.765
2014    9        6     8  21    4.23   376.9    6.3      27.768
2014    9        6     8  26    4.23   376.7    6.3      27.771
2014    9        6     8  32    4.23   376.6    6.3      27.775
2014    9        6     8  38    4.24   376.5    6.3      27.779
2014    9        6     8  43    4.24   376.4    6.3      27.782
2014    9        6     8  49    4.24   376.3    6.3      27.787
2014    9        6     8  54    4.24   376.2    6.3      27.792
2014    9        6     9   0    4.25   376.0    6.3      27.797
2014    9        6     9   6    4.25   375.9    6.3      27.802
2014    9        6     9  11    4.25   375.8    6.3      27.807
2014    9        6     9  17    4.25   375.7    6.3      27.813
2014    9        6     9  23    4.26   375.6    6.4      27.818
2014    9        6     9  28    4.26   375.5    6.4      27.824
2014    9        6     9  34    4.26   375.4    6.4      27.830
2014    9        6     9  39    4.26   375.2    6.4      27.835
2014    9        6     9  45    4.27   375.1    6.4      27.841
2014    9        6     9  51    4.27   375.0    6.4      27.847
2014    9        6     9  56    4.27   374.9    6.4      27.853
2014    9        6    10   2    4.27   374.8    6.4      27.858
2014    9        6    10   7    4.28   374.7    6.4      27.864
2014    9        6    10  13    4.28   374.6    6.4      27.869
2014    9        6    10  19    4.28   374.5    6.4      27.875
2014    9        6    10  24    4.29   374.4    6.4      27.880
2014    9        6    10  30    4.29   374.2    6.4      27.886
2014    9        6    10  35    4.29   374.1    6.4      27.891
2014    9        6    10  41    4.29   374.0    6.4      27.896
2014    9        6    10  47    4.30   373.9    6.4      27.901
2014    9        6    10  52    4.30   373.8    6.5      27.906
2014    9        6    10  58    4.30   373.7    6.5      27.912
2014    9        6    11   3    4.30   373.6    6.5      27.916
2014    9        6    11   9    4.31   373.5    6.5      27.921
2014    9        6    11  15    4.31   373.4    6.5      27.926
2014    9        6    11  20    4.31   373.3    6.5      27.931
2014    9        6    11  26    4.32   373.2    6.5      27.935
2014    9        6    11  32    4.32   373.1    6.5      27.940
2014    9        6    11  37    4.32   372.9    6.5      27.944
2014    9        6    11  43    4.32   372.8    6.5      27.949
2014    9        6    11  48    4.33   372.7    6.5      27.953
2014    9        6    11  54    4.33   372.6    6.5      27.957
2014    9        6    12   0    4.33   372.5    6.5      27.962
2014    9        6    12   5    4.34   372.4    6.5      27.966
2014    9        6    12  11    4.34   372.3    6.5      27.970
2014    9        6    12  16    4.34   372.2    6.5      27.974
2014    9        6    12  22    4.34   372.1    6.6      27.978
2014    9        6    12  28    4.35   372.0    6.6      27.982
2014    9        6    12  33    4.35   371.9    6.6      27.986
2014    9        6    12  39    4.35   371.8    6.6      27.990
2014    9        6    12  44    4.36   371.7    6.6      27.994
2014    9        6    12  50    4.36   371.6    6.6      27.998
2014    9        6    12  56    4.36   371.5    6.6      28.002
2014    9        6    13   1    4.36   371.4    6.6      28.006
2014    9        6    13   7    4.37   371.3    6.6      28.011
2014    9        6    13  13    4.37   371.2    6.6      28.015
2014    9        6    13  18    4.37   371.0    6.6      28.020
2014    9        6    13  24    4.38   370.9    6.6      28.025
2014    9        6    13  29    4.38   370.8    6.6      28.030
2014    9        6    13  35    4.38   370.7    6.6      28.035
2014    9        6    13  41    4.38   370.6    6.6      28.041
2014    9        6    13  46    4.39   370.5    6.6      28.046
2014    9        6    13  52    4.39   370.4    6.7      28.052
2014    9        6    13  57    4.39   370.3    6.7      28.058
2014    9        6    14   3    4.40   370.2    6.7      28.065
2014    9        6    14   9    4.40   370.1    6.7      28.072
2014    9        6    14  14    4.40   370.0    6.7      28.079
2014    9        6    14  20    4.41   369.9    6.7      28.086
2014    9        6    14  25    4.41   369.8    6.7      28.094
2014    9        6    14  31    4.41   369.7    6.7      28.102
2014    9        6    14  37    4.42   369.7    6.7      28.111
2014    9        6    14  42    4.42   369.6    6.7      28.120
2014    9        6    14  48    4.42   369.5    6.7      28.129
2014    9        6    14  53    4.43   369.4    6.7      28.139
2014    9        6    14  59    4.43   369.3    6.7      28.148
2014    9        6    15   5    4.43   369.2    6.7      28.159
2014    9        6    15  10    4.44   369.1    6.8      28.169
2014    9        6    15  16    4.44   369.0    6.8      28.180
2014    9        6    15  22    4.44   368.9    6.8      28.192
2014    9        6    15  27    4.45   368.8    6.8      28.204
2014    9        6    15  33    4.45   368.7    6.8      28.216
2014    9        6    15  38    4.46   368.7    6.8      28.228
2014    9        6    15  44    4.46   368.6    6.8      28.241
2014    9        6    15  50    4.46   368.5    6.8      28.254
2014    9        6    15  55    4.47   368.4    6.8      28.268
2014    9        6    16   1    4.47   368.3    6.8      28.282
2014    9        6    16   6    4.47   368.2    6.8      28.296
2014    9        6    16  12    4.48   368.2    6.8      28.310
2014    9        6    16  18    4.48   368.1    6.8      28.325
2014    9        6    16  23    4.48   368.0    6.9      28.339
2014    9        6    16  29    4.49   367.9    6.9      28.355
2014    9        6    16  34    4.49   367.8    6.9      28.370
2014    9        6    16  40    4.50   367.8    6.9      28.385
2014    9        6    16  46    4.50   367.7    6.9      28.401
2014    9        6    16  51    4.50   367.6    6.9      28.417
2014    9        6    16  57    4.51   367.5    6.9      28.433
2014    9        6    17   2    4.51   367.5    6.9      28.449
2014    9        6    17   8    4.51   367.4    6.9      28.465
2014    9        6    17  14    4.52   367.3    6.9      28.482
2014    9        6    17  19    4.52   367.2    6.9      28.499
2014    9        6    17  25    4.53   367.2    7.0      28.515
2014    9        6    17  31    4.53   367.1    7.0      28.532
2014    9        6    17  36    4.53   367.0    7.0      28.549
2014    9        6    17  42    4.54   367.0    7.0      28.566
2014    9        6    17  47    4.54   366.9    7.0      28.583
2014    9        6    17  53    4.55   366.8    7.0      28.600
2014    9        6    17  59    4.55   366.8    7.0      28.617
2014    9        6    18   4    4.55   366.7    7.0      28.634
2014    9        6    18  10    4.56   366.6    7.0      28.651
2014    9        6    18  15    4.56   366.5    7.0      28.669
2014    9        6    18  21    4.57   366.5    7.0      28.686
2014    9        6    18  27    4.57   366.4    7.1      28.703
2014    9        6    18  32    4.57   366.4    7.1      28.721
2014    9        6    18  38    4.58   366.3    7.1      28.738
2014    9        6    18  43    4.58   366.2    7.1      28.756
2014    9        6    18  49    4.59   366.2    7.1      28.774
2014    9        6    18  55    4.59   366.1    7.1      28.793
2014    9        6    19   0    4.59   366.1    7.1      28.811
2014    9        6    19   6    4.60   366.0    7.1      28.830
2014    9        6    19  11    4.60   365.9    7.1      28.848
2014    9        6    19  17    4.61   365.9    7.1      28.867
2014    9        6    19  23    4.61   365.8    7.1      28.887
2014    9        6    19  28    4.61   365.8    7.2      28.906
2014    9        6    19  34    4.62   365.7    7.2      28.925
2014    9        6    19  40    4.62   365.7    7.2      28.945
2014    9        6    19  45    4.63   365.6    7.2      28.964
2014    9        6    19  51    4.63   365.6    7.2      28.984
2014    9        6    19  56    4.64   365.5    7.2      29.004
2014    9        6    20   2    4.64   365.4    7.2      29.024
2014    9        6    20   8    4.64   365.4    7.2      29.044
2014    9        6    20  13    4.65   365.3    7.2      29.064
2014    9        6    20  19    4.65   365.3    7.2      29.084
2014    9        6    20  24    4.66   365.2    7.2      29.105
2014    9        6    20  30    4.66   365.2    7.2      29.125
2014    9        6    20  36    4.66   365.1    7.3      29.146
2014    9        6    20  41    4.67   365.1    7.3      29.166
2014    9        6    20  47    4.67   365.0    7.3      29.187
2014    9        6    20  52    4.68   365.0    7.3      29.207
2014    9        6    20  58    4.68   364.9    7.3      29.228
2014    9        6    21   4    4.68   364.9    7.3      29.249
2014    9        6    21   9    4.69   364.8    7.3      29.270
2014    9        6    21  15    4.69   364.8    7.3      29.291
2014    9        6    21  21    4.70   364.7    7.3      29.312
2014    9        6    21  26    4.70   364.6    7.3      29.333
2014    9        6    21  32    4.70   364.6    7.3      29.354
2014    9        6    21  37    4.71   364.5    7.3      29.375
2014    9        6    21  43    4.71   364.5    7.4      29.397
2014    9        6    21  49    4.72   364.4    7.4      29.418
2014    9        6    21  54    4.72   364.4    7.4      29.439
2014    9        6    22   0    4.72   364.4    7.4      29.461
2014    9        6    22   5    4.73   364.3    7.4      29.483
2014    9        6    22  11    4.73   364.3    7.4      29.504
2014    9        6    22  17    4.74   364.2    7.4      29.526
2014    9        6    22  22    4.74   364.2    7.4      29.548
2014    9        6    22  28    4.74   364.1    7.4      29.570
2014    9        6    22  33    4.75   364.1    7.4      29.592
2014    9        6    22  39    4.75   364.0    7.4      29.614
2014    9        6    22  45    4.76   364.0    7.4      29.637
2014    9        6    22  50    4.76   363.9    7.5      29.659
2014    9        6    22  56    4.76   363.9    7.5      29.682
2014    9        6    23   1    4.77   363.9    7.5      29.704
2014    9        6    23   7    4.77   363.8    7.5      29.727
2014    9        6    23  13    4.78   363.8    7.5      29.750
2014    9        6    23  18    4.78   363.7    7.5      29.773
2014    9        6    23  24    4.79   363.7    7.5      29.796
2014    9        6    23  30    4.79   363.7    7.5      29.819
2014    9        6    23  35    4.79   363.6    7.5      29.842
2014    9        6    23  41    4.80   363.6    7.5      29.866
2014    9        6    23  46    4.80   363.5    7.5      29.889
2014    9        6    23  52    4.81   363.5    7.6      29.912
2014    9        6    23  58    4.81   363.5    7.6      29.936
2014    9        7     0   3    4.81   363.4    7.6      29.959
2014    9        7     0   9    4.82   363.4    7.6      29.983
2014    9        7     0  14    4.82   363.4    7.6      30.006
2014    9        7     0  20    4.83   363.3    7.6      30.030
2014    9        7     0  26    4.83   363.3    7.6      30.054
2014    9        7     0  31    4.83   363.2    7.6      30.078
2014    9        7     0  37    4.84   363.2    7.6      30.102
2014    9        7     0  42    4.84   363.2    7.6      30.126
2014    9        7     0  48    4.85   363.1    7.6      30.151
2014    9        7     0  54    4.85   363.1    7.6      30.175
2014    9        7     0  59    4.85   363.1    7.7      30.199
2014    9        7     1   5    4.86   363.0    7.7      30.224
2014    9        7     1  10    4.86   363.0    7.7      30.249
2014    9        7     1  16    4.87   363.0    7.7      30.274
2014    9        7     1  22    4.87   363.0    7.7      30.299
2014    9        7     1  27    4.88   362.9    7.7      30.325
2014    9        7     1  33    4.88   362.9    7.7      30.351
2014    9        7     1  39    4.89   362.9    7.7      30.377
2014    9        7     1  44    4.89   362.8    7.7      30.403
2014    9        7     1  50    4.89   362.8    7.7      30.429
2014    9        7     1  55    4.90   362.8    7.7      30.456
2014    9        7     2   1    4.90   362.8    7.8      30.483
2014    9        7     2   7    4.91   362.8    7.8      30.511
2014    9        7     2  12    4.91   362.7    7.8      30.539
2014    9        7     2  18    4.92   362.7    7.8      30.568
2014    9        7     2  23    4.92   362.7    7.8      30.597
2014    9        7     2  29    4.93   362.7    7.8      30.627
2014    9        7     2  35    4.93   362.7    7.8      30.657
2014    9        7     2  40    4.94   362.7    7.8      30.688
2014    9        7     2  46    4.94   362.7    7.8      30.719
2014    9        7     2  51    4.95   362.6    7.8      30.751
2014    9        7     2  57    4.95   362.6    7.9      30.784
2014    9        7     3   3    4.95   362.6    7.9      30.817
2014    9        7     3   8    4.96   362.6    7.9      30.851
2014    9        7     3  14    4.96   362.6    7.9      30.886
2014    9        7     3  19    4.97   362.6    7.9      30.922
2014    9        7     3  25    4.97   362.6    7.9      30.957
2014    9        7     3  31    4.98   362.6    7.9      30.993
2014    9        7     3  36    4.98   362.6    7.9      31.030
2014    9        7     3  42    4.99   362.6    7.9      31.066
2014    9        7     3  48    4.99   362.6    7.9      31.103
2014    9        7     3  53    5.00   362.6    7.9      31.139
2014    9        7     3  59    5.00   362.6    8.0      31.175
2014    9        7     4   4    5.01   362.6    8.0      31.211
2014    9        7     4  10    5.01   362.6    8.0      31.246
2014    9        7     4  16    5.01   362.6    8.0      31.282
2014    9        7     4  21    5.02   362.6    8.0      31.317
2014    9        7     4  27    5.02   362.6    8.0      31.352
2014    9        7     4  32    5.03   362.6    8.0      31.387
2014    9        7     4  38    5.03   362.6    8.0      31.421
2014    9        7     4  44    5.04   362.6    8.0      31.455
2014    9        7     4  49    5.04   362.6    8.0      31.489
2014    9        7     4  55    5.04   362.6    8.0      31.523
2014    9        7     5   0    5.05   362.6    8.0      31.556
2014    9        7     5   6    5.05   362.6    8.1      31.589
2014    9        7     5  12    5.06   362.6    8.1      31.622
2014    9        7     5  17    5.06   362.6    8.1      31.655
2014    9        7     5  23    5.07   362.6    8.1      31.688
2014    9        7     5  28    5.07   362.6    8.1      31.720
2014    9        7     5  34    5.07   362.6    8.1      31.752
2014    9        7     5  40    5.08   362.6    8.1      31.784
2014    9        7     5  45    5.08   362.6    8.1      31.816
2014    9        7     5  51    5.09   362.6    8.1      31.848
2014    9        7     5  57    5.09   362.6    8.1      31.880
2014    9        7     6   2    5.10   362.6    8.1      31.911
2014    9        7     6   8    5.10   362.6    8.1      31.942
2014    9        7     6  13    5.10   362.5    8.1      31.974
2014    9        7     6  19    5.11   362.5    8.2      32.005
2014    9        7     6  25    5.11   362.5    8.2      32.036
2014    9        7     6  30    5.12   362.5    8.2      32.067
2014    9        7     6  36    5.12   362.5    8.2      32.098
2014    9        7     6  41    5.13   362.5    8.2      32.129
2014    9        7     6  47    5.13   362.5    8.2      32.160
2014    9        7     6  53    5.13   362.5    8.2      32.191
2014    9        7     6  58    5.14   362.5    8.2      32.221
2014    9        7     7   4    5.14   362.5    8.2      32.253
2014    9        7     7   9    5.15   362.5    8.2      32.285
2014    9        7     7  15    5.15   362.5    8.2      32.317
2014    9        7     7  21    5.16   362.5    8.2      32.350
2014    9        7     7  26    5.16   362.5    8.3      32.383
2014    9        7     7  32    5.17   362.5    8.3      32.416
2014    9        7     7  37    5.17   362.5    8.3      32.450
2014    9        7     7  43    5.17   362.5    8.3      32.485
2014    9        7     7  49    5.18   362.5    8.3      32.520
2014    9        7     7  54    5.18   362.5    8.3      32.555
2014    9        7     8   0    5.19   362.5    8.3      32.590
2014    9        7     8   6    5.19   362.5    8.3      32.625
2014    9        7     8  11    5.20   362.5    8.3      32.660
2014    9        7     8  17    5.20   362.5    8.3      32.695
2014    9        7     8  22    5.21   362.5    8.3      32.729
2014    9        7     8  28    5.21   362.5    8.3      32.764
2014    9        7     8  34    5.21   362.5    8.3      32.799
2014    9        7     8  39    5.22   362.5    8.4      32.833
2014    9        7     8  45    5.22   362.5    8.4      32.867
2014    9        7     8  50    5.23   362.5    8.4      32.901
2014    9        7     8  56    5.23   362.5    8.4      32.935
2014    9        7     9   2    5.24   362.6    8.4      32.969
2014    9        7     9   7    5.24   362.6    8.4      33.003
2014    9        7     9  13    5.25   362.6    8.4      33.036
2014    9        7     9  18    5.25   362.6    8.4      33.070
2014    9        7     9  24    5.26   362.6    8.4      33.103
2014    9        7     9  30    5.26   362.6    8.4      33.137
2014    9        7     9  35    5.26   362.6    8.4      33.170
2014    9        7     9  41    5.27   362.6    8.4      33.204
2014    9        7     9  47    5.27   362.6    8.4      33.237
2014    9        7     9  52    5.28   362.7    8.4      33.270
2014    9        7     9  58    5.28   362.7    8.4      33.304
2014    9        7    10   3    5.29   362.7    8.5      33.337
2014    9        7    10   9    5.29   362.7    8.5      33.371
2014    9        7    10  15    5.30   362.7    8.5      33.404
2014    9        7    10  20    5.30   362.7    8.5      33.438
2014    9        7    10  26    5.31   362.8    8.5      33.471
2014    9        7    10  31    5.31   362.8    8.5      33.505
2014    9        7    10  37    5.31   362.8    8.5      33.538
2014    9        7    10  43    5.32   362.8    8.5      33.572
2014    9        7    10  48    5.32   362.9    8.5      33.607
2014    9        7    10  54    5.33   362.9    8.5      33.641
2014    9        7    10  59    5.33   362.9    8.5      33.676
2014    9        7    11   5    5.34   362.9    8.5      33.712
2014    9        7    11  11    5.34   363.0    8.5      33.747
2014    9        7    11  16    5.35   363.0    8.5      33.783
2014    9        7    11  22    5.35   363.0    8.5      33.818
2014    9        7    11  27    5.35   363.1    8.6      33.854
2014    9        7    11  33    5.36   363.1    8.6      33.889
2014    9        7    11  39    5.36   363.1    8.6      33.925
2014    9        7    11  44    5.37   363.1    8.6      33.960
2014    9        7    11  50    5.37   363.2    8.6      33.995
2014    9        7    11  56    5.38   363.2    8.6      34.030
2014    9        7    12   1    5.38   363.2    8.6      34.065
2014    9        7    12   7    5.38   363.3    8.6      34.100
2014    9        7    12  12    5.39   363.3    8.6      34.135
2014    9        7    12  18    5.39   363.3    8.6      34.170
2014    9        7    12  24    5.40   363.3    8.6      34.205
2014    9        7    12  29    5.40   363.4    8.6      34.240
2014    9        7    12  35    5.40   363.4    8.6      34.275
2014    9        7    12  40    5.41   363.4    8.6      34.310
2014    9        7    12  46    5.41   363.5    8.6      34.345
2014    9        7    12  52    5.42   363.5    8.6      34.380
2014    9        7    12  57    5.42   363.5    8.7      34.416
2014    9        7    13   3    5.43   363.6    8.7      34.451
2014    9        7    13   8    5.43   363.6    8.7      34.486
2014    9        7    13  14    5.43   363.6    8.7      34.522
2014    9        7    13  20    5.44   363.7    8.7      34.557
2014    9        7    13  25    5.44   363.7    8.7      34.593
2014    9        7    13  31    5.45   363.7    8.7      34.629
2014    9        7    13  36    5.45   363.8    8.7      34.665
2014    9        7    13  42    5.46   363.8    8.7      34.701
2014    9        7    13  48    5.46   363.8    8.7      34.737
2014    9        7    13  53    5.47   363.9    8.7      34.774
2014    9        7    13  59    5.47   363.9    8.7      34.810
2014    9        7    14   5    5.47   364.0    8.7      34.847
2014    9        7    14  10    5.48   364.0    8.7      34.884
2014    9        7    14  16    5.48   364.0    8.8      34.921
2014    9        7    14  21    5.49   364.1    8.8      34.959
2014    9        7    14  27    5.49   364.1    8.8      34.997
2014    9        7    14  33    5.50   364.2    8.8      35.035
2014    9        7    14  38    5.50   364.2    8.8      35.075
2014    9        7    14  44    5.51   364.2    8.8      35.114
2014    9        7    14  49    5.51   364.3    8.8      35.154
2014    9        7    14  55    5.52   364.3    8.8      35.194
2014    9        7    15   1    5.52   364.4    8.8      35.235
2014    9        7    15   6    5.53   364.4    8.8      35.277
2014    9        7    15  12    5.53   364.5    8.8      35.319
2014    9        7    15  17    5.54   364.5    8.8      35.363
2014    9        7    15  23    5.54   364.6    8.9      35.407
2014    9        7    15  29    5.55   364.6    8.9      35.452
2014    9        7    15  34    5.55   364.7    8.9      35.497
2014    9        7    15  40    5.55   364.8    8.9      35.543
2014    9        7    15  45    5.56   364.8    8.9      35.590
2014    9        7    15  51    5.56   364.9    8.9      35.636
2014    9        7    15  57    5.57   365.0    8.9      35.683
2014    9        7    16   2    5.57   365.0    8.9      35.729
2014    9        7    16   8    5.58   365.1    8.9      35.775
2014    9        7    16  14    5.58   365.1    8.9      35.820
2014    9        7    16  19    5.59   365.2    8.9      35.865
2014    9        7    16  25    5.59   365.3    8.9      35.909
2014    9        7    16  30    5.59   365.3    8.9      35.953
2014    9        7    16  36    5.60   365.4    8.9      35.996
2014    9        7    16  42    5.60   365.5    9.0      36.039
2014    9        7    16  47    5.61   365.5    9.0      36.081
2014    9        7    16  53    5.61   365.6    9.0      36.123
2014    9        7    16  58    5.62   365.6    9.0      36.164
2014    9        7    17   4    5.62   365.7    9.0      36.204
2014    9        7    17  10    5.62   365.8    9.0      36.244
2014    9        7    17  15    5.63   365.8    9.0      36.284
2014    9        7    17  21    5.63   365.9    9.0      36.323
2014    9        7    17  26    5.64   366.0    9.0      36.361
2014    9        7    17  32    5.64   366.0    9.0      36.399
2014    9        7    17  38    5.64   366.1    9.0      36.436
2014    9        7    17  43    5.65   366.1    9.0      36.473
2014    9        7    17  49    5.65   366.2    9.0      36.510
2014    9        7    17  55    5.66   366.3    9.0      36.546
2014    9        7    18   0    5.66   366.3    9.0      36.581
2014    9        7    18   6    5.66   366.4    9.0      36.616
2014    9        7    18  11    5.67   366.4    9.0      36.651
2014    9        7    18  17    5.67   366.5    9.0      36.685
2014    9        7    18  23    5.67   366.6    9.0      36.719
2014    9        7    18  28    5.68   366.6    9.0      36.753
2014    9        7    18  34    5.68   366.7    9.0      36.786
2014    9        7    18  39    5.69   366.7    9.0      36.820
2014    9        7    18  45    5.69   366.8    9.0      36.853
2014    9        7    18  51    5.69   366.9    9.0      36.886
2014    9        7    18  56    5.70   366.9    9.0      36.919
2014    9        7    19   2    5.70   367.0    9.1      36.952
2014    9        7    19   7    5.71   367.0    9.1      36.984
2014    9        7    19  13    5.71   367.1    9.1      37.017
2014    9        7    19  19    5.71   367.2    9.1      37.050
2014    9        7    19  24    5.72   367.2    9.1      37.083
2014    9        7    19  30    5.72   367.3    9.1      37.116
2014    9        7    19  35    5.72   367.4    9.1      37.149
2014    9        7    19  41    5.73   367.4    9.1      37.182
2014    9        7    19  47    5.73   367.5    9.1      37.215
2014    9        7    19  52    5.74   367.6    9.1      37.248
2014    9        7    19  58    5.74   367.6    9.1      37.280
2014    9        7    20   4    5.74   367.7    9.1      37.313
2014    9        7    20   9    5.75   367.8    9.1      37.346
2014    9        7    20  15    5.75   367.9    9.1      37.379
2014    9        7    20  20    5.76   367.9    9.1      37.412
2014    9        7    20  26    5.76   368.0    9.1      37.444
2014    9        7    20  32    5.76   368.1    9.1      37.477
2014    9        7    20  37    5.77   368.2    9.1      37.510
2014    9        7    20  43    5.77   368.2    9.1      37.543
2014    9        7    20  48    5.77   368.3    9.1      37.575
2014    9        7    20  54    5.78   368.4    9.1      37.608
2014    9        7    21   0    5.78   368.5    9.1      37.641
2014    9        7    21   5    5.79   368.5    9.1      37.674
2014    9        7    21  11    5.79   368.6    9.1      37.707
2014    9        7    21  16    5.79   368.7    9.1      37.740
2014    9        7    21  22    5.80   368.8    9.1      37.773
2014    9        7    21  28    5.80   368.9    9.1      37.806
2014    9        7    21  33    5.80   368.9    9.1      37.839
2014    9        7    21  39    5.81   369.0    9.1      37.873
2014    9        7    21  44    5.81   369.1    9.1      37.906
2014    9        7    21  50    5.82   369.2    9.1      37.940
2014    9        7    21  56    5.82   369.3    9.1      37.974
2014    9        7    22   1    5.82   369.3    9.1      38.008
2014    9        7    22   7    5.83   369.4    9.2      38.042
2014    9        7    22  13    5.83   369.5    9.2      38.076
2014    9        7    22  18    5.84   369.6    9.2      38.111
2014    9        7    22  24    5.84   369.7    9.2      38.146
2014    9        7    22  29    5.84   369.8    9.2      38.183
2014    9        7    22  35    5.85   369.8    9.2      38.220
2014    9        7    22  41    5.85   369.9    9.2      38.258
2014    9        7    22  46    5.86   370.0    9.2      38.297
2014    9        7    22  52    5.86   370.1    9.2      38.338
2014    9        7    22  57    5.86   370.2    9.2      38.379
2014    9        7    23   3    5.87   370.3    9.2      38.421
2014    9        7    23   9    5.87   370.4    9.2      38.464
2014    9        7    23  14    5.88   370.5    9.2      38.507
2014    9        7    23  20    5.88   370.6    9.2      38.550
2014    9        7    23  25    5.88   370.7    9.2      38.594
2014    9        7    23  31    5.89   370.8    9.2      38.639
2014    9        7    23  37    5.89   370.9    9.2      38.683
2014    9        7    23  42    5.90   371.0    9.2      38.728
2014    9        7    23  48    5.90   371.1    9.2      38.773
2014    9        7    23  54    5.90   371.2    9.3      38.818
2014    9        7    23  59    5.91   371.4    9.3      38.863
2014    9        8     0   5    5.91   371.5    9.3      38.910
2014    9        8     0  10    5.92   371.6    9.3      38.958
2014    9        8     0  16    5.92   371.7    9.3      39.006
2014    9        8     0  22    5.92   371.8    9.3      39.056
2014    9        8     0  27    5.93   371.9    9.3      39.106
2014    9        8     0  33    5.93   372.0    9.3      39.158
2014    9        8     0  38    5.93   372.2    9.3      39.210
2014    9        8     0  44    5.94   372.3    9.3      39.263
2014    9        8     0  50    5.94   372.4    9.3      39.315
2014    9        8     0  55    5.95   372.5    9.3      39.367
2014    9        8     1   1    5.95   372.7    9.3      39.418
2014    9        8     1   6    5.95   372.8    9.3      39.468
2014    9        8     1  12    5.96   372.9    9.3      39.518
2014    9        8     1  18    5.96   373.0    9.3      39.566
2014    9        8     1  23    5.96   373.1    9.3      39.614
2014    9        8     1  29    5.97   373.3    9.3      39.661
2014    9        8     1  34    5.97   373.4    9.3      39.708
2014    9        8     1  40    5.97   373.5    9.4      39.753
2014    9        8     1  46    5.98   373.6    9.4      39.797
2014    9        8     1  51    5.98   373.8    9.4      39.841
2014    9        8     1  57    5.98   373.9    9.4      39.884
2014    9        8     2   3    5.99   374.0    9.4      39.926
2014    9        8     2   8    5.99   374.1    9.4      39.968
2014    9        8     2  14    5.99   374.2    9.4      40.009
2014    9        8     2  19    6.00   374.4    9.4      40.049
2014    9        8     2  25    6.00   374.5    9.4      40.089
2014    9        8     2  31    6.00   374.6    9.4      40.128
2014    9        8     2  36    6.00   374.7    9.4      40.167
2014    9        8     2  42    6.01   374.8    9.4      40.205
2014    9        8     2  47    6.01   375.0    9.4      40.243
2014    9        8     2  53    6.01   375.1    9.4      40.281
2014    9        8     2  59    6.02   375.2    9.4      40.318
2014    9        8     3   4    6.02   375.3    9.4      40.355
2014    9        8     3  10    6.02   375.5    9.4      40.391
2014    9        8     3  15    6.02   375.6    9.4      40.427
2014    9        8     3  21    6.03   375.7    9.4      40.463
2014    9        8     3  27    6.03   375.9    9.4      40.499
2014    9        8     3  32    6.03   376.0    9.4      40.534
2014    9        8     3  38    6.04   376.1    9.4      40.569
2014    9        8     3  43    6.04   376.2    9.4      40.603
2014    9        8     3  49    6.04   376.4    9.4      40.636
2014    9        8     3  55    6.04   376.5    9.4      40.669
2014    9        8     4   0    6.04   376.6    9.4      40.701
2014    9        8     4   6    6.05   376.8    9.4      40.733
2014    9        8     4  12    6.05   376.9    9.4      40.764
2014    9        8     4  17    6.05   377.0    9.4      40.794
2014    9        8     4  23    6.05   377.2    9.4      40.825
2014    9        8     4  28    6.06   377.3    9.4      40.854
2014    9        8     4  34    6.06   377.4    9.3      40.883
2014    9        8     4  40    6.06   377.5    9.3      40.911
2014    9        8     4  45    6.06   377.7    9.3      40.939
2014    9        8     4  51    6.07   377.8    9.3      40.967
2014    9        8     4  56    6.07   377.9    9.3      40.994
2014    9        8     5   2    6.07   378.1    9.3      41.021
2014    9        8     5   8    6.07   378.2    9.3      41.047
2014    9        8     5  13    6.07   378.3    9.3      41.074
2014    9        8     5  19    6.08   378.5    9.3      41.100
2014    9        8     5  24    6.08   378.6    9.3      41.125
2014    9        8     5  30    6.08   378.7    9.3      41.151
2014    9        8     5  36    6.08   378.8    9.3      41.176
2014    9        8     5  41    6.08   379.0    9.3      41.201
2014    9        8     5  47    6.09   379.1    9.3      41.227
2014    9        8     5  52    6.09   379.2    9.3      41.252
2014    9        8     5  58    6.09   379.4    9.3      41.277
2014    9        8     6   4    6.09   379.5    9.3      41.302
2014    9        8     6   9    6.10   379.6    9.3      41.327
2014    9        8     6  15    6.10   379.8    9.3      41.352
2014    9        8     6  21    6.10   379.9    9.3      41.377
2014    9        8     6  26    6.10   380.0    9.3      41.403
2014    9        8     6  32    6.10   380.1    9.3      41.428
2014    9        8     6  37    6.11   380.3    9.3      41.454
2014    9        8     6  43    6.11   380.4    9.3      41.480
2014    9        8     6  49    6.11   380.5    9.3      41.507
2014    9        8     6  54    6.11   380.7    9.3      41.534
2014    9        8     7   0    6.12   380.8    9.3      41.561
2014    9        8     7   5    6.12   380.9    9.3      41.589
2014    9        8     7  11    6.12   381.1    9.3      41.616
2014    9        8     7  17    6.12   381.2    9.3      41.644
2014    9        8     7  22    6.12   381.3    9.3      41.674
2014    9        8     7  28    6.13   381.5    9.3      41.706
2014    9        8     7  33    6.13   381.6    9.3      41.739
2014    9        8     7  39    6.13   381.7    9.3      41.773
2014    9        8     7  45    6.13   381.9    9.3      41.808
2014    9        8     7  50    6.14   382.0    9.3      41.845
2014    9        8     7  56    6.14   382.2    9.3      41.883
2014    9        8     8   2    6.14   382.3    9.3      41.922
2014    9        8     8   7    6.14   382.5    9.3      41.961
2014    9        8     8  13    6.15   382.6    9.3      42.000
2014    9        8     8  18    6.15   382.8    9.3      42.039
2014    9        8     8  24    6.15   382.9    9.3      42.078
2014    9        8     8  30    6.15   383.1    9.3      42.116
2014    9        8     8  35    6.15   383.2    9.3      42.154
2014    9        8     8  41    6.16   383.4    9.3      42.193
2014    9        8     8  46    6.16   383.5    9.3      42.231
2014    9        8     8  52    6.16   383.7    9.3      42.269
2014    9        8     8  58    6.16   383.8    9.3      42.307
2014    9        8     9   3    6.17   384.0    9.3      42.345
2014    9        8     9   9    6.17   384.1    9.3      42.382
2014    9        8     9  14    6.17   384.3    9.3      42.419
2014    9        8     9  20    6.17   384.4    9.3      42.456
2014    9        8     9  26    6.17   384.6    9.3      42.494
2014    9        8     9  31    6.18   384.7    9.3      42.532
2014    9        8     9  37    6.18   384.9    9.3      42.570
2014    9        8     9  42    6.18   385.0    9.3      42.608
2014    9        8     9  48    6.18   385.2    9.3      42.646
2014    9        8     9  54    6.18   385.4    9.3      42.684
2014    9        8     9  59    6.18   385.5    9.3      42.722
2014    9        8    10   5    6.19   385.7    9.3      42.761
2014    9        8    10  11    6.19   385.8    9.3      42.799
2014    9        8    10  16    6.19   386.0    9.3      42.837
2014    9        8    10  22    6.19   386.1    9.3      42.874
2014    9        8    10  27    6.19   386.3    9.3      42.912
2014    9        8    10  33    6.19   386.4    9.3      42.949
2014    9        8    10  39    6.20   386.6    9.3      42.986
2014    9        8    10  44    6.20   386.7    9.3      43.023
2014    9        8    10  50    6.20   386.9    9.3      43.059
2014    9        8    10  55    6.20   387.0    9.3      43.095
2014    9        8    11   1    6.20   387.2    9.3      43.131
2014    9        8    11   7    6.20   387.4    9.3      43.166
2014    9        8    11  12    6.20   387.5    9.3      43.200
2014    9        8    11  18    6.20   387.7    9.3      43.234
2014    9        8    11  23    6.21   387.8    9.3      43.268
2014    9        8    11  29    6.21   388.0    9.2      43.302
2014    9        8    11  35    6.21   388.1    9.2      43.335
2014    9        8    11  40    6.21   388.3    9.2      43.369
2014    9        8    11  46    6.21   388.5    9.2      43.403
2014    9        8    11  51    6.21   388.6    9.2      43.436
2014    9        8    11  57    6.21   388.8    9.2      43.469
2014    9        8    12   3    6.21   388.9    9.2      43.503
2014    9        8    12   8    6.21   389.1    9.2      43.536
2014    9        8    12  14    6.21   389.3    9.2      43.568
2014    9        8    12  20    6.22   389.4    9.2      43.600
2014    9        8    12  25    6.22   389.6    9.2      43.631
2014    9        8    12  31    6.22   389.8    9.2      43.661
2014    9        8    12  36    6.22   389.9    9.2      43.691
2014    9        8    12  42    6.22   390.1    9.2      43.720
2014    9        8    12  48    6.22   390.2    9.2      43.748
2014    9        8    12  53    6.22   390.4    9.2      43.775
2014    9        8    12  59    6.22   390.6    9.2      43.802
2014    9        8    13   4    6.22   390.7    9.2      43.828
2014    9        8    13  10    6.22   390.9    9.2      43.854
2014    9        8    13  16    6.22   391.1    9.2      43.879
2014    9        8    13  21    6.22   391.2    9.2      43.903
2014    9        8    13  27    6.22   391.4    9.2      43.926
2014    9        8    13  32    6.22   391.6    9.1      43.949
2014    9        8    13  38    6.22   391.7    9.1      43.971
2014    9        8    13  44    6.22   391.9    9.1      43.993
2014    9        8    13  49    6.22   392.0    9.1      44.014
2014    9        8    13  55    6.22   392.2    9.1      44.035
2014    9        8    14   1    6.22   392.4    9.1      44.055
2014    9        8    14   6    6.22   392.5    9.1      44.075
2014    9        8    14  12    6.22   392.7    9.1      44.094
2014    9        8    14  17    6.22   392.9    9.1      44.112
2014    9        8    14  23    6.22   393.0    9.1      44.131
2014    9        8    14  29    6.22   393.2    9.1      44.148
2014    9        8    14  34    6.22   393.3    9.1      44.166
2014    9        8    14  40    6.22   393.5    9.1      44.183
2014    9        8    14  45    6.22   393.6    9.1      44.200
2014    9        8    14  51    6.22   393.8    9.0      44.216
2014    9        8    14  57    6.22   394.0    9.0      44.232
2014    9        8    15   2    6.22   394.1    9.0      44.248
2014    9        8    15   8    6.22   394.3    9.0      44.263
2014    9        8    15  13    6.22   394.4    9.0      44.279
2014    9        8    15  19    6.22   394.6    9.0      44.294
2014    9        8    15  25    6.22   394.7    9.0      44.309
2014    9        8    15  30    6.22   394.9    9.0      44.324
2014    9        8    15  36    6.22   395.0    9.0      44.339
2014    9        8    15  41    6.22   395.2    9.0      44.354
2014    9        8    15  47    6.22   395.4    9.0      44.369
2014    9        8    15  53    6.22   395.5    9.0      44.384
2014    9        8    15  58    6.22   395.7    9.0      44.399
2014    9        8    16   4    6.22   395.8    9.0      44.414
2014    9        8    16  10    6.22   396.0    8.9      44.429
2014    9        8    16  15    6.22   396.1    8.9      44.445
2014    9        8    16  21    6.22   396.3    8.9      44.460
2014    9        8    16  26    6.22   396.4    8.9      44.475
2014    9        8    16  32    6.22   396.6    8.9      44.491
2014    9        8    16  38    6.22   396.7    8.9      44.507
2014    9        8    16  43    6.22   396.9    8.9      44.523
2014    9        8    16  49    6.22   397.0    8.9      44.540
2014    9        8    16  54    6.22   397.2    8.9      44.558
2014    9        8    17   0    6.22   397.3    8.9      44.575
2014    9        8    17   6    6.21   397.5    8.9      44.593
2014    9        8    17  11    6.21   397.6    8.9      44.612
2014    9        8    17  17    6.21   397.7    8.9      44.631
2014    9        8    17  22    6.21   397.9    8.9      44.650
2014    9        8    17  28    6.21   398.0    8.9      44.668
2014    9        8    17  34    6.21   398.2    8.9      44.687
2014    9        8    17  39    6.21   398.3    8.8      44.705
2014    9        8    17  45    6.21   398.5    8.8      44.723
2014    9        8    17  50    6.21   398.6    8.8      44.740
2014    9        8    17  56    6.21   398.7    8.8      44.758
2014    9        8    18   2    6.21   398.9    8.8      44.775
2014    9        8    18   7    6.21   399.0    8.8      44.792
2014    9        8    18  13    6.21   399.2    8.8      44.809
2014    9        8    18  19    6.21   399.3    8.8      44.826
2014    9        8    18  24    6.21   399.4    8.8      44.842
2014    9        8    18  30    6.20   399.6    8.8      44.858
2014    9        8    18  35    6.20   399.7    8.8      44.874
2014    9        8    18  41    6.20   399.8    8.8      44.891
2014    9        8    18  47    6.20   400.0    8.8      44.907
2014    9        8    18  52    6.20   400.1    8.8      44.924
2014    9        8    18  58    6.20   400.2    8.8      44.942
2014    9        8    19   3    6.20   400.4    8.8      44.959
2014    9        8    19   9    6.20   400.5    8.8      44.977
2014    9        8    19  15    6.20   400.6    8.8      44.996
2014    9        8    19  20    6.20   400.8    8.8      45.014
2014    9        8    19  26    6.20   400.9    8.7      45.033
2014    9        8    19  31    6.20   401.0    8.7      45.052
2014    9        8    19  37    6.19   401.2    8.7      45.070
2014    9        8    19  43    6.19   401.3    8.7      45.087
2014    9        8    19  48    6.19   401.4    8.7      45.105
2014    9        8    19  54    6.19   401.6    8.7      45.122
2014    9        8    19  59    6.19   401.7    8.7      45.139
2014    9        8    20   5    6.19   401.8    8.7      45.156
2014    9        8    20  11    6.19   402.0    8.7      45.172
2014    9        8    20  16    6.19   402.1    8.7      45.189
2014    9        8    20  22    6.18   402.2    8.7      45.205
2014    9        8    20  28    6.18   402.4    8.7      45.220
2014    9        8    20  33    6.18   402.5    8.7      45.235
2014    9        8    20  39    6.18   402.6    8.7      45.250
2014    9        8    20  44    6.18   402.8    8.7      45.265
2014    9        8    20  50    6.18   402.9    8.7      45.280
2014    9        8    20  56    6.18   403.0    8.7      45.294
2014    9        8    21   1    6.17   403.2    8.6      45.308
2014    9        8    21   7    6.17   403.3    8.6      45.321
2014    9        8    21  12    6.17   403.4    8.6      45.334
2014    9        8    21  18    6.17   403.6    8.6      45.347
2014    9        8    21  24    6.17   403.7    8.6      45.360
2014    9        8    21  29    6.17   403.8    8.6      45.371
2014    9        8    21  35    6.16   403.9    8.6      45.383
2014    9        8    21  40    6.16   404.1    8.6      45.393
2014    9        8    21  46    6.16   404.2    8.6      45.403
2014    9        8    21  52    6.16   404.3    8.6      45.413
2014    9        8    21  57    6.16   404.5    8.6      45.422
2014    9        8    22   3    6.16   404.6    8.6      45.430
2014    9        8    22   9    6.15   404.7    8.6      45.438
2014    9        8    22  14    6.15   404.9    8.6      45.445
2014    9        8    22  20    6.15   405.0    8.5      45.452
2014    9        8    22  25    6.15   405.1    8.5      45.458
2014    9        8    22  31    6.15   405.2    8.5      45.464
2014    9        8    22  37    6.14   405.4    8.5      45.468
2014    9        8    22  42    6.14   405.5    8.5      45.473
2014    9        8    22  48    6.14   405.6    8.5      45.477
2014    9        8    22  53    6.14   405.7    8.5      45.481
2014    9        8    22  59    6.13   405.9    8.5      45.484
2014    9        8    23   5    6.13   406.0    8.5      45.486
2014    9        8    23  10    6.13   406.1    8.5      45.488
2014    9        8    23  16    6.13   406.2    8.5      45.490
2014    9        8    23  21    6.13   406.4    8.5      45.491
2014    9        8    23  27    6.12   406.5    8.4      45.492
2014    9        8    23  33    6.12   406.6    8.4      45.492
2014    9        8    23  38    6.12   406.7    8.4      45.492
2014    9        8    23  44    6.12   406.9    8.4      45.492
2014    9        8    23  49    6.11   407.0    8.4      45.490
2014    9        8    23  55    6.11   407.1    8.4      45.489
2014    9        9     0   1    6.11   407.2    8.4      45.487
2014    9        9     0   6    6.11   407.3    8.4      45.485
2014    9        9     0  12    6.10   407.5    8.4      45.482
2014    9        9     0  18    6.10   407.6    8.4      45.480
2014    9        9     0  23    6.10   407.7    8.4      45.476
2014    9        9     0  29    6.10   407.8    8.4      45.473
2014    9        9     0  34    6.09   407.9    8.3      45.469
2014    9        9     0  40    6.09   408.0    8.3      45.464
2014    9        9     0  46    6.09   408.1    8.3      45.460
2014    9        9     0  51    6.09   408.2    8.3      45.455
2014    9        9     0  57    6.08   408.4    8.3      45.449
2014    9        9     1   2    6.08   408.5    8.3      45.444
2014    9        9     1   8    6.08   408.6    8.3      45.438
2014    9        9     1  14    6.08   408.7    8.3      45.431
2014    9        9     1  19    6.07   408.8    8.3      45.425
2014    9        9     1  25    6.07   408.9    8.3      45.418
2014    9        9     1  30    6.07   409.0    8.3      45.411
2014    9        9     1  36    6.06   409.1    8.2      45.404
2014    9        9     1  42    6.06   409.2    8.2      45.397
2014    9        9     1  47    6.06   409.3    8.2      45.389
2014    9        9     1  53    6.06   409.4    8.2      45.381
2014    9        9     1  58    6.05   409.5    8.2      45.374
2014    9        9     2   4    6.05   409.6    8.2      45.366
2014    9        9     2  10    6.05   409.7    8.2      45.358
2014    9        9     2  15    6.05   409.7    8.2      45.351
2014    9        9     2  21    6.04   409.8    8.2      45.343
2014    9        9     2  27    6.04   409.9    8.2      45.336
2014    9        9     2  32    6.04   410.0    8.2      45.328
2014    9        9     2  38    6.04   410.1    8.2      45.321
2014    9        9     2  43    6.03   410.2    8.2      45.315
2014    9        9     2  49    6.03   410.3    8.1      45.308
2014    9        9     2  55    6.03   410.3    8.1      45.302
2014    9        9     3   0    6.03   410.4    8.1      45.296
2014    9        9     3   6    6.02   410.5    8.1      45.290
2014    9        9     3  11    6.02   410.6    8.1      45.285
2014    9        9     3  17    6.02   410.7    8.1      45.280
2014    9        9     3  23    6.02   410.7    8.1      45.276
2014    9        9     3  28    6.01   410.8    8.1      45.273
2014    9        9     3  34    6.01   410.9    8.1      45.269
2014    9        9     3  39    6.01   411.0    8.1      45.266
2014    9        9     3  45    6.01   411.0    8.1      45.263
2014    9        9     3  51    6.00   411.1    8.1      45.261
2014    9        9     3  56    6.00   411.2    8.1      45.259
2014    9        9     4   2    6.00   411.3    8.1      45.258
2014    9        9     4   7    6.00   411.3    8.1      45.258
2014    9        9     4  13    5.99   411.4    8.1      45.258
2014    9        9     4  19    5.99   411.5    8.1      45.258
2014    9        9     4  24    5.99   411.5    8.1      45.258
2014    9        9     4  30    5.99   411.6    8.1      45.259
2014    9        9     4  36    5.99   411.7    8.1      45.259
2014    9        9     4  41    5.98   411.7    8.0      45.260
2014    9        9     4  47    5.98   411.8    8.0      45.260
2014    9        9     4  52    5.98   411.9    8.0      45.259
2014    9        9     4  58    5.98   411.9    8.0      45.258
2014    9        9     5   4    5.97   412.0    8.0      45.257
2014    9        9     5   9    5.97   412.1    8.0      45.255
2014    9        9     5  15    5.97   412.1    8.0      45.252
2014    9        9     5  20    5.97   412.2    8.0      45.250
2014    9        9     5  26    5.97   412.3    8.0      45.247
2014    9        9     5  32    5.96   412.3    8.0      45.243
2014    9        9     5  37    5.96   412.4    8.0      45.239
2014    9        9     5  43    5.96   412.5    8.0      45.235
2014    9        9     5  48    5.96   412.5    8.0      45.230
2014    9        9     5  54    5.95   412.6    8.0      45.225
2014    9        9     6   0    5.95   412.7    8.0      45.220
2014    9        9     6   5    5.95   412.7    8.0      45.214
2014    9        9     6  11    5.95   412.8    8.0      45.208
2014    9        9     6  17    5.94   412.9    8.0      45.201
2014    9        9     6  22    5.94   412.9    8.0      45.194
2014    9        9     6  28    5.94   413.0    7.9      45.187
2014    9        9     6  33    5.94   413.0    7.9      45.180
2014    9        9     6  39    5.93   413.1    7.9      45.172
2014    9        9     6  45    5.93   413.2    7.9      45.164
2014    9        9     6  50    5.93   413.2    7.9      45.156
2014    9        9     6  56    5.93   413.3    7.9      45.147
2014    9        9     7   1    5.92   413.4    7.9      45.138
2014    9        9     7   7    5.92   413.4    7.9      45.128
2014    9        9     7  13    5.92   413.5    7.9      45.119
2014    9        9     7  18    5.92   413.6    7.9      45.109
2014    9        9     7  24    5.91   413.6    7.9      45.099
2014    9        9     7  29    5.91   413.7    7.9      45.089
2014    9        9     7  35    5.91   413.7    7.9      45.078
2014    9        9     7  41    5.90   413.8    7.9      45.068
2014    9        9     7  46    5.90   413.9    7.9      45.057
2014    9        9     7  52    5.90   413.9    7.9      45.046
2014    9        9     7  57    5.90   414.0    7.9      45.034
2014    9        9     8   3    5.89   414.0    7.8      45.022
2014    9        9     8   9    5.89   414.1    7.8      45.010
2014    9        9     8  14    5.89   414.1    7.8      44.998
2014    9        9     8  20    5.89   414.2    7.8      44.986
2014    9        9     8  26    5.88   414.2    7.8      44.973
2014    9        9     8  31    5.88   414.3    7.8      44.960
2014    9        9     8  37    5.88   414.3    7.8      44.947
2014    9        9     8  42    5.88   414.4    7.8      44.934
2014    9        9     8  48    5.87   414.4    7.8      44.920
2014    9        9     8  54    5.87   414.5    7.8      44.907
2014    9        9     8  59    5.87   414.5    7.8      44.894
2014    9        9     9   5    5.87   414.6    7.8      44.880
2014    9        9     9  10    5.86   414.6    7.8      44.867
2014    9        9     9  16    5.86   414.7    7.8      44.853
2014    9        9     9  22    5.86   414.7    7.8      44.840
2014    9        9     9  27    5.86   414.8    7.8      44.827
2014    9        9     9  33    5.85   414.8    7.8      44.813
2014    9        9     9  38    5.85   414.9    7.7      44.800
2014    9        9     9  44    5.85   414.9    7.7      44.788
2014    9        9     9  50    5.85   414.9    7.7      44.775
2014    9        9     9  55    5.84   415.0    7.7      44.763
2014    9        9    10   1    5.84   415.0    7.7      44.750
2014    9        9    10   6    5.84   415.1    7.7      44.738
2014    9        9    10  12    5.84   415.1    7.7      44.727
2014    9        9    10  18    5.83   415.1    7.7      44.715
2014    9        9    10  23    5.83   415.2    7.7      44.704
2014    9        9    10  29    5.83   415.2    7.7      44.694
2014    9        9    10  35    5.83   415.3    7.7      44.683
2014    9        9    10  40    5.82   415.3    7.7      44.673
2014    9        9    10  46    5.82   415.3    7.7      44.663
2014    9        9    10  51    5.82   415.4    7.7      44.653
2014    9        9    10  57    5.82   415.4    7.7      44.643
2014    9        9    11   3    5.82   415.4    7.7      44.634
2014    9        9    11   8    5.81   415.5    7.7      44.625
2014    9        9    11  14    5.81   415.5    7.7      44.617
2014    9        9    11  19    5.81   415.5    7.7      44.609
2014    9        9    11  25    5.81   415.6    7.7      44.602
2014    9        9    11  31    5.81   415.6    7.7      44.594
2014    9        9    11  36    5.80   415.6    7.7      44.587
2014    9        9    11  42    5.80   415.7    7.7      44.580
2014    9        9    11  47    5.80   415.7    7.7      44.573
2014    9        9    11  53    5.80   415.7    7.7      44.566
2014    9        9    11  59    5.80   415.8    7.7      44.558
2014    9        9    12   4    5.79   415.8    7.7      44.550
2014    9        9    12  10    5.79   415.8    7.6      44.542
2014    9        9    12  16    5.79   415.8    7.6      44.534
2014    9        9    12  21    5.79   415.9    7.6      44.526
2014    9        9    12  27    5.79   415.9    7.6      44.518
2014    9        9    12  32    5.79   415.9    7.6      44.509
2014    9        9    12  38    5.78   416.0    7.6      44.501
2014    9        9    12  44    5.78   416.0    7.6      44.492
2014    9        9    12  49    5.78   416.0    7.6      44.483
2014    9        9    12  55    5.78   416.0    7.6      44.474
2014    9        9    13   0    5.78   416.1    7.6      44.465
2014    9        9    13   6    5.77   416.1    7.6      44.456
2014    9        9    13  12    5.77   416.1    7.6      44.447
2014    9        9    13  17    5.77   416.1    7.6      44.438
2014    9        9    13  23    5.77   416.2    7.6      44.428
2014    9        9    13  28    5.77   416.2    7.6      44.419
2014    9        9    13  34    5.77   416.2    7.6      44.410
2014    9        9    13  40    5.76   416.2    7.6      44.401
2014    9        9    13  45    5.76   416.3    7.6      44.391
2014    9        9    13  51    5.76   416.3    7.6      44.382
2014    9        9    13  56    5.76   416.3    7.6      44.373
2014    9        9    14   2    5.76   416.3    7.6      44.364
2014    9        9    14   8    5.75   416.3    7.6      44.355
2014    9        9    14  13    5.75   416.4    7.6      44.346
2014    9        9    14  19    5.75   416.4    7.6      44.337
2014    9        9    14  25    5.75   416.4    7.6      44.328
2014    9        9    14  30    5.75   416.4    7.6      44.319
2014    9        9    14  36    5.75   416.4    7.6      44.310
2014    9        9    14  41    5.74   416.5    7.6      44.301
2014    9        9    14  47    5.74   416.5    7.6      44.293
2014    9        9    14  53    5.74   416.5    7.6      44.284
2014    9        9    14  58    5.74   416.5    7.6      44.276
2014    9        9    15   4    5.74   416.6    7.6      44.268
2014    9        9    15   9    5.74   416.6    7.6      44.259
2014    9        9    15  15    5.73   416.6    7.6      44.251
2014    9        9    15  21    5.73   416.6    7.6      44.243
2014    9        9    15  26    5.73   416.6    7.6      44.235
2014    9        9    15  32    5.73   416.6    7.6      44.227
2014    9        9    15  37    5.73   416.7    7.5      44.218
2014    9        9    15  43    5.73   416.7    7.5      44.210
2014    9        9    15  49    5.73   416.7    7.5      44.203
2014    9        9    15  54    5.72   416.7    7.5      44.195
2014    9        9    16   0    5.72   416.7    7.5      44.187
2014    9        9    16   5    5.72   416.8    7.5      44.179
2014    9        9    16  11    5.72   416.8    7.5      44.171
2014    9        9    16  17    5.72   416.8    7.5      44.164
2014    9        9    16  22    5.72   416.8    7.5      44.156
2014    9        9    16  28    5.71   416.8    7.5      44.148
2014    9        9    16  34    5.71   416.8    7.5      44.141
2014    9        9    16  39    5.71   416.9    7.5      44.133
2014    9        9    16  45    5.71   416.9    7.5      44.125
2014    9        9    16  50    5.71   416.9    7.5      44.118
2014    9        9    16  56    5.71   416.9    7.5      44.110
2014    9        9    17   2    5.71   416.9    7.5      44.102
2014    9        9    17   7    5.70   416.9    7.5      44.094
2014    9        9    17  13    5.70   417.0    7.5      44.086
2014    9        9    17  18    5.70   417.0    7.5      44.077
2014    9        9    17  24    5.70   417.0    7.5      44.069
2014    9        9    17  30    5.70   417.0    7.5      44.061
2014    9        9    17  35    5.70   417.0    7.5      44.053
2014    9        9    17  41    5.70   417.0    7.5      44.044
2014    9        9    17  46    5.70   417.1    7.5      44.036
2014    9        9    17  52    5.69   417.1    7.5      44.027
2014    9        9    17  58    5.69   417.1    7.5      44.019
2014    9        9    18   3    5.69   417.1    7.5      44.010
2014    9        9    18   9    5.69   417.1    7.5      44.002
2014    9        9    18  14    5.69   417.2    7.5      43.993
2014    9        9    18  20    5.69   417.2    7.5      43.984
2014    9        9    18  26    5.69   417.2    7.5      43.976
2014    9        9    18  31    5.69   417.2    7.5      43.967
2014    9        9    18  37    5.68   417.2    7.5      43.959
2014    9        9    18  43    5.68   417.2    7.5      43.950
2014    9        9    18  48    5.68   417.3    7.5      43.942
2014    9        9    18  54    5.68   417.3    7.5      43.933
2014    9        9    18  59    5.68   417.3    7.5      43.925
2014    9        9    19   5    5.68   417.3    7.5      43.916
2014    9        9    19  11    5.68   417.3    7.5      43.907
2014    9        9    19  16    5.68   417.3    7.5      43.899
2014    9        9    19  22    5.67   417.3    7.5      43.891
2014    9        9    19  27    5.67   417.4    7.5      43.882
2014    9        9    19  33    5.67   417.4    7.5      43.874
2014    9        9    19  39    5.67   417.4    7.5      43.865
2014    9        9    19  44    5.67   417.4    7.5      43.857
2014    9        9    19  50    5.67   417.4    7.5      43.849
2014    9        9    19  55    5.67   417.4    7.5      43.841
2014    9        9    20   1    5.67   417.4    7.4      43.833
2014    9        9    20   7    5.67   417.5    7.4      43.825
2014    9        9    20  12    5.66   417.5    7.4      43.817
2014    9        9    20  18    5.66   417.5    7.4      43.810
2014    9        9    20  24    5.66   417.5    7.4      43.802
2014    9        9    20  29    5.66   417.5    7.4      43.795
2014    9        9    20  35    5.66   417.5    7.4      43.788
2014    9        9    20  40    5.66   417.5    7.4      43.781
2014    9        9    20  46    5.66   417.5    7.4      43.774
2014    9        9    20  52    5.66   417.6    7.4      43.767
2014    9        9    20  57    5.66   417.6    7.4      43.761
2014    9        9    21   3    5.66   417.6    7.4      43.755
2014    9        9    21   8    5.65   417.6    7.4      43.748
2014    9        9    21  14    5.65   417.6    7.4      43.742
2014    9        9    21  20    5.65   417.6    7.4      43.737
2014    9        9    21  25    5.65   417.6    7.4      43.731
2014    9        9    21  31    5.65   417.6    7.4      43.726
2014    9        9    21  36    5.65   417.6    7.4      43.721
2014    9        9    21  42    5.65   417.6    7.4      43.716
2014    9        9    21  48    5.65   417.6    7.4      43.711
2014    9        9    21  53    5.65   417.7    7.4      43.707
2014    9        9    21  59    5.65   417.7    7.4      43.703
2014    9        9    22   4    5.65   417.7    7.4      43.699
2014    9        9    22  10    5.65   417.7    7.4      43.695
2014    9        9    22  16    5.64   417.7    7.4      43.691
2014    9        9    22  21    5.64   417.7    7.4      43.688
2014    9        9    22  27    5.64   417.7    7.4      43.684
2014    9        9    22  33    5.64   417.7    7.4      43.681
2014    9        9    22  38    5.64   417.7    7.4      43.678
2014    9        9    22  44    5.64   417.7    7.4      43.675
2014    9        9    22  49    5.64   417.7    7.4      43.673
2014    9        9    22  55    5.64   417.7    7.4      43.670
2014    9        9    23   1    5.64   417.7    7.4      43.668
2014    9        9    23   6    5.64   417.7    7.4      43.666
2014    9        9    23  12    5.64   417.8    7.4      43.664
2014    9        9    23  17    5.64   417.8    7.4      43.662
2014    9        9    23  23    5.64   417.8    7.4      43.661
2014    9        9    23  29    5.64   417.8    7.4      43.659
2014    9        9    23  34    5.64   417.8    7.4      43.658
2014    9        9    23  40    5.64   417.8    7.4      43.657
2014    9        9    23  45    5.64   417.8    7.4      43.655
2014    9        9    23  51    5.63   417.8    7.4      43.654
2014    9        9    23  57    5.63   417.8    7.4      43.652
2014    9       10     0   2    5.63   417.8    7.4      43.651
2014    9       10     0   8    5.63   417.8    7.4      43.650
2014    9       10     0  13    5.63   417.8    7.4      43.648
2014    9       10     0  19    5.63   417.8    7.4      43.647
2014    9       10     0  25    5.63   417.8    7.4      43.645
2014    9       10     0  30    5.63   417.9    7.4      43.644
2014    9       10     0  36    5.63   417.9    7.4      43.643
2014    9       10     0  42    5.63   417.9    7.4      43.641
2014    9       10     0  47    5.63   417.9    7.4      43.640
2014    9       10     0  53    5.63   417.9    7.4      43.639
2014    9       10     0  58    5.63   417.9    7.4      43.637
2014    9       10     1   4    5.63   417.9    7.4      43.636
2014    9       10     1  10    5.63   417.9    7.4      43.635
2014    9       10     1  15    5.63   417.9    7.4      43.633
2014    9       10     1  21    5.63   417.9    7.4      43.632
2014    9       10     1  26    5.63   417.9    7.4      43.631
2014    9       10     1  32    5.63   418.0    7.4      43.630
2014    9       10     1  38    5.63   418.0    7.4      43.628
2014    9       10     1  43    5.63   418.0    7.4      43.627
2014    9       10     1  49    5.63   418.0    7.4      43.626
2014    9       10     1  54    5.63   418.0    7.4      43.625
2014    9       10     2   0    5.63   418.0    7.4      43.624
2014    9       10     2   6    5.63   418.0    7.4      43.623
2014    9       10     2  11    5.63   418.0    7.4      43.622
2014    9       10     2  17    5.63   418.0    7.4      43.621
2014    9       10     2  22    5.63   418.1    7.4      43.620
2014    9       10     2  28    5.63   418.1    7.4      43.619
2014    9       10     2  34    5.63   418.1    7.4      43.619
2014    9       10     2  39    5.63   418.1    7.4      43.618
2014    9       10     2  45    5.63   418.1    7.4      43.617
2014    9       10     2  51    5.63   418.1    7.4      43.617
2014    9       10     2  56    5.63   418.1    7.4      43.616
2014    9       10     3   2    5.63   418.1    7.4      43.616
2014    9       10     3   7    5.63   418.2    7.4      43.615
2014    9       10     3  13    5.63   418.2    7.4      43.615
2014    9       10     3  19    5.63   418.2    7.4      43.615
2014    9       10     3  24    5.63   418.2    7.4      43.614
2014    9       10     3  30    5.63   418.2    7.4      43.614
2014    9       10     3  35    5.63   418.2    7.4      43.614
2014    9       10     3  41    5.63   418.2    7.4      43.614
2014    9       10     3  47    5.63   418.2    7.4      43.614
2014    9       10     3  52    5.63   418.3    7.4      43.615
2014    9       10     3  58    5.63   418.3    7.4      43.615
2014    9       10     4   3    5.63   418.3    7.4      43.615
2014    9       10     4   9    5.63   418.3    7.4      43.616
2014    9       10     4  15    5.63   418.3    7.4      43.616
2014    9       10     4  20    5.63   418.3    7.4      43.617
2014    9       10     4  26    5.63   418.4    7.4      43.618
2014    9       10     4  32    5.63   418.4    7.4      43.618
2014    9       10     4  37    5.63   418.4    7.4      43.619
2014    9       10     4  43    5.63   418.4    7.4      43.620
2014    9       10     4  48    5.63   418.4    7.4      43.622
2014    9       10     4  54    5.63   418.4    7.4      43.623
2014    9       10     5   0    5.63   418.4    7.4      43.624
2014    9       10     5   5    5.63   418.5    7.4      43.626
2014    9       10     5  11    5.63   418.5    7.4      43.627
2014    9       10     5  16    5.63   418.5    7.4      43.629
2014    9       10     5  22    5.63   418.5    7.4      43.630
2014    9       10     5  28    5.63   418.5    7.4      43.632
2014    9       10     5  33    5.63   418.5    7.4      43.634
2014    9       10     5  39    5.63   418.6    7.4      43.636
2014    9       10     5  44    5.63   418.6    7.4      43.639
2014    9       10     5  50    5.63   418.6    7.4      43.641
2014    9       10     5  56    5.63   418.6    7.4      43.643
2014    9       10     6   1    5.63   418.6    7.4      43.646
2014    9       10     6   7    5.63   418.6    7.4      43.648
2014    9       10     6  12    5.63   418.6    7.4      43.651
2014    9       10     6  18    5.63   418.7    7.4      43.654
2014    9       10     6  24    5.63   418.7    7.4      43.657
2014    9       10     6  29    5.63   418.7    7.4      43.660
2014    9       10     6  35    5.63   418.7    7.4      43.663
2014    9       10     6  41    5.63   418.7    7.4      43.666
2014    9       10     6  46    5.63   418.7    7.4      43.670
2014    9       10     6  52    5.63   418.8    7.4      43.673
2014    9       10     6  57    5.63   418.8    7.4      43.677
2014    9       10     7   3    5.63   418.8    7.4      43.681
2014    9       10     7   9    5.63   418.8    7.4      43.684
2014    9       10     7  14    5.63   418.8    7.4      43.688
2014    9       10     7  20    5.63   418.8    7.4      43.693
2014    9       10     7  25    5.63   418.9    7.4      43.697
2014    9       10     7  31    5.63   418.9    7.4      43.701
2014    9       10     7  37    5.63   418.9    7.4      43.706
2014    9       10     7  42    5.64   418.9    7.4      43.711
2014    9       10     7  48    5.64   418.9    7.4      43.715
2014    9       10     7  53    5.64   418.9    7.4      43.721
2014    9       10     7  59    5.64   419.0    7.4      43.726
2014    9       10     8   5    5.64   419.0    7.4      43.731
2014    9       10     8  10    5.64   419.0    7.4      43.737
2014    9       10     8  16    5.64   419.0    7.4      43.742
2014    9       10     8  21    5.64   419.0    7.4      43.748
2014    9       10     8  27    5.64   419.0    7.4      43.755
2014    9       10     8  33    5.64   419.1    7.4      43.761
2014    9       10     8  38    5.64   419.1    7.4      43.767
2014    9       10     8  44    5.64   419.1    7.4      43.774
2014    9       10     8  50    5.64   419.1    7.4      43.781
2014    9       10     8  55    5.65   419.1    7.4      43.788
2014    9       10     9   1    5.65   419.1    7.4      43.795
2014    9       10     9   6    5.65   419.2    7.4      43.803
2014    9       10     9  12    5.65   419.2    7.4      43.810
2014    9       10     9  18    5.65   419.2    7.4      43.818
2014    9       10     9  23    5.65   419.2    7.4      43.827
2014    9       10     9  29    5.65   419.2    7.4      43.835
2014    9       10     9  34    5.65   419.3    7.4      43.843
2014    9       10     9  40    5.65   419.3    7.4      43.852
2014    9       10     9  46    5.65   419.3    7.4      43.861
2014    9       10     9  51    5.65   419.3    7.5      43.870
2014    9       10     9  57    5.66   419.3    7.5      43.879
2014    9       10    10   2    5.66   419.4    7.5      43.889
2014    9       10    10   8    5.66   419.4    7.5      43.898
2014    9       10    10  14    5.66   419.4    7.5      43.908
2014    9       10    10  19    5.66   419.4    7.5      43.917
2014    9       10    10  25    5.66   419.5    7.5      43.927
2014    9       10    10  31    5.66   419.5    7.5      43.937
2014    9       10    10  36    5.66   419.5    7.5      43.948
2014    9       10    10  42    5.66   419.5    7.5      43.958
2014    9       10    10  47    5.67   419.6    7.5      43.968
2014    9       10    10  53    5.67   419.6    7.5      43.979
2014    9       10    10  59    5.67   419.6    7.5      43.989
2014    9       10    11   4    5.67   419.6    7.5      44.000
2014    9       10    11  10    5.67   419.7    7.5      44.011
2014    9       10    11  15    5.67   419.7    7.5      44.021
2014    9       10    11  21    5.67   419.7    7.5      44.032
2014    9       10    11  27    5.67   419.8    7.5      44.043
2014    9       10    11  32    5.67   419.8    7.5      44.054
2014    9       10    11  38    5.68   419.8    7.5      44.065
2014    9       10    11  43    5.68   419.8    7.5      44.077
2014    9       10    11  49    5.68   419.9    7.5      44.088
2014    9       10    11  55    5.68   419.9    7.5      44.099
2014    9       10    12   0    5.68   419.9    7.5      44.111
2014    9       10    12   6    5.68   420.0    7.5      44.122
2014    9       10    12  11    5.68   420.0    7.5      44.134
2014    9       10    12  17    5.68   420.0    7.5      44.146
2014    9       10    12  23    5.69   420.1    7.5      44.158
2014    9       10    12  28    5.69   420.1    7.5      44.170
2014    9       10    12  34    5.69   420.1    7.5      44.182
2014    9       10    12  40    5.69   420.2    7.5      44.194
2014    9       10    12  45    5.69   420.2    7.5      44.207
2014    9       10    12  51    5.69   420.2    7.5      44.219
2014    9       10    12  56    5.69   420.3    7.5      44.232
2014    9       10    13   2    5.70   420.3    7.5      44.245
2014    9       10    13   8    5.70   420.3    7.5      44.258
2014    9       10    13  13    5.70   420.4    7.5      44.272
2014    9       10    13  19    5.70   420.4    7.5      44.285
2014    9       10    13  24    5.70   420.4    7.5      44.299
2014    9       10    13  30    5.70   420.5    7.5      44.313
2014    9       10    13  36    5.71   420.5    7.5      44.327
2014    9       10    13  41    5.71   420.6    7.5      44.341
2014    9       10    13  47    5.71   420.6    7.5      44.356
2014    9       10    13  52    5.71   420.6    7.5      44.370
2014    9       10    13  58    5.71   420.7    7.5      44.385
2014    9       10    14   4    5.71   420.7    7.5      44.401
2014    9       10    14   9    5.72   420.8    7.5      44.416
2014    9       10    14  15    5.72   420.8    7.5      44.432
2014    9       10    14  20    5.72   420.9    7.6      44.448
2014    9       10    14  26    5.72   420.9    7.6      44.465
2014    9       10    14  32    5.72   421.0    7.6      44.483
2014    9       10    14  37    5.73   421.0    7.6      44.501
2014    9       10    14  43    5.73   421.1    7.6      44.519
2014    9       10    14  49    5.73   421.1    7.6      44.537
2014    9       10    14  54    5.73   421.2    7.6      44.556
2014    9       10    15   0    5.73   421.2    7.6      44.575
2014    9       10    15   5    5.74   421.3    7.6      44.594
2014    9       10    15  11    5.74   421.3    7.6      44.614
2014    9       10    15  17    5.74   421.4    7.6      44.633
2014    9       10    15  22    5.74   421.4    7.6      44.652
2014    9       10    15  28    5.75   421.5    7.6      44.671
2014    9       10    15  33    5.75   421.5    7.6      44.691
2014    9       10    15  39    5.75   421.6    7.6      44.710
2014    9       10    15  45    5.75   421.6    7.6      44.730
2014    9       10    15  50    5.75   421.7    7.6      44.749
2014    9       10    15  56    5.76   421.7    7.6      44.769
2014    9       10    16   1    5.76   421.8    7.6      44.789
2014    9       10    16   7    5.76   421.8    7.6      44.809
2014    9       10    16  13    5.76   421.9    7.6      44.829
2014    9       10    16  18    5.76   421.9    7.6      44.849
2014    9       10    16  24    5.77   422.0    7.6      44.870
2014    9       10    16  29    5.77   422.0    7.6      44.890
2014    9       10    16  35    5.77   422.1    7.6      44.911
2014    9       10    16  41    5.77   422.1    7.6      44.932
2014    9       10    16  46    5.77   422.2    7.6      44.953
2014    9       10    16  52    5.78   422.2    7.6      44.974
2014    9       10    16  58    5.78   422.3    7.6      44.996
2014    9       10    17   3    5.78   422.4    7.6      45.018
2014    9       10    17   9    5.78   422.4    7.6      45.041
2014    9       10    17  14    5.79   422.5    7.6      45.064
2014    9       10    17  20    5.79   422.5    7.6      45.088
2014    9       10    17  26    5.79   422.6    7.6      45.112
2014    9       10    17  31    5.79   422.7    7.6      45.138
2014    9       10    17  37    5.79   422.7    7.6      45.163
2014    9       10    17  42    5.80   422.8    7.7      45.190
2014    9       10    17  48    5.80   422.8    7.7      45.216
2014    9       10    17  54    5.80   422.9    7.7      45.243
2014    9       10    17  59    5.80   423.0    7.7      45.270
2014    9       10    18   5    5.81   423.0    7.7      45.297
2014    9       10    18  10    5.81   423.1    7.7      45.323
2014    9       10    18  16    5.81   423.2    7.7      45.350
2014    9       10    18  22    5.81   423.2    7.7      45.376
2014    9       10    18  27    5.81   423.3    7.7      45.402
2014    9       10    18  33    5.82   423.4    7.7      45.429
2014    9       10    18  39    5.82   423.4    7.7      45.455
2014    9       10    18  44    5.82   423.5    7.7      45.481
2014    9       10    18  50    5.82   423.6    7.7      45.507
2014    9       10    18  55    5.83   423.6    7.7      45.533
2014    9       10    19   1    5.83   423.7    7.7      45.559
2014    9       10    19   7    5.83   423.8    7.7      45.584
2014    9       10    19  12    5.83   423.8    7.7      45.610
2014    9       10    19  18    5.84   423.9    7.7      45.636
2014    9       10    19  23    5.84   424.0    7.7      45.662
2014    9       10    19  29    5.84   424.0    7.7      45.688
2014    9       10    19  35    5.84   424.1    7.7      45.714
2014    9       10    19  40    5.84   424.2    7.7      45.741
2014    9       10    19  46    5.85   424.2    7.7      45.768
2014    9       10    19  51    5.85   424.3    7.7      45.795
2014    9       10    19  57    5.85   424.4    7.7      45.823
2014    9       10    20   3    5.85   424.4    7.7      45.851
2014    9       10    20   8    5.86   424.5    7.7      45.879
2014    9       10    20  14    5.86   424.6    7.7      45.908
2014    9       10    20  19    5.86   424.7    7.7      45.937
2014    9       10    20  25    5.87   424.7    7.7      45.966
2014    9       10    20  31    5.87   424.8    7.7      45.995
2014    9       10    20  36    5.87   424.9    7.7      46.024
2014    9       10    20  42    5.87   425.0    7.8      46.053
2014    9       10    20  48    5.88   425.1    7.8      46.083
2014    9       10    20  53    5.88   425.1    7.8      46.113
2014    9       10    20  59    5.88   425.2    7.8      46.144
2014    9       10    21   4    5.88   425.3    7.8      46.175
2014    9       10    21  10    5.89   425.4    7.8      46.207
2014    9       10    21  16    5.89   425.5    7.8      46.240
2014    9       10    21  21    5.89   425.6    7.8      46.273
2014    9       10    21  27    5.90   425.7    7.8      46.308
2014    9       10    21  32    5.90   425.8    7.8      46.343
2014    9       10    21  38    5.90   425.9    7.8      46.378
2014    9       10    21  44    5.91   426.0    7.8      46.414
2014    9       10    21  49    5.91   426.1    7.8      46.451
2014    9       10    21  55    5.91   426.2    7.8      46.487
2014    9       10    22   0    5.92   426.3    7.8      46.524
2014    9       10    22   6    5.92   426.4    7.8      46.560
2014    9       10    22  12    5.92   426.5    7.8      46.597
2014    9       10    22  17    5.92   426.6    7.8      46.633
2014    9       10    22  23    5.93   426.7    7.8      46.670
2014    9       10    22  28    5.93   426.8    7.8      46.706
2014    9       10    22  34    5.93   426.9    7.8      46.743
2014    9       10    22  40    5.94   427.0    7.8      46.780
2014    9       10    22  45    5.94   427.1    7.8      46.816
2014    9       10    22  51    5.94   427.3    7.8      46.853
2014    9       10    22  57    5.95   427.4    7.8      46.890
2014    9       10    23   2    5.95   427.5    7.8      46.927
2014    9       10    23   8    5.95   427.6    7.8      46.965
2014    9       10    23  13    5.95   427.7    7.8      47.003
2014    9       10    23  19    5.96   427.8    7.9      47.043
2014    9       10    23  25    5.96   427.9    7.9      47.084
2014    9       10    23  30    5.96   428.1    7.9      47.125
2014    9       10    23  36    5.97   428.2    7.9      47.167
2014    9       10    23  41    5.97   428.3    7.9      47.209
2014    9       10    23  47    5.97   428.4    7.9      47.252
2014    9       10    23  53    5.97   428.5    7.9      47.294
2014    9       10    23  58    5.98   428.6    7.9      47.336
2014    9       11     0   4    5.98   428.8    7.9      47.378
