year    month   day   hour  minute  B_enl V_enl   n_enl       T_enl
[year] [month] [day] [hour][minute] [nT]  [km/s]  [cm-3]      [kK]
2014    9       23     0   2    6.52   554.6    4.6      51.853
2014    9       23     0   8    6.53   554.7    4.6      51.867
2014    9       23     0  13    6.53   554.8    4.6      51.882
2014    9       23     0  19    6.53   554.8    4.6      51.898
2014    9       23     0  24    6.53   554.9    4.6      51.914
2014    9       23     0  29    6.53   555.0    4.6      51.932
2014    9       23     0  35    6.53   555.1    4.6      51.950
2014    9       23     0  40    6.53   555.1    4.6      51.969
2014    9       23     0  45    6.53   555.2    4.6      51.989
2014    9       23     0  51    6.53   555.3    4.6      52.010
2014    9       23     0  56    6.53   555.3    4.6      52.032
2014    9       23     1   2    6.53   555.4    4.6      52.054
2014    9       23     1   7    6.53   555.5    4.6      52.079
2014    9       23     1  12    6.53   555.5    4.6      52.104
2014    9       23     1  18    6.54   555.6    4.6      52.131
2014    9       23     1  23    6.54   555.7    4.6      52.159
2014    9       23     1  28    6.54   555.8    4.6      52.187
2014    9       23     1  34    6.54   555.8    4.6      52.215
2014    9       23     1  39    6.54   555.9    4.6      52.244
2014    9       23     1  45    6.54   556.0    4.6      52.272
2014    9       23     1  50    6.54   556.0    4.6      52.300
2014    9       23     1  55    6.54   556.1    4.6      52.327
2014    9       23     2   1    6.54   556.2    4.6      52.354
2014    9       23     2   6    6.54   556.3    4.6      52.380
2014    9       23     2  11    6.54   556.3    4.6      52.405
2014    9       23     2  17    6.55   556.4    4.6      52.430
2014    9       23     2  22    6.55   556.5    4.6      52.453
2014    9       23     2  28    6.55   556.5    4.6      52.476
2014    9       23     2  33    6.55   556.6    4.6      52.498
2014    9       23     2  38    6.55   556.7    4.6      52.519
2014    9       23     2  44    6.55   556.8    4.6      52.539
2014    9       23     2  49    6.55   556.8    4.6      52.559
2014    9       23     2  55    6.55   556.9    4.6      52.579
2014    9       23     3   0    6.55   557.0    4.6      52.597
2014    9       23     3   5    6.55   557.1    4.6      52.616
2014    9       23     3  11    6.55   557.1    4.6      52.634
2014    9       23     3  16    6.56   557.2    4.6      52.651
2014    9       23     3  21    6.56   557.3    4.6      52.668
2014    9       23     3  27    6.56   557.4    4.6      52.685
2014    9       23     3  32    6.56   557.4    4.6      52.701
2014    9       23     3  38    6.56   557.5    4.6      52.717
2014    9       23     3  43    6.56   557.6    4.6      52.733
2014    9       23     3  48    6.56   557.7    4.6      52.748
2014    9       23     3  54    6.56   557.8    4.6      52.763
2014    9       23     3  59    6.56   557.8    4.6      52.778
2014    9       23     4   5    6.56   557.9    4.6      52.793
2014    9       23     4  10    6.56   558.0    4.6      52.808
2014    9       23     4  15    6.57   558.1    4.6      52.823
2014    9       23     4  21    6.57   558.2    4.6      52.837
2014    9       23     4  26    6.57   558.2    4.6      52.852
2014    9       23     4  32    6.57   558.3    4.6      52.867
2014    9       23     4  37    6.57   558.4    4.6      52.882
2014    9       23     4  42    6.57   558.5    4.6      52.897
2014    9       23     4  48    6.57   558.6    4.6      52.912
2014    9       23     4  53    6.57   558.7    4.6      52.928
2014    9       23     4  58    6.57   558.8    4.6      52.943
2014    9       23     5   4    6.57   558.9    4.6      52.959
2014    9       23     5   9    6.57   559.0    4.6      52.974
2014    9       23     5  15    6.58   559.1    4.6      52.989
2014    9       23     5  20    6.58   559.2    4.6      53.004
2014    9       23     5  25    6.58   559.3    4.6      53.019
2014    9       23     5  31    6.58   559.4    4.6      53.033
2014    9       23     5  36    6.58   559.4    4.6      53.048
2014    9       23     5  42    6.58   559.5    4.6      53.062
2014    9       23     5  47    6.58   559.6    4.6      53.077
2014    9       23     5  52    6.58   559.7    4.6      53.092
2014    9       23     5  58    6.58   559.8    4.6      53.106
2014    9       23     6   3    6.58   559.9    4.6      53.121
2014    9       23     6   8    6.59   560.1    4.6      53.137
2014    9       23     6  14    6.59   560.2    4.6      53.152
2014    9       23     6  19    6.59   560.3    4.6      53.168
2014    9       23     6  25    6.59   560.4    4.6      53.185
2014    9       23     6  30    6.59   560.5    4.6      53.202
2014    9       23     6  35    6.59   560.6    4.6      53.220
2014    9       23     6  41    6.59   560.7    4.6      53.237
2014    9       23     6  46    6.59   560.8    4.6      53.255
2014    9       23     6  51    6.59   560.9    4.6      53.272
2014    9       23     6  57    6.59   561.0    4.6      53.289
2014    9       23     7   2    6.59   561.2    4.6      53.307
2014    9       23     7   8    6.59   561.3    4.6      53.324
2014    9       23     7  13    6.60   561.4    4.6      53.340
2014    9       23     7  18    6.60   561.5    4.6      53.357
2014    9       23     7  24    6.60   561.6    4.6      53.374
2014    9       23     7  29    6.60   561.7    4.6      53.391
2014    9       23     7  34    6.60   561.8    4.6      53.408
2014    9       23     7  40    6.60   561.9    4.6      53.426
2014    9       23     7  45    6.60   562.0    4.6      53.443
2014    9       23     7  51    6.60   562.1    4.6      53.461
2014    9       23     7  56    6.60   562.3    4.6      53.479
2014    9       23     8   1    6.60   562.4    4.6      53.498
2014    9       23     8   7    6.60   562.5    4.6      53.517
2014    9       23     8  12    6.60   562.6    4.6      53.537
2014    9       23     8  18    6.60   562.7    4.6      53.557
2014    9       23     8  23    6.60   562.8    4.6      53.579
2014    9       23     8  28    6.60   562.9    4.6      53.601
2014    9       23     8  34    6.61   563.1    4.6      53.623
2014    9       23     8  39    6.61   563.2    4.6      53.647
2014    9       23     8  44    6.61   563.3    4.6      53.671
2014    9       23     8  50    6.61   563.4    4.6      53.695
2014    9       23     8  55    6.61   563.5    4.6      53.720
2014    9       23     9   1    6.61   563.6    4.6      53.745
2014    9       23     9   6    6.61   563.7    4.6      53.771
2014    9       23     9  11    6.61   563.9    4.6      53.797
2014    9       23     9  17    6.61   564.0    4.6      53.823
2014    9       23     9  22    6.61   564.1    4.6      53.849
2014    9       23     9  27    6.61   564.2    4.6      53.875
2014    9       23     9  33    6.61   564.3    4.6      53.901
2014    9       23     9  38    6.61   564.4    4.6      53.926
2014    9       23     9  44    6.61   564.6    4.6      53.952
2014    9       23     9  49    6.61   564.7    4.6      53.978
2014    9       23     9  54    6.61   564.8    4.6      54.004
2014    9       23    10   0    6.61   564.9    4.6      54.030
2014    9       23    10   5    6.61   565.0    4.6      54.055
2014    9       23    10  11    6.61   565.1    4.6      54.081
2014    9       23    10  16    6.62   565.3    4.6      54.106
2014    9       23    10  21    6.62   565.4    4.6      54.131
2014    9       23    10  27    6.62   565.5    4.6      54.157
2014    9       23    10  32    6.62   565.6    4.6      54.181
2014    9       23    10  37    6.62   565.7    4.6      54.206
2014    9       23    10  43    6.62   565.8    4.5      54.229
2014    9       23    10  48    6.62   566.0    4.5      54.252
2014    9       23    10  54    6.62   566.1    4.5      54.275
2014    9       23    10  59    6.62   566.2    4.5      54.297
2014    9       23    11   4    6.62   566.3    4.5      54.318
2014    9       23    11  10    6.62   566.5    4.5      54.338
2014    9       23    11  15    6.62   566.6    4.5      54.358
2014    9       23    11  21    6.62   566.7    4.5      54.377
2014    9       23    11  26    6.62   566.8    4.5      54.397
2014    9       23    11  31    6.62   566.9    4.5      54.415
2014    9       23    11  37    6.62   567.1    4.5      54.434
2014    9       23    11  42    6.62   567.2    4.5      54.452
2014    9       23    11  47    6.62   567.3    4.5      54.470
2014    9       23    11  53    6.62   567.4    4.5      54.488
2014    9       23    11  58    6.63   567.6    4.5      54.506
2014    9       23    12   4    6.63   567.7    4.5      54.524
2014    9       23    12   9    6.63   567.8    4.5      54.542
2014    9       23    12  14    6.63   567.9    4.5      54.560
2014    9       23    12  20    6.63   568.1    4.5      54.578
2014    9       23    12  25    6.63   568.2    4.5      54.595
2014    9       23    12  31    6.63   568.3    4.5      54.613
2014    9       23    12  36    6.63   568.4    4.5      54.630
2014    9       23    12  41    6.63   568.6    4.5      54.648
2014    9       23    12  47    6.63   568.7    4.5      54.666
2014    9       23    12  52    6.63   568.8    4.5      54.684
2014    9       23    12  58    6.63   569.0    4.5      54.702
2014    9       23    13   3    6.63   569.1    4.5      54.720
2014    9       23    13   8    6.63   569.2    4.5      54.739
2014    9       23    13  14    6.63   569.4    4.5      54.760
2014    9       23    13  19    6.64   569.5    4.5      54.780
2014    9       23    13  24    6.64   569.7    4.5      54.802
2014    9       23    13  30    6.64   569.8    4.5      54.824
2014    9       23    13  35    6.64   570.0    4.5      54.847
2014    9       23    13  41    6.64   570.1    4.5      54.870
2014    9       23    13  46    6.64   570.3    4.5      54.893
2014    9       23    13  51    6.64   570.4    4.5      54.916
2014    9       23    13  57    6.64   570.6    4.5      54.938
2014    9       23    14   2    6.64   570.7    4.5      54.960
2014    9       23    14   7    6.64   570.8    4.5      54.982
2014    9       23    14  13    6.64   571.0    4.5      55.003
2014    9       23    14  18    6.64   571.1    4.5      55.025
2014    9       23    14  24    6.64   571.3    4.5      55.047
2014    9       23    14  29    6.64   571.4    4.5      55.068
2014    9       23    14  34    6.64   571.6    4.5      55.090
2014    9       23    14  40    6.64   571.7    4.5      55.111
2014    9       23    14  45    6.64   571.9    4.5      55.133
2014    9       23    14  50    6.64   572.0    4.5      55.155
2014    9       23    14  56    6.64   572.2    4.5      55.177
2014    9       23    15   1    6.64   572.3    4.5      55.198
2014    9       23    15   7    6.64   572.5    4.5      55.220
2014    9       23    15  12    6.64   572.6    4.5      55.242
2014    9       23    15  17    6.64   572.8    4.5      55.264
2014    9       23    15  23    6.64   572.9    4.5      55.286
2014    9       23    15  28    6.64   573.1    4.5      55.308
2014    9       23    15  34    6.64   573.2    4.5      55.330
2014    9       23    15  39    6.64   573.4    4.5      55.353
2014    9       23    15  44    6.64   573.5    4.5      55.377
2014    9       23    15  50    6.64   573.7    4.5      55.400
2014    9       23    15  55    6.64   573.8    4.4      55.425
2014    9       23    16   0    6.64   574.0    4.4      55.450
2014    9       23    16   6    6.64   574.1    4.4      55.476
2014    9       23    16  11    6.65   574.3    4.4      55.503
2014    9       23    16  17    6.65   574.4    4.4      55.531
2014    9       23    16  22    6.65   574.6    4.4      55.560
2014    9       23    16  27    6.65   574.7    4.4      55.589
2014    9       23    16  33    6.65   574.9    4.4      55.620
2014    9       23    16  38    6.65   575.1    4.4      55.651
2014    9       23    16  43    6.65   575.2    4.4      55.684
2014    9       23    16  49    6.65   575.4    4.4      55.717
2014    9       23    16  54    6.65   575.5    4.4      55.751
2014    9       23    17   0    6.65   575.7    4.4      55.785
2014    9       23    17   5    6.65   575.8    4.4      55.820
2014    9       23    17  10    6.65   576.0    4.4      55.855
2014    9       23    17  16    6.65   576.2    4.4      55.889
2014    9       23    17  21    6.65   576.3    4.4      55.924
2014    9       23    17  27    6.65   576.5    4.4      55.957
2014    9       23    17  32    6.65   576.7    4.4      55.990
2014    9       23    17  37    6.65   576.8    4.4      56.022
2014    9       23    17  43    6.65   577.0    4.4      56.053
2014    9       23    17  48    6.65   577.1    4.4      56.083
2014    9       23    17  53    6.65   577.3    4.4      56.112
2014    9       23    17  59    6.64   577.5    4.4      56.139
2014    9       23    18   4    6.64   577.6    4.4      56.166
2014    9       23    18  10    6.64   577.8    4.4      56.191
2014    9       23    18  15    6.64   578.0    4.4      56.216
2014    9       23    18  20    6.64   578.1    4.4      56.239
2014    9       23    18  26    6.64   578.3    4.4      56.262
2014    9       23    18  31    6.64   578.5    4.4      56.284
2014    9       23    18  37    6.64   578.6    4.4      56.305
2014    9       23    18  42    6.64   578.8    4.4      56.325
2014    9       23    18  47    6.64   579.0    4.4      56.345
2014    9       23    18  53    6.64   579.1    4.4      56.365
2014    9       23    18  58    6.64   579.3    4.4      56.383
2014    9       23    19   3    6.64   579.5    4.4      56.402
2014    9       23    19   9    6.64   579.6    4.4      56.420
2014    9       23    19  14    6.64   579.8    4.4      56.438
2014    9       23    19  20    6.64   580.0    4.4      56.455
2014    9       23    19  25    6.64   580.1    4.4      56.472
2014    9       23    19  30    6.64   580.3    4.4      56.489
2014    9       23    19  36    6.64   580.5    4.3      56.505
2014    9       23    19  41    6.64   580.6    4.3      56.521
2014    9       23    19  47    6.64   580.8    4.3      56.538
2014    9       23    19  52    6.64   581.0    4.3      56.554
2014    9       23    19  57    6.64   581.1    4.3      56.570
2014    9       23    20   3    6.64   581.3    4.3      56.587
2014    9       23    20   8    6.64   581.5    4.3      56.604
2014    9       23    20  14    6.64   581.6    4.3      56.621
2014    9       23    20  19    6.64   581.8    4.3      56.639
2014    9       23    20  24    6.64   582.0    4.3      56.656
2014    9       23    20  30    6.64   582.1    4.3      56.675
2014    9       23    20  35    6.64   582.3    4.3      56.694
2014    9       23    20  40    6.64   582.5    4.3      56.715
2014    9       23    20  46    6.64   582.6    4.3      56.736
2014    9       23    20  51    6.64   582.8    4.3      56.757
2014    9       23    20  57    6.64   583.0    4.3      56.780
2014    9       23    21   2    6.64   583.2    4.3      56.803
2014    9       23    21   7    6.64   583.3    4.3      56.827
2014    9       23    21  13    6.64   583.5    4.3      56.851
2014    9       23    21  18    6.64   583.7    4.3      56.876
2014    9       23    21  23    6.64   583.9    4.3      56.902
2014    9       23    21  29    6.64   584.1    4.3      56.929
2014    9       23    21  34    6.64   584.3    4.3      56.956
2014    9       23    21  40    6.64   584.4    4.3      56.984
2014    9       23    21  45    6.64   584.6    4.3      57.012
2014    9       23    21  50    6.64   584.8    4.3      57.041
2014    9       23    21  56    6.64   585.0    4.3      57.071
2014    9       23    22   1    6.64   585.2    4.3      57.101
2014    9       23    22   6    6.64   585.4    4.3      57.131
2014    9       23    22  12    6.64   585.5    4.3      57.161
2014    9       23    22  17    6.64   585.7    4.3      57.191
2014    9       23    22  23    6.64   585.9    4.3      57.221
2014    9       23    22  28    6.64   586.1    4.3      57.251
2014    9       23    22  33    6.63   586.3    4.3      57.280
2014    9       23    22  39    6.63   586.5    4.3      57.310
2014    9       23    22  44    6.63   586.6    4.2      57.339
2014    9       23    22  50    6.63   586.8    4.2      57.369
2014    9       23    22  55    6.63   587.0    4.2      57.399
2014    9       23    23   0    6.63   587.2    4.2      57.428
2014    9       23    23   6    6.63   587.4    4.2      57.458
2014    9       23    23  11    6.63   587.5    4.2      57.489
2014    9       23    23  16    6.63   587.7    4.2      57.520
2014    9       23    23  22    6.63   587.9    4.2      57.551
2014    9       23    23  27    6.63   588.1    4.2      57.583
2014    9       23    23  33    6.63   588.3    4.2      57.615
2014    9       23    23  38    6.63   588.4    4.2      57.648
2014    9       23    23  43    6.63   588.6    4.2      57.681
2014    9       23    23  49    6.63   588.8    4.2      57.714
2014    9       23    23  54    6.62   589.0    4.2      57.748
2014    9       23    23  59    6.62   589.2    4.2      57.781
2014    9       24     0   5    6.62   589.4    4.2      57.815
2014    9       24     0  10    6.62   589.6    4.2      57.847
2014    9       24     0  16    6.62   589.8    4.2      57.880
2014    9       24     0  21    6.62   589.9    4.2      57.911
2014    9       24     0  26    6.62   590.1    4.2      57.942
2014    9       24     0  32    6.62   590.3    4.2      57.971
2014    9       24     0  37    6.62   590.5    4.2      57.999
2014    9       24     0  43    6.62   590.7    4.2      58.027
2014    9       24     0  48    6.62   590.9    4.2      58.053
2014    9       24     0  53    6.61   591.1    4.2      58.079
2014    9       24     0  59    6.61   591.3    4.2      58.103
2014    9       24     1   4    6.61   591.5    4.2      58.127
2014    9       24     1   9    6.61   591.7    4.2      58.150
2014    9       24     1  15    6.61   591.9    4.2      58.172
2014    9       24     1  20    6.61   592.1    4.2      58.194
2014    9       24     1  26    6.61   592.2    4.1      58.214
2014    9       24     1  31    6.61   592.4    4.1      58.235
2014    9       24     1  36    6.61   592.6    4.1      58.255
2014    9       24     1  42    6.60   592.8    4.1      58.274
2014    9       24     1  47    6.60   593.0    4.1      58.293
2014    9       24     1  53    6.60   593.2    4.1      58.311
2014    9       24     1  58    6.60   593.4    4.1      58.329
2014    9       24     2   3    6.60   593.6    4.1      58.347
2014    9       24     2   9    6.60   593.8    4.1      58.364
2014    9       24     2  14    6.60   594.0    4.1      58.381
2014    9       24     2  20    6.60   594.1    4.1      58.398
2014    9       24     2  25    6.59   594.3    4.1      58.414
2014    9       24     2  30    6.59   594.5    4.1      58.431
2014    9       24     2  36    6.59   594.7    4.1      58.447
2014    9       24     2  41    6.59   594.9    4.1      58.463
2014    9       24     2  46    6.59   595.1    4.1      58.479
2014    9       24     2  52    6.59   595.3    4.1      58.495
2014    9       24     2  57    6.59   595.5    4.1      58.511
2014    9       24     3   3    6.59   595.7    4.1      58.527
2014    9       24     3   8    6.59   595.9    4.1      58.543
2014    9       24     3  13    6.58   596.0    4.1      58.559
2014    9       24     3  19    6.58   596.2    4.1      58.575
2014    9       24     3  24    6.58   596.4    4.1      58.591
2014    9       24     3  30    6.58   596.6    4.1      58.608
2014    9       24     3  35    6.58   596.8    4.1      58.624
2014    9       24     3  40    6.58   597.0    4.0      58.642
2014    9       24     3  46    6.58   597.2    4.0      58.660
2014    9       24     3  51    6.58   597.4    4.0      58.678
2014    9       24     3  56    6.57   597.6    4.0      58.697
2014    9       24     4   2    6.57   597.7    4.0      58.716
2014    9       24     4   7    6.57   597.9    4.0      58.737
2014    9       24     4  13    6.57   598.1    4.0      58.758
2014    9       24     4  18    6.57   598.3    4.0      58.780
2014    9       24     4  23    6.57   598.5    4.0      58.803
2014    9       24     4  29    6.57   598.7    4.0      58.827
2014    9       24     4  34    6.57   598.9    4.0      58.851
2014    9       24     4  39    6.56   599.1    4.0      58.877
2014    9       24     4  45    6.56   599.3    4.0      58.902
2014    9       24     4  50    6.56   599.5    4.0      58.928
2014    9       24     4  56    6.56   599.7    4.0      58.955
2014    9       24     5   1    6.56   599.9    4.0      58.982
2014    9       24     5   6    6.56   600.1    4.0      59.010
2014    9       24     5  12    6.55   600.2    4.0      59.038
2014    9       24     5  17    6.55   600.4    4.0      59.066
2014    9       24     5  23    6.55   600.6    4.0      59.093
2014    9       24     5  28    6.55   600.8    4.0      59.121
2014    9       24     5  33    6.55   601.0    4.0      59.149
2014    9       24     5  39    6.55   601.2    4.0      59.176
2014    9       24     5  44    6.54   601.4    4.0      59.202
2014    9       24     5  49    6.54   601.6    4.0      59.228
2014    9       24     5  55    6.54   601.8    4.0      59.254
2014    9       24     6   0    6.54   602.0    4.0      59.278
2014    9       24     6   6    6.54   602.1    4.0      59.303
2014    9       24     6  11    6.54   602.3    3.9      59.326
2014    9       24     6  16    6.53   602.5    3.9      59.349
2014    9       24     6  22    6.53   602.7    3.9      59.372
2014    9       24     6  27    6.53   602.9    3.9      59.394
2014    9       24     6  32    6.53   603.1    3.9      59.416
2014    9       24     6  38    6.53   603.3    3.9      59.437
2014    9       24     6  43    6.52   603.4    3.9      59.458
2014    9       24     6  49    6.52   603.6    3.9      59.478
2014    9       24     6  54    6.52   603.8    3.9      59.498
2014    9       24     6  59    6.52   604.0    3.9      59.518
2014    9       24     7   5    6.52   604.2    3.9      59.537
2014    9       24     7  10    6.51   604.4    3.9      59.555
2014    9       24     7  16    6.51   604.6    3.9      59.572
2014    9       24     7  21    6.51   604.7    3.9      59.589
2014    9       24     7  26    6.51   604.9    3.9      59.605
2014    9       24     7  32    6.50   605.1    3.9      59.621
2014    9       24     7  37    6.50   605.3    3.9      59.636
2014    9       24     7  42    6.50   605.5    3.9      59.650
2014    9       24     7  48    6.50   605.7    3.9      59.664
2014    9       24     7  53    6.50   605.8    3.9      59.677
2014    9       24     7  59    6.49   606.0    3.9      59.690
2014    9       24     8   4    6.49   606.2    3.9      59.702
2014    9       24     8   9    6.49   606.4    3.9      59.714
2014    9       24     8  15    6.49   606.6    3.8      59.725
2014    9       24     8  20    6.48   606.7    3.8      59.736
2014    9       24     8  26    6.48   606.9    3.8      59.747
2014    9       24     8  31    6.48   607.1    3.8      59.757
2014    9       24     8  36    6.48   607.3    3.8      59.767
2014    9       24     8  42    6.48   607.4    3.8      59.776
2014    9       24     8  47    6.47   607.6    3.8      59.786
2014    9       24     8  53    6.47   607.8    3.8      59.795
2014    9       24     8  58    6.47   608.0    3.8      59.804
2014    9       24     9   3    6.47   608.1    3.8      59.813
2014    9       24     9   9    6.46   608.3    3.8      59.822
2014    9       24     9  14    6.46   608.5    3.8      59.831
2014    9       24     9  20    6.46   608.6    3.8      59.839
2014    9       24     9  25    6.46   608.8    3.8      59.848
2014    9       24     9  30    6.45   609.0    3.8      59.857
2014    9       24     9  36    6.45   609.2    3.8      59.866
2014    9       24     9  41    6.45   609.3    3.8      59.875
2014    9       24     9  47    6.45   609.5    3.8      59.884
2014    9       24     9  52    6.44   609.7    3.8      59.893
2014    9       24     9  57    6.44   609.8    3.8      59.903
2014    9       24    10   3    6.44   610.0    3.8      59.912
2014    9       24    10   8    6.44   610.2    3.8      59.922
2014    9       24    10  14    6.44   610.3    3.8      59.932
2014    9       24    10  19    6.43   610.5    3.8      59.943
2014    9       24    10  24    6.43   610.7    3.8      59.954
2014    9       24    10  30    6.43   610.8    3.7      59.965
2014    9       24    10  35    6.43   611.0    3.7      59.977
2014    9       24    10  41    6.42   611.2    3.7      59.988
2014    9       24    10  46    6.42   611.3    3.7      60.000
2014    9       24    10  52    6.42   611.5    3.7      60.012
2014    9       24    10  57    6.42   611.7    3.7      60.025
2014    9       24    11   2    6.41   611.8    3.7      60.038
2014    9       24    11   8    6.41   612.0    3.7      60.051
2014    9       24    11  13    6.41   612.2    3.7      60.064
2014    9       24    11  19    6.41   612.3    3.7      60.078
2014    9       24    11  24    6.40   612.5    3.7      60.091
2014    9       24    11  29    6.40   612.7    3.7      60.105
2014    9       24    11  35    6.40   612.8    3.7      60.119
2014    9       24    11  40    6.40   613.0    3.7      60.133
2014    9       24    11  46    6.39   613.1    3.7      60.147
2014    9       24    11  51    6.39   613.3    3.7      60.161
2014    9       24    11  56    6.39   613.5    3.7      60.175
2014    9       24    12   2    6.39   613.6    3.7      60.189
2014    9       24    12   7    6.38   613.8    3.7      60.203
2014    9       24    12  13    6.38   613.9    3.7      60.217
2014    9       24    12  18    6.38   614.1    3.7      60.230
2014    9       24    12  23    6.38   614.2    3.7      60.244
2014    9       24    12  29    6.37   614.4    3.7      60.258
2014    9       24    12  34    6.37   614.6    3.7      60.271
2014    9       24    12  40    6.37   614.7    3.7      60.284
2014    9       24    12  45    6.37   614.9    3.7      60.297
2014    9       24    12  50    6.36   615.0    3.7      60.309
2014    9       24    12  56    6.36   615.2    3.7      60.321
2014    9       24    13   1    6.36   615.3    3.6      60.333
2014    9       24    13   7    6.35   615.5    3.6      60.344
2014    9       24    13  12    6.35   615.6    3.6      60.355
2014    9       24    13  17    6.35   615.7    3.6      60.365
2014    9       24    13  23    6.35   615.9    3.6      60.375
2014    9       24    13  28    6.34   616.0    3.6      60.384
2014    9       24    13  34    6.34   616.2    3.6      60.393
2014    9       24    13  39    6.34   616.3    3.6      60.401
2014    9       24    13  44    6.33   616.5    3.6      60.409
2014    9       24    13  50    6.33   616.6    3.6      60.417
2014    9       24    13  55    6.33   616.8    3.6      60.424
2014    9       24    14   1    6.33   616.9    3.6      60.430
2014    9       24    14   6    6.32   617.0    3.6      60.436
2014    9       24    14  11    6.32   617.2    3.6      60.442
2014    9       24    14  17    6.32   617.3    3.6      60.447
2014    9       24    14  22    6.31   617.4    3.6      60.452
2014    9       24    14  27    6.31   617.6    3.6      60.456
2014    9       24    14  33    6.31   617.7    3.6      60.460
2014    9       24    14  38    6.31   617.9    3.6      60.463
2014    9       24    14  44    6.30   618.0    3.6      60.466
2014    9       24    14  49    6.30   618.1    3.6      60.469
2014    9       24    14  54    6.30   618.2    3.6      60.471
2014    9       24    15   0    6.29   618.4    3.6      60.473
2014    9       24    15   5    6.29   618.5    3.6      60.474
2014    9       24    15  11    6.29   618.6    3.6      60.475
2014    9       24    15  16    6.28   618.8    3.6      60.476
2014    9       24    15  21    6.28   618.9    3.6      60.476
2014    9       24    15  27    6.28   619.0    3.6      60.476
2014    9       24    15  32    6.28   619.1    3.5      60.475
2014    9       24    15  38    6.27   619.2    3.5      60.475
2014    9       24    15  43    6.27   619.4    3.5      60.474
2014    9       24    15  48    6.27   619.5    3.5      60.473
2014    9       24    15  54    6.26   619.6    3.5      60.472
2014    9       24    15  59    6.26   619.7    3.5      60.471
2014    9       24    16   4    6.26   619.8    3.5      60.469
2014    9       24    16  10    6.26   620.0    3.5      60.468
2014    9       24    16  15    6.25   620.1    3.5      60.466
2014    9       24    16  21    6.25   620.2    3.5      60.464
2014    9       24    16  26    6.25   620.3    3.5      60.462
2014    9       24    16  31    6.24   620.4    3.5      60.461
2014    9       24    16  37    6.24   620.5    3.5      60.459
2014    9       24    16  42    6.24   620.6    3.5      60.458
2014    9       24    16  48    6.24   620.7    3.5      60.456
2014    9       24    16  53    6.23   620.9    3.5      60.456
2014    9       24    16  58    6.23   621.0    3.5      60.455
2014    9       24    17   4    6.23   621.1    3.5      60.454
2014    9       24    17   9    6.22   621.2    3.5      60.454
2014    9       24    17  14    6.22   621.3    3.5      60.454
2014    9       24    17  20    6.22   621.4    3.5      60.454
2014    9       24    17  25    6.22   621.5    3.5      60.454
2014    9       24    17  31    6.21   621.6    3.5      60.454
2014    9       24    17  36    6.21   621.7    3.5      60.454
2014    9       24    17  41    6.21   621.9    3.5      60.454
2014    9       24    17  47    6.20   622.0    3.5      60.454
2014    9       24    17  52    6.20   622.1    3.5      60.455
2014    9       24    17  57    6.20   622.2    3.5      60.455
2014    9       24    18   3    6.20   622.3    3.5      60.455
2014    9       24    18   8    6.19   622.4    3.5      60.455
2014    9       24    18  14    6.19   622.5    3.5      60.454
2014    9       24    18  19    6.19   622.6    3.4      60.454
2014    9       24    18  24    6.19   622.7    3.4      60.453
2014    9       24    18  30    6.18   622.8    3.4      60.452
2014    9       24    18  35    6.18   622.9    3.4      60.451
2014    9       24    18  41    6.18   623.0    3.4      60.450
2014    9       24    18  46    6.17   623.1    3.4      60.449
2014    9       24    18  51    6.17   623.2    3.4      60.448
2014    9       24    18  57    6.17   623.3    3.4      60.447
2014    9       24    19   2    6.17   623.5    3.4      60.446
2014    9       24    19   7    6.16   623.6    3.4      60.446
2014    9       24    19  13    6.16   623.7    3.4      60.446
2014    9       24    19  18    6.16   623.8    3.4      60.446
2014    9       24    19  24    6.16   623.9    3.4      60.446
2014    9       24    19  29    6.15   624.0    3.4      60.446
2014    9       24    19  34    6.15   624.1    3.4      60.447
2014    9       24    19  40    6.15   624.2    3.4      60.448
2014    9       24    19  45    6.14   624.3    3.4      60.450
2014    9       24    19  50    6.14   624.4    3.4      60.451
2014    9       24    19  56    6.14   624.5    3.4      60.453
2014    9       24    20   1    6.14   624.6    3.4      60.456
2014    9       24    20   7    6.13   624.7    3.4      60.459
2014    9       24    20  12    6.13   624.8    3.4      60.462
2014    9       24    20  17    6.13   624.9    3.4      60.466
2014    9       24    20  23    6.13   624.9    3.4      60.470
2014    9       24    20  28    6.12   625.0    3.4      60.474
2014    9       24    20  33    6.12   625.1    3.4      60.478
2014    9       24    20  39    6.12   625.2    3.4      60.483
2014    9       24    20  44    6.11   625.3    3.4      60.487
2014    9       24    20  50    6.11   625.4    3.4      60.492
2014    9       24    20  55    6.11   625.5    3.4      60.497
2014    9       24    21   0    6.11   625.6    3.4      60.502
2014    9       24    21   6    6.10   625.7    3.4      60.506
2014    9       24    21  11    6.10   625.8    3.4      60.510
2014    9       24    21  17    6.10   625.9    3.4      60.514
2014    9       24    21  22    6.09   626.0    3.4      60.517
2014    9       24    21  27    6.09   626.1    3.4      60.519
2014    9       24    21  33    6.09   626.2    3.4      60.522
2014    9       24    21  38    6.08   626.2    3.4      60.523
2014    9       24    21  43    6.08   626.3    3.4      60.524
2014    9       24    21  49    6.08   626.4    3.4      60.525
2014    9       24    21  54    6.08   626.5    3.4      60.525
2014    9       24    22   0    6.07   626.6    3.3      60.524
2014    9       24    22   5    6.07   626.6    3.3      60.523
2014    9       24    22  10    6.07   626.7    3.3      60.521
2014    9       24    22  16    6.06   626.8    3.3      60.518
2014    9       24    22  21    6.06   626.8    3.3      60.515
2014    9       24    22  27    6.06   626.9    3.3      60.512
2014    9       24    22  32    6.05   627.0    3.3      60.508
2014    9       24    22  37    6.05   627.0    3.3      60.504
2014    9       24    22  43    6.05   627.1    3.3      60.499
2014    9       24    22  48    6.05   627.2    3.3      60.493
2014    9       24    22  53    6.04   627.2    3.3      60.487
2014    9       24    22  59    6.04   627.3    3.3      60.481
2014    9       24    23   4    6.04   627.4    3.3      60.474
2014    9       24    23  10    6.03   627.4    3.3      60.467
2014    9       24    23  15    6.03   627.5    3.3      60.459
2014    9       24    23  20    6.03   627.5    3.3      60.452
2014    9       24    23  26    6.03   627.6    3.3      60.443
2014    9       24    23  31    6.02   627.7    3.3      60.435
2014    9       24    23  37    6.02   627.7    3.3      60.425
2014    9       24    23  42    6.02   627.8    3.3      60.416
2014    9       24    23  47    6.02   627.8    3.3      60.406
2014    9       24    23  53    6.01   627.9    3.3      60.396
2014    9       24    23  58    6.01   627.9    3.3      60.386
2014    9       25     0   4    6.01   628.0    3.3      60.375
2014    9       25     0   9    6.01   628.0    3.3      60.364
2014    9       25     0  14    6.00   628.1    3.3      60.352
2014    9       25     0  20    6.00   628.1    3.3      60.340
2014    9       25     0  25    6.00   628.2    3.3      60.328
2014    9       25     0  31    5.99   628.2    3.3      60.316
2014    9       25     0  36    5.99   628.3    3.3      60.303
2014    9       25     0  41    5.99   628.3    3.3      60.290
2014    9       25     0  47    5.99   628.4    3.3      60.277
2014    9       25     0  52    5.98   628.4    3.3      60.263
2014    9       25     0  57    5.98   628.5    3.3      60.250
2014    9       25     1   3    5.98   628.5    3.3      60.236
2014    9       25     1   8    5.98   628.6    3.3      60.222
2014    9       25     1  14    5.97   628.6    3.3      60.209
2014    9       25     1  19    5.97   628.7    3.3      60.195
2014    9       25     1  24    5.97   628.7    3.3      60.181
2014    9       25     1  30    5.97   628.8    3.2      60.168
2014    9       25     1  35    5.96   628.8    3.2      60.154
2014    9       25     1  40    5.96   628.9    3.2      60.142
2014    9       25     1  46    5.96   628.9    3.2      60.129
2014    9       25     1  51    5.96   629.0    3.2      60.117
2014    9       25     1  56    5.96   629.0    3.2      60.105
2014    9       25     2   2    5.95   629.0    3.2      60.094
2014    9       25     2   7    5.95   629.1    3.2      60.084
2014    9       25     2  13    5.95   629.1    3.2      60.074
2014    9       25     2  18    5.95   629.2    3.2      60.065
2014    9       25     2  23    5.94   629.2    3.2      60.057
2014    9       25     2  29    5.94   629.3    3.2      60.050
2014    9       25     2  34    5.94   629.3    3.2      60.043
2014    9       25     2  39    5.94   629.4    3.2      60.037
2014    9       25     2  45    5.93   629.4    3.2      60.033
2014    9       25     2  50    5.93   629.5    3.2      60.029
2014    9       25     2  55    5.93   629.5    3.2      60.026
2014    9       25     3   1    5.93   629.6    3.2      60.024
2014    9       25     3   6    5.93   629.6    3.2      60.023
2014    9       25     3  11    5.92   629.7    3.2      60.023
2014    9       25     3  17    5.92   629.7    3.2      60.024
2014    9       25     3  22    5.92   629.8    3.2      60.026
2014    9       25     3  27    5.92   629.8    3.2      60.029
2014    9       25     3  33    5.91   629.9    3.2      60.032
2014    9       25     3  38    5.91   629.9    3.2      60.036
2014    9       25     3  43    5.91   630.0    3.2      60.041
2014    9       25     3  49    5.91   630.0    3.2      60.047
2014    9       25     3  54    5.90   630.1    3.2      60.053
2014    9       25     3  59    5.90   630.1    3.2      60.060
2014    9       25     4   5    5.90   630.2    3.2      60.067
2014    9       25     4  10    5.90   630.3    3.2      60.075
2014    9       25     4  15    5.89   630.3    3.2      60.082
2014    9       25     4  21    5.89   630.4    3.2      60.090
2014    9       25     4  26    5.89   630.4    3.2      60.097
2014    9       25     4  31    5.89   630.5    3.2      60.104
2014    9       25     4  36    5.88   630.5    3.2      60.111
2014    9       25     4  42    5.88   630.6    3.2      60.117
2014    9       25     4  47    5.88   630.6    3.2      60.123
2014    9       25     4  52    5.88   630.6    3.2      60.128
2014    9       25     4  58    5.87   630.7    3.2      60.132
2014    9       25     5   3    5.87   630.7    3.2      60.136
2014    9       25     5   8    5.87   630.8    3.2      60.139
2014    9       25     5  14    5.87   630.8    3.2      60.142
2014    9       25     5  19    5.86   630.8    3.2      60.143
2014    9       25     5  24    5.86   630.9    3.2      60.144
2014    9       25     5  30    5.86   630.9    3.2      60.144
2014    9       25     5  35    5.86   630.9    3.2      60.144
2014    9       25     5  40    5.85   630.9    3.2      60.142
2014    9       25     5  45    5.85   631.0    3.2      60.141
2014    9       25     5  51    5.85   631.0    3.2      60.138
2014    9       25     5  56    5.85   631.0    3.2      60.134
2014    9       25     6   1    5.84   631.0    3.2      60.130
2014    9       25     6   7    5.84   631.1    3.2      60.125
2014    9       25     6  12    5.84   631.1    3.2      60.120
2014    9       25     6  17    5.84   631.1    3.2      60.114
2014    9       25     6  23    5.83   631.1    3.2      60.107
2014    9       25     6  28    5.83   631.1    3.2      60.099
2014    9       25     6  33    5.83   631.2    3.2      60.091
2014    9       25     6  39    5.83   631.2    3.2      60.083
2014    9       25     6  44    5.83   631.2    3.2      60.074
2014    9       25     6  49    5.82   631.2    3.2      60.064
2014    9       25     6  55    5.82   631.2    3.2      60.054
2014    9       25     7   0    5.82   631.2    3.2      60.043
2014    9       25     7   5    5.82   631.2    3.2      60.032
2014    9       25     7  11    5.81   631.2    3.2      60.021
2014    9       25     7  16    5.81   631.2    3.2      60.009
2014    9       25     7  21    5.81   631.3    3.2      59.996
2014    9       25     7  27    5.81   631.3    3.2      59.983
2014    9       25     7  32    5.81   631.3    3.2      59.970
2014    9       25     7  37    5.80   631.3    3.2      59.957
2014    9       25     7  43    5.80   631.3    3.1      59.943
2014    9       25     7  48    5.80   631.3    3.1      59.929
2014    9       25     7  53    5.80   631.3    3.1      59.915
2014    9       25     7  59    5.80   631.3    3.1      59.901
2014    9       25     8   4    5.79   631.3    3.1      59.886
2014    9       25     8   9    5.79   631.3    3.1      59.871
2014    9       25     8  15    5.79   631.3    3.1      59.857
2014    9       25     8  20    5.79   631.3    3.1      59.842
2014    9       25     8  25    5.79   631.3    3.1      59.827
2014    9       25     8  31    5.79   631.3    3.1      59.812
2014    9       25     8  36    5.78   631.3    3.1      59.797
2014    9       25     8  41    5.78   631.3    3.1      59.782
2014    9       25     8  47    5.78   631.3    3.1      59.768
2014    9       25     8  52    5.78   631.3    3.1      59.753
2014    9       25     8  58    5.78   631.3    3.1      59.739
2014    9       25     9   3    5.77   631.3    3.1      59.725
2014    9       25     9   8    5.77   631.3    3.1      59.711
2014    9       25     9  14    5.77   631.3    3.1      59.698
2014    9       25     9  19    5.77   631.3    3.1      59.685
2014    9       25     9  24    5.77   631.3    3.1      59.672
2014    9       25     9  30    5.76   631.3    3.1      59.660
2014    9       25     9  35    5.76   631.3    3.1      59.648
2014    9       25     9  40    5.76   631.3    3.1      59.637
2014    9       25     9  46    5.76   631.3    3.1      59.626
2014    9       25     9  51    5.76   631.3    3.1      59.616
2014    9       25     9  57    5.75   631.3    3.1      59.606
2014    9       25    10   2    5.75   631.3    3.1      59.597
2014    9       25    10   7    5.75   631.3    3.1      59.589
2014    9       25    10  13    5.75   631.3    3.1      59.581
2014    9       25    10  18    5.75   631.3    3.1      59.574
2014    9       25    10  23    5.74   631.3    3.1      59.568
2014    9       25    10  29    5.74   631.3    3.1      59.562
2014    9       25    10  34    5.74   631.3    3.1      59.557
2014    9       25    10  40    5.74   631.4    3.1      59.553
2014    9       25    10  45    5.74   631.4    3.1      59.549
2014    9       25    10  50    5.74   631.4    3.1      59.546
2014    9       25    10  56    5.73   631.4    3.1      59.544
2014    9       25    11   1    5.73   631.4    3.1      59.542
2014    9       25    11   7    5.73   631.4    3.1      59.541
2014    9       25    11  12    5.73   631.4    3.1      59.541
2014    9       25    11  17    5.73   631.4    3.1      59.540
2014    9       25    11  23    5.72   631.4    3.1      59.541
2014    9       25    11  28    5.72   631.4    3.1      59.541
2014    9       25    11  33    5.72   631.4    3.1      59.542
2014    9       25    11  39    5.72   631.4    3.1      59.543
2014    9       25    11  44    5.72   631.4    3.1      59.545
2014    9       25    11  50    5.71   631.4    3.1      59.546
2014    9       25    11  55    5.71   631.4    3.1      59.547
2014    9       25    12   0    5.71   631.4    3.1      59.549
2014    9       25    12   6    5.71   631.4    3.1      59.550
2014    9       25    12  11    5.71   631.4    3.1      59.551
2014    9       25    12  17    5.71   631.4    3.1      59.552
2014    9       25    12  22    5.70   631.5    3.1      59.553
2014    9       25    12  27    5.70   631.5    3.1      59.553
2014    9       25    12  33    5.70   631.5    3.1      59.553
2014    9       25    12  38    5.70   631.5    3.1      59.553
2014    9       25    12  44    5.70   631.5    3.1      59.552
2014    9       25    12  49    5.69   631.4    3.1      59.551
2014    9       25    12  54    5.69   631.4    3.1      59.550
2014    9       25    13   0    5.69   631.4    3.1      59.548
2014    9       25    13   5    5.69   631.4    3.1      59.546
2014    9       25    13  10    5.69   631.4    3.1      59.543
2014    9       25    13  16    5.69   631.4    3.1      59.541
2014    9       25    13  21    5.69   631.4    3.1      59.538
2014    9       25    13  27    5.68   631.4    3.1      59.534
2014    9       25    13  32    5.68   631.4    3.1      59.531
2014    9       25    13  37    5.68   631.4    3.1      59.527
2014    9       25    13  43    5.68   631.4    3.1      59.524
2014    9       25    13  48    5.68   631.4    3.1      59.520
2014    9       25    13  54    5.68   631.4    3.1      59.516
2014    9       25    13  59    5.68   631.4    3.1      59.512
2014    9       25    14   4    5.67   631.4    3.1      59.509
2014    9       25    14  10    5.67   631.4    3.1      59.505
2014    9       25    14  15    5.67   631.4    3.1      59.502
2014    9       25    14  20    5.67   631.4    3.1      59.499
2014    9       25    14  26    5.67   631.4    3.1      59.496
2014    9       25    14  31    5.67   631.4    3.1      59.493
2014    9       25    14  37    5.67   631.4    3.1      59.490
2014    9       25    14  42    5.66   631.3    3.1      59.488
2014    9       25    14  47    5.66   631.3    3.1      59.487
2014    9       25    14  53    5.66   631.3    3.1      59.485
2014    9       25    14  58    5.66   631.3    3.1      59.484
2014    9       25    15   4    5.66   631.3    3.1      59.484
2014    9       25    15   9    5.66   631.3    3.1      59.483
2014    9       25    15  14    5.65   631.3    3.1      59.482
2014    9       25    15  20    5.65   631.3    3.1      59.481
2014    9       25    15  25    5.65   631.3    3.1      59.480
2014    9       25    15  31    5.65   631.3    3.1      59.480
2014    9       25    15  36    5.65   631.3    3.1      59.479
2014    9       25    15  41    5.65   631.3    3.1      59.478
2014    9       25    15  47    5.64   631.2    3.1      59.476
2014    9       25    15  52    5.64   631.2    3.1      59.474
2014    9       25    15  58    5.64   631.2    3.1      59.470
2014    9       25    16   3    5.64   631.2    3.1      59.466
2014    9       25    16   8    5.64   631.2    3.1      59.461
2014    9       25    16  14    5.64   631.2    3.1      59.455
2014    9       25    16  19    5.63   631.1    3.1      59.449
2014    9       25    16  24    5.63   631.1    3.1      59.443
2014    9       25    16  30    5.63   631.1    3.1      59.436
2014    9       25    16  35    5.63   631.1    3.1      59.428
2014    9       25    16  41    5.63   631.1    3.1      59.420
2014    9       25    16  46    5.63   631.0    3.1      59.412
2014    9       25    16  51    5.62   631.0    3.1      59.404
2014    9       25    16  57    5.62   631.0    3.1      59.395
2014    9       25    17   2    5.62   631.0    3.1      59.386
2014    9       25    17   8    5.62   630.9    3.1      59.377
2014    9       25    17  13    5.62   630.9    3.1      59.367
2014    9       25    17  18    5.62   630.9    3.1      59.358
2014    9       25    17  24    5.61   630.9    3.1      59.348
2014    9       25    17  29    5.61   630.8    3.1      59.338
2014    9       25    17  35    5.61   630.8    3.1      59.328
2014    9       25    17  40    5.61   630.8    3.1      59.318
2014    9       25    17  45    5.61   630.7    3.1      59.308
2014    9       25    17  51    5.61   630.7    3.1      59.297
2014    9       25    17  56    5.61   630.7    3.1      59.287
2014    9       25    18   2    5.60   630.6    3.1      59.277
2014    9       25    18   7    5.60   630.6    3.1      59.267
2014    9       25    18  12    5.60   630.6    3.1      59.256
2014    9       25    18  18    5.60   630.6    3.1      59.246
2014    9       25    18  23    5.60   630.5    3.1      59.236
2014    9       25    18  28    5.60   630.5    3.1      59.225
2014    9       25    18  34    5.60   630.5    3.1      59.215
2014    9       25    18  39    5.59   630.4    3.0      59.205
2014    9       25    18  45    5.59   630.4    3.0      59.194
2014    9       25    18  50    5.59   630.4    3.0      59.184
2014    9       25    18  55    5.59   630.3    3.0      59.175
2014    9       25    19   1    5.59   630.3    3.0      59.165
2014    9       25    19   6    5.59   630.3    3.0      59.155
2014    9       25    19  12    5.59   630.2    3.0      59.146
2014    9       25    19  17    5.59   630.2    3.0      59.137
2014    9       25    19  22    5.58   630.2    3.0      59.128
2014    9       25    19  28    5.58   630.1    3.0      59.120
2014    9       25    19  33    5.58   630.1    3.0      59.112
2014    9       25    19  39    5.58   630.1    3.0      59.105
2014    9       25    19  44    5.58   630.0    3.0      59.097
2014    9       25    19  49    5.58   630.0    3.0      59.090
2014    9       25    19  55    5.58   630.0    3.0      59.084
2014    9       25    20   0    5.58   630.0    3.0      59.078
2014    9       25    20   6    5.58   629.9    3.0      59.071
2014    9       25    20  11    5.58   629.9    3.0      59.065
2014    9       25    20  16    5.57   629.9    3.0      59.059
2014    9       25    20  22    5.57   629.9    3.0      59.052
2014    9       25    20  27    5.57   629.9    3.0      59.046
2014    9       25    20  33    5.57   629.8    3.0      59.039
2014    9       25    20  38    5.57   629.8    3.0      59.032
2014    9       25    20  43    5.57   629.8    3.0      59.024
2014    9       25    20  49    5.57   629.8    3.0      59.017
2014    9       25    20  54    5.57   629.8    3.0      59.009
2014    9       25    21   0    5.57   629.8    3.0      59.002
2014    9       25    21   5    5.57   629.7    3.0      58.994
2014    9       25    21  10    5.56   629.7    3.0      58.986
2014    9       25    21  16    5.56   629.7    3.0      58.979
2014    9       25    21  21    5.56   629.7    3.0      58.971
2014    9       25    21  26    5.56   629.7    3.0      58.964
2014    9       25    21  32    5.56   629.7    3.0      58.957
2014    9       25    21  37    5.56   629.7    3.0      58.950
2014    9       25    21  43    5.56   629.6    3.0      58.944
2014    9       25    21  48    5.56   629.6    3.0      58.937
2014    9       25    21  53    5.55   629.6    3.0      58.931
2014    9       25    21  59    5.55   629.6    3.0      58.926
2014    9       25    22   4    5.55   629.6    3.0      58.921
2014    9       25    22  10    5.55   629.6    3.0      58.916
2014    9       25    22  15    5.55   629.5    3.0      58.912
2014    9       25    22  20    5.55   629.5    3.0      58.908
2014    9       25    22  26    5.55   629.5    3.0      58.904
2014    9       25    22  31    5.54   629.5    3.0      58.901
2014    9       25    22  37    5.54   629.5    3.0      58.898
2014    9       25    22  42    5.54   629.4    3.0      58.895
2014    9       25    22  47    5.54   629.4    3.0      58.894
2014    9       25    22  53    5.54   629.4    3.0      58.892
2014    9       25    22  58    5.54   629.4    3.0      58.889
2014    9       25    23   4    5.54   629.3    3.0      58.887
2014    9       25    23   9    5.53   629.3    3.0      58.884
2014    9       25    23  14    5.53   629.3    3.0      58.881
2014    9       25    23  20    5.53   629.2    3.0      58.877
2014    9       25    23  25    5.53   629.2    3.0      58.874
2014    9       25    23  31    5.53   629.2    3.0      58.871
2014    9       25    23  36    5.53   629.1    3.0      58.868
2014    9       25    23  41    5.52   629.1    3.0      58.865
2014    9       25    23  47    5.52   629.0    3.0      58.862
2014    9       25    23  52    5.52   629.0    3.0      58.860
2014    9       25    23  58    5.52   628.9    3.0      58.858
2014    9       26     0   3    5.52   628.9    3.0      58.856
2014    9       26     0   8    5.52   628.8    3.0      58.855
2014    9       26     0  14    5.52   628.8    3.0      58.855
2014    9       26     0  19    5.51   628.7    3.0      58.855
2014    9       26     0  25    5.51   628.7    3.0      58.856
2014    9       26     0  30    5.51   628.7    3.0      58.858
2014    9       26     0  35    5.51   628.6    3.0      58.861
2014    9       26     0  41    5.51   628.6    3.0      58.863
2014    9       26     0  46    5.51   628.5    3.0      58.866
2014    9       26     0  52    5.51   628.5    3.0      58.870
2014    9       26     0  57    5.51   628.4    3.0      58.875
2014    9       26     1   2    5.50   628.4    3.0      58.880
2014    9       26     1   8    5.50   628.3    3.0      58.885
2014    9       26     1  13    5.50   628.3    3.0      58.891
2014    9       26     1  18    5.50   628.2    3.0      58.896
2014    9       26     1  24    5.50   628.2    3.0      58.900
2014    9       26     1  29    5.50   628.2    3.0      58.902
2014    9       26     1  35    5.50   628.1    3.0      58.904
2014    9       26     1  40    5.50   628.1    3.0      58.904
2014    9       26     1  45    5.50   628.0    3.0      58.903
2014    9       26     1  51    5.50   628.0    3.0      58.901
2014    9       26     1  56    5.50   627.9    3.0      58.898
2014    9       26     2   2    5.49   627.9    3.0      58.894
2014    9       26     2   7    5.49   627.9    3.0      58.889
2014    9       26     2  12    5.49   627.8    3.0      58.884
2014    9       26     2  18    5.49   627.8    3.0      58.878
2014    9       26     2  23    5.49   627.7    3.0      58.872
2014    9       26     2  29    5.49   627.7    3.0      58.864
2014    9       26     2  34    5.49   627.6    3.0      58.857
2014    9       26     2  39    5.49   627.6    3.0      58.849
2014    9       26     2  45    5.49   627.5    3.0      58.840
2014    9       26     2  50    5.49   627.5    3.0      58.831
2014    9       26     2  56    5.49   627.5    3.0      58.821
2014    9       26     3   1    5.48   627.4    3.0      58.811
2014    9       26     3   6    5.48   627.4    3.0      58.801
2014    9       26     3  12    5.48   627.3    3.0      58.789
2014    9       26     3  17    5.48   627.3    3.0      58.777
2014    9       26     3  23    5.48   627.2    3.0      58.765
2014    9       26     3  28    5.48   627.2    3.0      58.752
2014    9       26     3  33    5.48   627.1    3.0      58.738
2014    9       26     3  39    5.48   627.1    3.0      58.724
2014    9       26     3  44    5.48   627.0    3.0      58.709
2014    9       26     3  50    5.47   627.0    3.0      58.694
2014    9       26     3  55    5.47   627.0    3.0      58.679
2014    9       26     4   0    5.47   626.9    3.0      58.663
2014    9       26     4   6    5.47   626.9    3.0      58.646
2014    9       26     4  11    5.47   626.8    3.0      58.629
2014    9       26     4  17    5.47   626.8    3.0      58.612
2014    9       26     4  22    5.47   626.7    3.0      58.594
2014    9       26     4  27    5.47   626.7    3.0      58.576
2014    9       26     4  33    5.47   626.6    3.0      58.558
2014    9       26     4  38    5.46   626.6    3.0      58.539
2014    9       26     4  44    5.46   626.5    3.0      58.520
2014    9       26     4  49    5.46   626.5    3.0      58.500
2014    9       26     4  54    5.46   626.4    3.0      58.481
2014    9       26     5   0    5.46   626.4    3.0      58.461
2014    9       26     5   5    5.46   626.3    3.0      58.440
2014    9       26     5  11    5.46   626.3    3.0      58.420
2014    9       26     5  16    5.46   626.2    3.0      58.400
2014    9       26     5  21    5.45   626.2    3.0      58.379
2014    9       26     5  27    5.45   626.1    3.0      58.359
2014    9       26     5  32    5.45   626.1    3.0      58.339
2014    9       26     5  38    5.45   626.0    3.0      58.318
2014    9       26     5  43    5.45   626.0    3.0      58.298
2014    9       26     5  48    5.45   625.9    3.0      58.278
2014    9       26     5  54    5.45   625.9    3.0      58.258
2014    9       26     5  59    5.44   625.8    3.0      58.239
2014    9       26     6   4    5.44   625.8    3.0      58.220
2014    9       26     6  10    5.44   625.7    3.0      58.202
2014    9       26     6  15    5.44   625.7    3.0      58.183
2014    9       26     6  21    5.44   625.6    3.0      58.166
2014    9       26     6  26    5.44   625.6    3.0      58.148
2014    9       26     6  31    5.44   625.5    3.0      58.132
2014    9       26     6  37    5.43   625.4    3.0      58.116
2014    9       26     6  42    5.43   625.4    3.0      58.100
2014    9       26     6  48    5.43   625.3    3.0      58.086
2014    9       26     6  53    5.43   625.3    3.0      58.072
2014    9       26     6  58    5.43   625.2    3.0      58.060
2014    9       26     7   4    5.43   625.1    3.0      58.048
2014    9       26     7   9    5.43   625.1    3.0      58.038
2014    9       26     7  15    5.43   625.0    3.0      58.029
2014    9       26     7  20    5.42   624.9    3.0      58.022
2014    9       26     7  25    5.42   624.9    3.0      58.016
2014    9       26     7  31    5.42   624.8    3.0      58.011
2014    9       26     7  36    5.42   624.7    3.0      58.008
2014    9       26     7  42    5.42   624.7    3.0      58.007
2014    9       26     7  47    5.42   624.6    3.0      58.008
2014    9       26     7  52    5.42   624.5    3.0      58.009
2014    9       26     7  58    5.42   624.5    3.0      58.012
2014    9       26     8   3    5.42   624.4    3.0      58.017
2014    9       26     8   9    5.41   624.4    3.0      58.022
2014    9       26     8  14    5.41   624.3    3.0      58.026
2014    9       26     8  19    5.41   624.2    3.0      58.030
2014    9       26     8  25    5.41   624.2    3.0      58.033
2014    9       26     8  30    5.41   624.1    3.0      58.036
2014    9       26     8  36    5.41   624.0    3.0      58.038
2014    9       26     8  41    5.41   624.0    3.0      58.040
2014    9       26     8  46    5.41   623.9    3.0      58.042
2014    9       26     8  52    5.41   623.8    3.0      58.043
2014    9       26     8  57    5.41   623.8    3.0      58.044
2014    9       26     9   3    5.40   623.7    3.0      58.044
2014    9       26     9   8    5.40   623.6    3.0      58.043
2014    9       26     9  13    5.40   623.5    3.0      58.042
2014    9       26     9  19    5.40   623.5    3.0      58.041
2014    9       26     9  24    5.40   623.4    3.0      58.039
2014    9       26     9  30    5.40   623.3    3.0      58.036
2014    9       26     9  35    5.40   623.2    3.0      58.033
2014    9       26     9  40    5.40   623.1    3.0      58.030
2014    9       26     9  46    5.40   623.0    3.0      58.026
2014    9       26     9  51    5.39   623.0    3.0      58.022
2014    9       26     9  57    5.39   622.9    3.0      58.017
2014    9       26    10   2    5.39   622.8    3.0      58.011
2014    9       26    10   7    5.39   622.7    3.0      58.006
2014    9       26    10  13    5.39   622.6    3.0      58.000
2014    9       26    10  18    5.39   622.5    3.0      57.994
2014    9       26    10  24    5.39   622.4    3.0      57.988
2014    9       26    10  29    5.39   622.3    3.0      57.981
2014    9       26    10  34    5.38   622.2    3.0      57.975
2014    9       26    10  40    5.38   622.1    3.0      57.969
2014    9       26    10  45    5.38   622.0    3.0      57.963
2014    9       26    10  51    5.38   621.9    3.0      57.958
2014    9       26    10  56    5.38   621.8    3.0      57.953
2014    9       26    11   1    5.38   621.7    3.0      57.949
2014    9       26    11   7    5.38   621.6    3.0      57.946
2014    9       26    11  12    5.38   621.5    3.0      57.943
2014    9       26    11  17    5.38   621.4    3.0      57.941
2014    9       26    11  23    5.38   621.3    3.0      57.940
2014    9       26    11  28    5.37   621.2    3.0      57.940
2014    9       26    11  34    5.37   621.1    3.0      57.939
2014    9       26    11  39    5.37   621.0    3.0      57.939
2014    9       26    11  44    5.37   621.0    3.0      57.939
2014    9       26    11  50    5.37   620.9    3.0      57.938
2014    9       26    11  55    5.37   620.8    3.0      57.935
2014    9       26    12   1    5.37   620.7    3.0      57.930
2014    9       26    12   6    5.37   620.6    3.0      57.925
2014    9       26    12  11    5.37   620.6    3.0      57.918
2014    9       26    12  17    5.36   620.5    3.0      57.910
2014    9       26    12  22    5.36   620.4    3.0      57.900
2014    9       26    12  28    5.36   620.3    3.0      57.890
2014    9       26    12  33    5.36   620.3    3.0      57.878
2014    9       26    12  38    5.36   620.2    3.0      57.865
2014    9       26    12  44    5.36   620.1    3.0      57.851
2014    9       26    12  49    5.36   620.0    3.0      57.835
2014    9       26    12  55    5.36   620.0    3.0      57.819
2014    9       26    13   0    5.35   619.9    3.0      57.801
2014    9       26    13   5    5.35   619.8    3.0      57.782
2014    9       26    13  11    5.35   619.8    3.0      57.762
2014    9       26    13  16    5.35   619.7    3.0      57.742
2014    9       26    13  22    5.35   619.6    3.0      57.720
2014    9       26    13  27    5.35   619.5    3.0      57.698
2014    9       26    13  32    5.35   619.4    3.0      57.675
2014    9       26    13  38    5.34   619.4    3.0      57.651
2014    9       26    13  43    5.34   619.3    3.0      57.626
2014    9       26    13  49    5.34   619.2    3.0      57.601
2014    9       26    13  54    5.34   619.1    3.0      57.576
2014    9       26    13  59    5.34   619.0    3.0      57.550
2014    9       26    14   5    5.34   619.0    3.0      57.523
2014    9       26    14  10    5.34   618.9    3.0      57.496
2014    9       26    14  16    5.33   618.8    3.0      57.469
2014    9       26    14  21    5.33   618.7    3.0      57.442
2014    9       26    14  26    5.33   618.6    3.0      57.414
2014    9       26    14  32    5.33   618.5    3.0      57.387
2014    9       26    14  37    5.33   618.4    3.0      57.360
2014    9       26    14  43    5.33   618.4    3.0      57.332
2014    9       26    14  48    5.33   618.3    3.0      57.306
2014    9       26    14  53    5.33   618.2    3.0      57.279
2014    9       26    14  59    5.32   618.1    3.0      57.252
2014    9       26    15   4    5.32   618.0    3.0      57.227
2014    9       26    15  10    5.32   617.9    3.0      57.201
2014    9       26    15  15    5.32   617.8    3.0      57.176
2014    9       26    15  20    5.32   617.7    3.0      57.152
2014    9       26    15  26    5.32   617.6    3.0      57.128
2014    9       26    15  31    5.32   617.5    3.0      57.105
2014    9       26    15  36    5.31   617.4    3.0      57.082
2014    9       26    15  42    5.31   617.3    3.0      57.059
2014    9       26    15  47    5.31   617.2    3.0      57.038
2014    9       26    15  53    5.31   617.1    3.0      57.016
2014    9       26    15  58    5.31   617.0    3.0      56.995
2014    9       26    16   3    5.31   616.9    3.0      56.975
2014    9       26    16   9    5.31   616.8    3.0      56.955
2014    9       26    16  14    5.31   616.7    3.0      56.935
2014    9       26    16  20    5.30   616.5    3.0      56.915
2014    9       26    16  25    5.30   616.4    3.0      56.895
2014    9       26    16  30    5.30   616.3    3.0      56.876
2014    9       26    16  36    5.30   616.2    3.0      56.857
2014    9       26    16  41    5.30   616.1    3.0      56.838
2014    9       26    16  47    5.30   615.9    3.0      56.819
2014    9       26    16  52    5.30   615.8    3.0      56.801
2014    9       26    16  57    5.29   615.7    3.0      56.783
2014    9       26    17   3    5.29   615.5    3.0      56.765
2014    9       26    17   8    5.29   615.4    3.0      56.748
2014    9       26    17  14    5.29   615.3    3.0      56.732
2014    9       26    17  19    5.29   615.1    3.0      56.717
2014    9       26    17  24    5.29   615.0    3.0      56.703
2014    9       26    17  30    5.29   614.9    3.0      56.689
2014    9       26    17  35    5.29   614.7    3.0      56.677
2014    9       26    17  41    5.29   614.6    3.0      56.666
2014    9       26    17  46    5.28   614.5    3.0      56.657
2014    9       26    17  51    5.28   614.3    3.0      56.649
2014    9       26    17  57    5.28   614.2    3.0      56.643
2014    9       26    18   2    5.28   614.0    3.0      56.638
2014    9       26    18   8    5.28   613.9    3.0      56.636
2014    9       26    18  13    5.28   613.8    3.0      56.636
2014    9       26    18  18    5.28   613.6    3.0      56.637
2014    9       26    18  24    5.28   613.5    3.0      56.640
2014    9       26    18  29    5.28   613.4    3.0      56.645
2014    9       26    18  35    5.28   613.2    3.0      56.653
2014    9       26    18  40    5.28   613.1    3.0      56.662
2014    9       26    18  45    5.27   613.0    3.0      56.672
2014    9       26    18  51    5.27   612.9    3.0      56.684
2014    9       26    18  56    5.27   612.8    3.0      56.697
2014    9       26    19   2    5.27   612.7    3.0      56.709
2014    9       26    19   7    5.27   612.5    3.0      56.720
2014    9       26    19  12    5.27   612.4    3.1      56.730
2014    9       26    19  18    5.27   612.3    3.1      56.739
2014    9       26    19  23    5.27   612.2    3.1      56.746
2014    9       26    19  28    5.27   612.1    3.1      56.753
2014    9       26    19  34    5.26   612.0    3.1      56.758
2014    9       26    19  39    5.26   611.8    3.1      56.761
2014    9       26    19  45    5.26   611.7    3.1      56.764
2014    9       26    19  50    5.26   611.6    3.1      56.765
2014    9       26    19  55    5.26   611.4    3.1      56.765
2014    9       26    20   1    5.26   611.3    3.1      56.764
2014    9       26    20   6    5.26   611.2    3.1      56.762
2014    9       26    20  12    5.25   611.0    3.1      56.760
2014    9       26    20  17    5.25   610.9    3.1      56.757
2014    9       26    20  22    5.25   610.8    3.1      56.753
2014    9       26    20  28    5.25   610.6    3.1      56.749
2014    9       26    20  33    5.25   610.5    3.1      56.745
2014    9       26    20  39    5.25   610.4    3.1      56.741
2014    9       26    20  44    5.25   610.2    3.1      56.736
2014    9       26    20  49    5.25   610.1    3.1      56.732
2014    9       26    20  55    5.24   610.0    3.1      56.727
2014    9       26    21   0    5.24   609.8    3.1      56.723
2014    9       26    21   6    5.24   609.7    3.1      56.718
2014    9       26    21  11    5.24   609.6    3.1      56.712
2014    9       26    21  16    5.24   609.5    3.1      56.707
2014    9       26    21  22    5.24   609.3    3.1      56.700
2014    9       26    21  27    5.24   609.2    3.1      56.693
2014    9       26    21  33    5.24   609.1    3.1      56.683
2014    9       26    21  38    5.24   609.0    3.1      56.673
2014    9       26    21  43    5.23   608.9    3.1      56.661
2014    9       26    21  49    5.23   608.7    3.1      56.649
2014    9       26    21  54    5.23   608.6    3.1      56.635
2014    9       26    22   0    5.23   608.5    3.1      56.620
2014    9       26    22   5    5.23   608.4    3.1      56.603
2014    9       26    22  10    5.23   608.3    3.1      56.586
2014    9       26    22  16    5.23   608.2    3.1      56.568
2014    9       26    22  21    5.23   608.0    3.1      56.549
2014    9       26    22  27    5.22   607.9    3.1      56.529
2014    9       26    22  32    5.22   607.8    3.1      56.507
2014    9       26    22  37    5.22   607.7    3.1      56.485
2014    9       26    22  43    5.22   607.6    3.1      56.462
2014    9       26    22  48    5.22   607.5    3.1      56.439
2014    9       26    22  53    5.22   607.4    3.1      56.414
2014    9       26    22  59    5.22   607.2    3.1      56.389
2014    9       26    23   4    5.21   607.1    3.1      56.363
2014    9       26    23  10    5.21   607.0    3.1      56.336
2014    9       26    23  15    5.21   606.9    3.1      56.308
2014    9       26    23  20    5.21   606.8    3.1      56.280
2014    9       26    23  26    5.21   606.7    3.1      56.251
2014    9       26    23  31    5.21   606.6    3.1      56.222
2014    9       26    23  37    5.21   606.4    3.1      56.192
2014    9       26    23  42    5.21   606.3    3.1      56.161
2014    9       26    23  47    5.20   606.2    3.1      56.130
2014    9       26    23  53    5.20   606.1    3.1      56.099
2014    9       26    23  58    5.20   605.9    3.1      56.067
2014    9       27     0   4    5.20   605.8    3.1      56.035
2014    9       27     0   9    5.20   605.7    3.1      56.003
2014    9       27     0  14    5.20   605.6    3.1      55.970
2014    9       27     0  20    5.19   605.4    3.1      55.938
2014    9       27     0  25    5.19   605.3    3.1      55.906
2014    9       27     0  31    5.19   605.2    3.1      55.874
2014    9       27     0  36    5.19   605.0    3.1      55.843
2014    9       27     0  41    5.19   604.9    3.1      55.813
2014    9       27     0  47    5.19   604.8    3.1      55.783
2014    9       27     0  52    5.19   604.6    3.1      55.754
2014    9       27     0  58    5.18   604.5    3.1      55.726
2014    9       27     1   3    5.18   604.3    3.1      55.699
2014    9       27     1   8    5.18   604.2    3.1      55.673
2014    9       27     1  14    5.18   604.1    3.1      55.648
2014    9       27     1  19    5.18   603.9    3.1      55.624
2014    9       27     1  24    5.18   603.8    3.1      55.602
2014    9       27     1  30    5.18   603.7    3.1      55.581
2014    9       27     1  35    5.18   603.5    3.1      55.561
2014    9       27     1  41    5.17   603.4    3.1      55.543
2014    9       27     1  46    5.17   603.3    3.1      55.525
2014    9       27     1  51    5.17   603.1    3.1      55.508
2014    9       27     1  57    5.17   603.0    3.1      55.493
2014    9       27     2   2    5.17   602.9    3.1      55.478
2014    9       27     2   8    5.17   602.7    3.1      55.464
2014    9       27     2  13    5.17   602.6    3.1      55.450
2014    9       27     2  18    5.17   602.4    3.1      55.437
2014    9       27     2  24    5.16   602.3    3.1      55.424
2014    9       27     2  29    5.16   602.1    3.1      55.412
2014    9       27     2  35    5.16   602.0    3.1      55.400
2014    9       27     2  40    5.16   601.8    3.1      55.388
2014    9       27     2  45    5.16   601.7    3.1      55.376
2014    9       27     2  51    5.16   601.5    3.1      55.364
2014    9       27     2  56    5.16   601.4    3.1      55.353
2014    9       27     3   2    5.15   601.2    3.1      55.342
2014    9       27     3   7    5.15   601.0    3.1      55.331
2014    9       27     3  12    5.15   600.8    3.1      55.320
2014    9       27     3  18    5.15   600.7    3.1      55.310
2014    9       27     3  23    5.15   600.5    3.1      55.301
2014    9       27     3  29    5.15   600.3    3.1      55.293
2014    9       27     3  34    5.15   600.1    3.1      55.285
2014    9       27     3  39    5.14   599.9    3.1      55.279
2014    9       27     3  45    5.14   599.8    3.1      55.274
2014    9       27     3  50    5.14   599.6    3.1      55.271
2014    9       27     3  55    5.14   599.4    3.1      55.269
2014    9       27     4   1    5.14   599.2    3.1      55.268
2014    9       27     4   6    5.14   599.0    3.1      55.269
2014    9       27     4  12    5.14   598.9    3.1      55.271
2014    9       27     4  17    5.14   598.7    3.1      55.274
2014    9       27     4  22    5.14   598.5    3.1      55.278
2014    9       27     4  28    5.13   598.3    3.1      55.283
2014    9       27     4  33    5.13   598.2    3.1      55.289
2014    9       27     4  39    5.13   598.0    3.1      55.296
2014    9       27     4  44    5.13   597.9    3.1      55.304
2014    9       27     4  49    5.13   597.7    3.1      55.310
2014    9       27     4  55    5.13   597.5    3.1      55.317
2014    9       27     5   0    5.13   597.4    3.1      55.322
2014    9       27     5   6    5.13   597.2    3.1      55.327
2014    9       27     5  11    5.13   597.1    3.1      55.330
2014    9       27     5  16    5.13   596.9    3.1      55.333
2014    9       27     5  22    5.13   596.8    3.1      55.334
2014    9       27     5  27    5.12   596.6    3.1      55.335
2014    9       27     5  33    5.12   596.5    3.1      55.335
2014    9       27     5  38    5.12   596.3    3.1      55.334
2014    9       27     5  43    5.12   596.1    3.1      55.331
2014    9       27     5  49    5.12   596.0    3.1      55.329
2014    9       27     5  54    5.12   595.8    3.1      55.325
2014    9       27     6   0    5.12   595.7    3.1      55.321
2014    9       27     6   5    5.12   595.5    3.1      55.316
2014    9       27     6  10    5.12   595.4    3.1      55.310
2014    9       27     6  16    5.12   595.2    3.1      55.304
2014    9       27     6  21    5.11   595.1    3.1      55.298
2014    9       27     6  26    5.11   594.9    3.1      55.291
2014    9       27     6  32    5.11   594.8    3.1      55.284
2014    9       27     6  37    5.11   594.6    3.1      55.276
2014    9       27     6  43    5.11   594.5    3.1      55.269
2014    9       27     6  48    5.11   594.4    3.1      55.260
2014    9       27     6  53    5.11   594.2    3.1      55.251
2014    9       27     6  59    5.11   594.1    3.1      55.241
2014    9       27     7   4    5.11   593.9    3.1      55.231
2014    9       27     7  10    5.10   593.8    3.1      55.220
2014    9       27     7  15    5.10   593.6    3.1      55.209
2014    9       27     7  20    5.10   593.5    3.1      55.197
2014    9       27     7  26    5.10   593.4    3.1      55.184
2014    9       27     7  31    5.10   593.2    3.1      55.170
2014    9       27     7  37    5.10   593.1    3.1      55.156
2014    9       27     7  42    5.10   593.0    3.1      55.141
2014    9       27     7  47    5.10   592.8    3.1      55.125
2014    9       27     7  53    5.09   592.7    3.1      55.109
2014    9       27     7  58    5.09   592.5    3.1      55.092
2014    9       27     8   3    5.09   592.4    3.1      55.075
2014    9       27     8   9    5.09   592.3    3.1      55.056
2014    9       27     8  14    5.09   592.1    3.1      55.037
2014    9       27     8  20    5.09   592.0    3.1      55.018
2014    9       27     8  25    5.09   591.9    3.1      54.998
2014    9       27     8  30    5.09   591.7    3.1      54.977
2014    9       27     8  36    5.08   591.6    3.1      54.956
2014    9       27     8  41    5.08   591.5    3.1      54.934
2014    9       27     8  47    5.08   591.3    3.1      54.911
2014    9       27     8  52    5.08   591.2    3.1      54.889
2014    9       27     8  57    5.08   591.0    3.1      54.865
2014    9       27     9   3    5.08   590.9    3.1      54.842
2014    9       27     9   8    5.08   590.8    3.1      54.817
2014    9       27     9  14    5.07   590.6    3.1      54.793
2014    9       27     9  19    5.07   590.5    3.1      54.768
2014    9       27     9  24    5.07   590.3    3.1      54.743
2014    9       27     9  30    5.07   590.2    3.1      54.718
2014    9       27     9  35    5.07   590.0    3.1      54.692
2014    9       27     9  41    5.07   589.9    3.1      54.667
2014    9       27     9  46    5.07   589.8    3.1      54.641
2014    9       27     9  51    5.06   589.6    3.1      54.616
2014    9       27     9  57    5.06   589.5    3.1      54.590
2014    9       27    10   2    5.06   589.3    3.1      54.565
2014    9       27    10   8    5.06   589.1    3.1      54.541
2014    9       27    10  13    5.06   589.0    3.1      54.516
2014    9       27    10  18    5.06   588.8    3.1      54.492
2014    9       27    10  24    5.05   588.7    3.1      54.469
2014    9       27    10  29    5.05   588.5    3.1      54.447
2014    9       27    10  34    5.05   588.4    3.1      54.426
2014    9       27    10  40    5.05   588.2    3.1      54.405
2014    9       27    10  45    5.05   588.0    3.1      54.386
2014    9       27    10  51    5.05   587.9    3.1      54.367
2014    9       27    10  56    5.05   587.7    3.1      54.349
2014    9       27    11   1    5.05   587.6    3.1      54.333
2014    9       27    11   7    5.04   587.4    3.1      54.318
2014    9       27    11  12    5.04   587.2    3.1      54.304
2014    9       27    11  18    5.04   587.1    3.1      54.291
2014    9       27    11  23    5.04   586.9    3.1      54.279
2014    9       27    11  28    5.04   586.8    3.1      54.268
2014    9       27    11  34    5.04   586.6    3.1      54.258
2014    9       27    11  39    5.04   586.4    3.1      54.249
2014    9       27    11  45    5.04   586.3    3.1      54.241
2014    9       27    11  50    5.04   586.1    3.1      54.233
2014    9       27    11  55    5.03   586.0    3.1      54.226
2014    9       27    12   1    5.03   585.8    3.2      54.220
2014    9       27    12   6    5.03   585.6    3.2      54.214
2014    9       27    12  12    5.03   585.5    3.2      54.208
2014    9       27    12  17    5.03   585.3    3.2      54.203
2014    9       27    12  22    5.03   585.1    3.2      54.198
2014    9       27    12  28    5.03   584.9    3.2      54.193
2014    9       27    12  33    5.03   584.8    3.2      54.189
2014    9       27    12  38    5.03   584.6    3.2      54.185
2014    9       27    12  44    5.02   584.4    3.2      54.182
2014    9       27    12  49    5.02   584.2    3.2      54.179
2014    9       27    12  55    5.02   584.0    3.2      54.177
2014    9       27    13   0    5.02   583.9    3.2      54.175
2014    9       27    13   5    5.02   583.7    3.2      54.174
2014    9       27    13  11    5.02   583.5    3.2      54.173
2014    9       27    13  16    5.02   583.3    3.2      54.173
2014    9       27    13  22    5.02   583.1    3.2      54.173
2014    9       27    13  27    5.02   583.0    3.2      54.175
2014    9       27    13  32    5.02   582.8    3.2      54.176
2014    9       27    13  38    5.02   582.6    3.2      54.179
2014    9       27    13  43    5.01   582.4    3.2      54.181
2014    9       27    13  49    5.01   582.3    3.2      54.183
2014    9       27    13  54    5.01   582.1    3.2      54.185
2014    9       27    13  59    5.01   581.9    3.2      54.187
2014    9       27    14   5    5.01   581.8    3.2      54.188
2014    9       27    14  10    5.01   581.6    3.2      54.189
2014    9       27    14  15    5.01   581.4    3.2      54.189
2014    9       27    14  21    5.01   581.3    3.2      54.188
2014    9       27    14  26    5.01   581.1    3.2      54.186
2014    9       27    14  32    5.01   581.0    3.2      54.183
2014    9       27    14  37    5.01   580.8    3.2      54.180
2014    9       27    14  42    5.01   580.6    3.2      54.176
2014    9       27    14  48    5.01   580.5    3.2      54.171
2014    9       27    14  53    5.00   580.3    3.2      54.165
2014    9       27    14  59    5.00   580.2    3.2      54.159
2014    9       27    15   4    5.00   580.0    3.2      54.152
2014    9       27    15   9    5.00   579.9    3.2      54.145
2014    9       27    15  15    5.00   579.7    3.2      54.136
2014    9       27    15  20    5.00   579.6    3.2      54.127
2014    9       27    15  26    5.00   579.4    3.2      54.118
2014    9       27    15  31    5.00   579.3    3.2      54.108
2014    9       27    15  36    5.00   579.1    3.2      54.097
2014    9       27    15  42    5.00   579.0    3.2      54.086
2014    9       27    15  47    4.99   578.8    3.2      54.074
2014    9       27    15  52    4.99   578.7    3.2      54.062
2014    9       27    15  58    4.99   578.5    3.2      54.049
2014    9       27    16   3    4.99   578.4    3.2      54.036
2014    9       27    16   9    4.99   578.2    3.2      54.022
2014    9       27    16  14    4.99   578.1    3.2      54.008
2014    9       27    16  19    4.99   577.9    3.2      53.994
2014    9       27    16  25    4.99   577.8    3.2      53.979
2014    9       27    16  30    4.98   577.6    3.2      53.965
2014    9       27    16  36    4.98   577.5    3.2      53.949
2014    9       27    16  41    4.98   577.3    3.2      53.934
2014    9       27    16  46    4.98   577.2    3.2      53.919
2014    9       27    16  52    4.98   577.0    3.2      53.904
2014    9       27    16  57    4.98   576.9    3.2      53.888
2014    9       27    17   3    4.98   576.7    3.2      53.873
2014    9       27    17   8    4.98   576.6    3.2      53.857
2014    9       27    17  13    4.98   576.5    3.2      53.842
2014    9       27    17  19    4.97   576.3    3.2      53.827
2014    9       27    17  24    4.97   576.2    3.2      53.811
2014    9       27    17  30    4.97   576.0    3.2      53.797
2014    9       27    17  35    4.97   575.9    3.2      53.782
2014    9       27    17  40    4.97   575.7    3.2      53.767
2014    9       27    17  46    4.97   575.6    3.2      53.752
2014    9       27    17  51    4.97   575.4    3.2      53.738
2014    9       27    17  56    4.97   575.3    3.2      53.724
2014    9       27    18   2    4.96   575.1    3.2      53.709
2014    9       27    18   7    4.96   575.0    3.2      53.695
2014    9       27    18  13    4.96   574.8    3.2      53.681
2014    9       27    18  18    4.96   574.7    3.2      53.667
2014    9       27    18  23    4.96   574.5    3.2      53.653
2014    9       27    18  29    4.96   574.4    3.2      53.639
2014    9       27    18  34    4.96   574.2    3.2      53.625
2014    9       27    18  40    4.96   574.1    3.2      53.611
2014    9       27    18  45    4.95   573.9    3.2      53.596
2014    9       27    18  50    4.95   573.7    3.2      53.582
2014    9       27    18  56    4.95   573.6    3.2      53.568
2014    9       27    19   1    4.95   573.4    3.2      53.554
2014    9       27    19   7    4.95   573.3    3.2      53.540
2014    9       27    19  12    4.95   573.1    3.2      53.526
2014    9       27    19  17    4.95   572.9    3.2      53.513
2014    9       27    19  23    4.95   572.8    3.2      53.500
2014    9       27    19  28    4.94   572.6    3.2      53.487
2014    9       27    19  34    4.94   572.4    3.2      53.474
2014    9       27    19  39    4.94   572.2    3.2      53.462
2014    9       27    19  44    4.94   572.1    3.2      53.451
2014    9       27    19  50    4.94   571.9    3.2      53.440
2014    9       27    19  55    4.94   571.7    3.2      53.430
2014    9       27    20   0    4.94   571.5    3.2      53.421
2014    9       27    20   6    4.94   571.4    3.2      53.412
2014    9       27    20  11    4.94   571.2    3.3      53.404
2014    9       27    20  17    4.93   571.0    3.3      53.397
2014    9       27    20  22    4.93   570.8    3.3      53.390
2014    9       27    20  27    4.93   570.7    3.3      53.385
2014    9       27    20  33    4.93   570.5    3.3      53.380
2014    9       27    20  38    4.93   570.3    3.3      53.376
2014    9       27    20  44    4.93   570.2    3.3      53.373
2014    9       27    20  49    4.93   570.0    3.3      53.369
2014    9       27    20  54    4.93   569.8    3.3      53.366
2014    9       27    21   0    4.93   569.7    3.3      53.364
2014    9       27    21   5    4.93   569.5    3.3      53.360
2014    9       27    21  10    4.93   569.3    3.3      53.357
2014    9       27    21  16    4.93   569.2    3.3      53.353
2014    9       27    21  21    4.93   569.0    3.3      53.348
2014    9       27    21  27    4.93   568.9    3.3      53.344
2014    9       27    21  32    4.93   568.7    3.3      53.338
2014    9       27    21  37    4.92   568.6    3.3      53.331
2014    9       27    21  43    4.92   568.4    3.3      53.324
2014    9       27    21  48    4.92   568.2    3.3      53.316
2014    9       27    21  54    4.92   568.1    3.3      53.307
2014    9       27    21  59    4.92   567.9    3.3      53.297
2014    9       27    22   4    4.92   567.8    3.3      53.286
2014    9       27    22  10    4.92   567.6    3.3      53.275
2014    9       27    22  15    4.92   567.5    3.3      53.264
2014    9       27    22  21    4.92   567.3    3.3      53.251
2014    9       27    22  26    4.92   567.2    3.3      53.238
2014    9       27    22  31    4.92   567.0    3.3      53.224
2014    9       27    22  37    4.92   566.9    3.3      53.210
2014    9       27    22  42    4.92   566.7    3.3      53.195
2014    9       27    22  47    4.91   566.6    3.3      53.179
2014    9       27    22  53    4.91   566.4    3.3      53.163
2014    9       27    22  58    4.91   566.3    3.3      53.147
2014    9       27    23   4    4.91   566.2    3.3      53.130
2014    9       27    23   9    4.91   566.0    3.3      53.113
2014    9       27    23  14    4.91   565.9    3.3      53.095
2014    9       27    23  20    4.91   565.7    3.3      53.077
2014    9       27    23  25    4.91   565.6    3.3      53.058
2014    9       27    23  31    4.91   565.4    3.3      53.039
2014    9       27    23  36    4.91   565.3    3.3      53.020
2014    9       27    23  41    4.90   565.1    3.3      53.000
2014    9       27    23  47    4.90   565.0    3.3      52.981
2014    9       27    23  52    4.90   564.8    3.3      52.961
2014    9       27    23  58    4.90   564.7    3.3      52.941
2014    9       28     0   3    4.90   564.5    3.3      52.921
2014    9       28     0   8    4.90   564.4    3.3      52.901
2014    9       28     0  14    4.90   564.2    3.3      52.881
2014    9       28     0  19    4.90   564.1    3.3      52.861
2014    9       28     0  24    4.90   563.9    3.3      52.841
2014    9       28     0  30    4.89   563.8    3.3      52.822
2014    9       28     0  35    4.89   563.7    3.3      52.803
2014    9       28     0  41    4.89   563.5    3.3      52.784
2014    9       28     0  46    4.89   563.4    3.3      52.765
2014    9       28     0  51    4.89   563.2    3.3      52.747
2014    9       28     0  57    4.89   563.1    3.3      52.729
2014    9       28     1   2    4.89   562.9    3.3      52.711
2014    9       28     1   8    4.89   562.8    3.3      52.694
2014    9       28     1  13    4.89   562.6    3.3      52.676
2014    9       28     1  18    4.88   562.5    3.3      52.659
2014    9       28     1  24    4.88   562.3    3.3      52.642
2014    9       28     1  29    4.88   562.2    3.3      52.625
2014    9       28     1  35    4.88   562.0    3.3      52.608
2014    9       28     1  40    4.88   561.9    3.3      52.591
2014    9       28     1  45    4.88   561.8    3.3      52.574
2014    9       28     1  51    4.88   561.6    3.3      52.557
2014    9       28     1  56    4.88   561.5    3.3      52.539
2014    9       28     2   1    4.87   561.3    3.3      52.522
2014    9       28     2   7    4.87   561.1    3.3      52.504
2014    9       28     2  12    4.87   561.0    3.3      52.486
2014    9       28     2  18    4.87   560.8    3.3      52.469
2014    9       28     2  23    4.87   560.7    3.3      52.451
2014    9       28     2  28    4.87   560.5    3.3      52.434
2014    9       28     2  34    4.87   560.3    3.3      52.417
2014    9       28     2  39    4.87   560.2    3.3      52.400
2014    9       28     2  45    4.87   560.0    3.3      52.384
2014    9       28     2  50    4.86   559.9    3.3      52.368
2014    9       28     2  55    4.86   559.7    3.3      52.352
2014    9       28     3   1    4.86   559.5    3.3      52.337
2014    9       28     3   6    4.86   559.3    3.3      52.323
2014    9       28     3  12    4.86   559.2    3.3      52.310
2014    9       28     3  17    4.86   559.0    3.3      52.297
2014    9       28     3  22    4.86   558.8    3.3      52.285
2014    9       28     3  28    4.86   558.7    3.3      52.275
2014    9       28     3  33    4.86   558.5    3.3      52.264
2014    9       28     3  38    4.85   558.3    3.3      52.255
2014    9       28     3  44    4.85   558.2    3.3      52.245
2014    9       28     3  49    4.85   558.0    3.3      52.236
2014    9       28     3  55    4.85   557.8    3.3      52.228
2014    9       28     4   0    4.85   557.6    3.3      52.220
2014    9       28     4   5    4.85   557.5    3.3      52.212
2014    9       28     4  11    4.85   557.3    3.3      52.205
2014    9       28     4  16    4.85   557.1    3.3      52.199
2014    9       28     4  22    4.85   557.0    3.3      52.192
2014    9       28     4  27    4.85   556.8    3.3      52.186
2014    9       28     4  32    4.85   556.6    3.3      52.179
2014    9       28     4  38    4.84   556.4    3.3      52.171
2014    9       28     4  43    4.84   556.2    3.4      52.164
2014    9       28     4  48    4.84   556.1    3.4      52.156
2014    9       28     4  54    4.84   555.9    3.4      52.149
2014    9       28     4  59    4.84   555.7    3.4      52.142
2014    9       28     5   5    4.84   555.5    3.4      52.135
2014    9       28     5  10    4.84   555.4    3.4      52.128
2014    9       28     5  15    4.84   555.2    3.4      52.121
2014    9       28     5  21    4.84   555.0    3.4      52.114
2014    9       28     5  26    4.84   554.8    3.4      52.108
2014    9       28     5  32    4.84   554.6    3.4      52.102
2014    9       28     5  37    4.84   554.5    3.4      52.096
2014    9       28     5  42    4.84   554.3    3.4      52.090
2014    9       28     5  48    4.84   554.1    3.4      52.085
2014    9       28     5  53    4.83   554.0    3.4      52.079
2014    9       28     5  58    4.83   553.8    3.4      52.074
2014    9       28     6   4    4.83   553.6    3.4      52.067
2014    9       28     6   9    4.83   553.5    3.4      52.059
2014    9       28     6  15    4.83   553.3    3.4      52.050
2014    9       28     6  20    4.83   553.2    3.4      52.040
2014    9       28     6  25    4.83   553.0    3.4      52.029
2014    9       28     6  31    4.83   552.9    3.4      52.017
2014    9       28     6  36    4.83   552.7    3.4      52.005
2014    9       28     6  42    4.83   552.6    3.4      51.992
2014    9       28     6  47    4.83   552.4    3.4      51.978
2014    9       28     6  52    4.83   552.3    3.4      51.964
2014    9       28     6  58    4.82   552.1    3.4      51.949
2014    9       28     7   3    4.82   552.0    3.4      51.933
2014    9       28     7   8    4.82   551.8    3.4      51.916
2014    9       28     7  14    4.82   551.7    3.4      51.899
2014    9       28     7  19    4.82   551.5    3.4      51.882
2014    9       28     7  25    4.82   551.4    3.4      51.864
2014    9       28     7  30    4.82   551.3    3.4      51.845
2014    9       28     7  35    4.82   551.1    3.4      51.826
2014    9       28     7  41    4.82   551.0    3.4      51.807
2014    9       28     7  46    4.82   550.8    3.4      51.787
2014    9       28     7  52    4.81   550.7    3.4      51.767
2014    9       28     7  57    4.81   550.5    3.4      51.747
2014    9       28     8   2    4.81   550.4    3.4      51.726
2014    9       28     8   8    4.81   550.2    3.4      51.705
2014    9       28     8  13    4.81   550.1    3.4      51.684
2014    9       28     8  19    4.81   550.0    3.4      51.662
2014    9       28     8  24    4.81   549.8    3.4      51.641
2014    9       28     8  29    4.81   549.7    3.4      51.619
2014    9       28     8  35    4.81   549.5    3.4      51.596
2014    9       28     8  40    4.80   549.4    3.4      51.574
2014    9       28     8  46    4.80   549.2    3.4      51.551
2014    9       28     8  51    4.80   549.1    3.4      51.529
2014    9       28     8  56    4.80   549.0    3.4      51.506
2014    9       28     9   2    4.80   548.8    3.4      51.483
2014    9       28     9   7    4.80   548.7    3.4      51.460
2014    9       28     9  12    4.80   548.5    3.4      51.437
2014    9       28     9  18    4.80   548.4    3.4      51.414
2014    9       28     9  23    4.80   548.2    3.4      51.391
2014    9       28     9  29    4.79   548.1    3.4      51.368
2014    9       28     9  34    4.79   547.9    3.4      51.345
2014    9       28     9  39    4.79   547.8    3.4      51.322
2014    9       28     9  45    4.79   547.6    3.4      51.299
2014    9       28     9  50    4.79   547.5    3.4      51.276
2014    9       28     9  56    4.79   547.3    3.4      51.254
2014    9       28    10   1    4.79   547.2    3.4      51.232
2014    9       28    10   6    4.79   547.0    3.4      51.210
2014    9       28    10  12    4.78   546.9    3.4      51.188
2014    9       28    10  17    4.78   546.7    3.4      51.166
2014    9       28    10  22    4.78   546.6    3.4      51.145
2014    9       28    10  28    4.78   546.4    3.4      51.124
2014    9       28    10  33    4.78   546.3    3.4      51.104
2014    9       28    10  39    4.78   546.1    3.4      51.083
2014    9       28    10  44    4.78   546.0    3.4      51.063
2014    9       28    10  49    4.78   545.8    3.4      51.044
2014    9       28    10  55    4.78   545.7    3.4      51.024
2014    9       28    11   0    4.77   545.5    3.4      51.005
2014    9       28    11   6    4.77   545.4    3.4      50.986
2014    9       28    11  11    4.77   545.2    3.4      50.967
2014    9       28    11  16    4.77   545.0    3.4      50.949
2014    9       28    11  22    4.77   544.9    3.4      50.930
2014    9       28    11  27    4.77   544.7    3.4      50.912
2014    9       28    11  32    4.77   544.6    3.4      50.894
2014    9       28    11  38    4.77   544.4    3.4      50.876
2014    9       28    11  43    4.77   544.3    3.4      50.859
2014    9       28    11  49    4.76   544.1    3.4      50.841
2014    9       28    11  54    4.76   543.9    3.4      50.824
2014    9       28    11  59    4.76   543.8    3.4      50.806
2014    9       28    12   5    4.76   543.6    3.4      50.788
2014    9       28    12  10    4.76   543.5    3.4      50.771
2014    9       28    12  15    4.76   543.3    3.4      50.753
2014    9       28    12  21    4.76   543.1    3.4      50.736
2014    9       28    12  26    4.76   543.0    3.4      50.718
2014    9       28    12  32    4.76   542.8    3.4      50.700
2014    9       28    12  37    4.76   542.7    3.4      50.683
2014    9       28    12  42    4.75   542.5    3.4      50.665
2014    9       28    12  48    4.75   542.3    3.4      50.647
2014    9       28    12  53    4.75   542.2    3.4      50.629
2014    9       28    12  59    4.75   542.0    3.4      50.611
2014    9       28    13   4    4.75   541.8    3.4      50.592
2014    9       28    13   9    4.75   541.7    3.4      50.574
2014    9       28    13  15    4.75   541.5    3.4      50.555
2014    9       28    13  20    4.75   541.4    3.4      50.536
2014    9       28    13  25    4.75   541.2    3.4      50.518
2014    9       28    13  31    4.75   541.0    3.4      50.499
2014    9       28    13  36    4.74   540.9    3.4      50.480
2014    9       28    13  42    4.74   540.7    3.4      50.461
2014    9       28    13  47    4.74   540.5    3.4      50.442
2014    9       28    13  52    4.74   540.4    3.4      50.422
2014    9       28    13  58    4.74   540.2    3.4      50.403
2014    9       28    14   3    4.74   540.0    3.4      50.384
2014    9       28    14   9    4.74   539.9    3.4      50.365
2014    9       28    14  14    4.74   539.7    3.4      50.345
2014    9       28    14  19    4.74   539.6    3.4      50.326
2014    9       28    14  25    4.74   539.4    3.4      50.307
2014    9       28    14  30    4.73   539.2    3.4      50.287
2014    9       28    14  36    4.73   539.1    3.4      50.268
2014    9       28    14  41    4.73   538.9    3.4      50.249
2014    9       28    14  46    4.73   538.7    3.5      50.230
2014    9       28    14  52    4.73   538.6    3.5      50.211
2014    9       28    14  57    4.73   538.4    3.5      50.191
2014    9       28    15   2    4.73   538.2    3.5      50.172
2014    9       28    15   8    4.73   538.1    3.5      50.153
2014    9       28    15  13    4.73   537.9    3.5      50.134
2014    9       28    15  19    4.73   537.8    3.5      50.115
2014    9       28    15  24    4.73   537.6    3.5      50.096
2014    9       28    15  29    4.72   537.4    3.5      50.077
2014    9       28    15  35    4.72   537.3    3.5      50.058
2014    9       28    15  40    4.72   537.1    3.5      50.039
2014    9       28    15  46    4.72   536.9    3.5      50.019
2014    9       28    15  51    4.72   536.8    3.5      50.000
2014    9       28    15  56    4.72   536.6    3.5      49.981
2014    9       28    16   2    4.72   536.4    3.5      49.962
2014    9       28    16   7    4.72   536.3    3.5      49.943
2014    9       28    16  13    4.72   536.1    3.5      49.924
2014    9       28    16  18    4.72   535.9    3.5      49.905
2014    9       28    16  23    4.72   535.8    3.5      49.886
2014    9       28    16  29    4.71   535.6    3.5      49.867
2014    9       28    16  34    4.71   535.4    3.5      49.849
2014    9       28    16  39    4.71   535.3    3.5      49.830
2014    9       28    16  45    4.71   535.1    3.5      49.812
2014    9       28    16  50    4.71   535.0    3.5      49.794
2014    9       28    16  56    4.71   534.8    3.5      49.776
2014    9       28    17   1    4.71   534.6    3.5      49.758
2014    9       28    17   6    4.71   534.5    3.5      49.740
2014    9       28    17  12    4.71   534.3    3.5      49.722
2014    9       28    17  17    4.71   534.1    3.5      49.703
2014    9       28    17  23    4.71   534.0    3.5      49.685
2014    9       28    17  28    4.71   533.8    3.5      49.666
2014    9       28    17  33    4.70   533.6    3.5      49.647
2014    9       28    17  39    4.70   533.5    3.5      49.628
2014    9       28    17  44    4.70   533.3    3.5      49.609
2014    9       28    17  49    4.70   533.1    3.5      49.589
2014    9       28    17  55    4.70   533.0    3.5      49.570
2014    9       28    18   0    4.70   532.8    3.5      49.550
2014    9       28    18   6    4.70   532.7    3.5      49.530
2014    9       28    18  11    4.70   532.5    3.5      49.510
2014    9       28    18  16    4.70   532.3    3.5      49.490
2014    9       28    18  22    4.70   532.2    3.5      49.469
2014    9       28    18  27    4.69   532.0    3.5      49.449
2014    9       28    18  33    4.69   531.8    3.5      49.428
2014    9       28    18  38    4.69   531.7    3.5      49.407
2014    9       28    18  43    4.69   531.5    3.5      49.387
2014    9       28    18  49    4.69   531.4    3.5      49.367
2014    9       28    18  54    4.69   531.2    3.5      49.346
2014    9       28    18  59    4.69   531.0    3.5      49.326
2014    9       28    19   5    4.69   530.9    3.5      49.305
2014    9       28    19  10    4.69   530.7    3.5      49.284
2014    9       28    19  16    4.69   530.5    3.5      49.264
2014    9       28    19  21    4.69   530.4    3.5      49.243
2014    9       28    19  26    4.68   530.2    3.5      49.223
2014    9       28    19  32    4.68   530.1    3.5      49.203
2014    9       28    19  37    4.68   529.9    3.5      49.182
2014    9       28    19  42    4.68   529.7    3.5      49.162
2014    9       28    19  48    4.68   529.6    3.5      49.141
2014    9       28    19  53    4.68   529.4    3.5      49.120
2014    9       28    19  59    4.68   529.3    3.5      49.098
2014    9       28    20   4    4.68   529.1    3.5      49.075
2014    9       28    20   9    4.68   528.9    3.5      49.053
2014    9       28    20  15    4.68   528.8    3.5      49.030
2014    9       28    20  20    4.67   528.6    3.5      49.006
2014    9       28    20  26    4.67   528.5    3.5      48.982
2014    9       28    20  31    4.67   528.3    3.5      48.958
2014    9       28    20  36    4.67   528.1    3.5      48.933
2014    9       28    20  42    4.67   528.0    3.5      48.908
2014    9       28    20  47    4.67   527.8    3.5      48.883
2014    9       28    20  52    4.67   527.7    3.5      48.857
2014    9       28    20  58    4.67   527.5    3.5      48.831
2014    9       28    21   3    4.67   527.3    3.5      48.805
2014    9       28    21   9    4.66   527.2    3.5      48.779
2014    9       28    21  14    4.66   527.0    3.5      48.752
2014    9       28    21  19    4.66   526.9    3.5      48.726
2014    9       28    21  25    4.66   526.7    3.5      48.699
2014    9       28    21  30    4.66   526.5    3.5      48.672
2014    9       28    21  36    4.66   526.4    3.5      48.646
2014    9       28    21  41    4.66   526.2    3.5      48.619
2014    9       28    21  46    4.66   526.0    3.5      48.593
2014    9       28    21  52    4.66   525.9    3.5      48.566
2014    9       28    21  57    4.65   525.7    3.5      48.540
2014    9       28    22   2    4.65   525.5    3.5      48.514
2014    9       28    22   8    4.65   525.4    3.5      48.488
2014    9       28    22  13    4.65   525.2    3.5      48.462
2014    9       28    22  19    4.65   525.0    3.5      48.437
2014    9       28    22  24    4.65   524.9    3.5      48.411
2014    9       28    22  29    4.65   524.7    3.5      48.386
2014    9       28    22  35    4.65   524.6    3.5      48.361
2014    9       28    22  40    4.65   524.4    3.5      48.337
2014    9       28    22  46    4.65   524.2    3.5      48.312
2014    9       28    22  51    4.64   524.1    3.5      48.288
2014    9       28    22  56    4.64   523.9    3.5      48.263
2014    9       28    23   2    4.64   523.7    3.5      48.239
2014    9       28    23   7    4.64   523.6    3.5      48.215
2014    9       28    23  13    4.64   523.4    3.5      48.190
2014    9       28    23  18    4.64   523.2    3.5      48.166
2014    9       28    23  23    4.64   523.0    3.5      48.141
2014    9       28    23  29    4.64   522.9    3.5      48.117
2014    9       28    23  34    4.64   522.7    3.5      48.092
2014    9       28    23  39    4.64   522.5    3.5      48.067
2014    9       28    23  45    4.63   522.4    3.5      48.043
2014    9       28    23  50    4.63   522.2    3.5      48.018
2014    9       28    23  56    4.63   522.0    3.5      47.993
2014    9       29     0   1    4.63   521.8    3.5      47.969
2014    9       29     0   6    4.63   521.7    3.5      47.945
2014    9       29     0  12    4.63   521.5    3.6      47.921
2014    9       29     0  17    4.63   521.3    3.6      47.898
2014    9       29     0  23    4.63   521.1    3.6      47.875
2014    9       29     0  28    4.63   521.0    3.6      47.852
2014    9       29     0  33    4.63   520.8    3.6      47.830
2014    9       29     0  39    4.62   520.6    3.6      47.808
2014    9       29     0  44    4.62   520.4    3.6      47.787
2014    9       29     0  49    4.62   520.3    3.6      47.767
2014    9       29     0  55    4.62   520.1    3.6      47.747
2014    9       29     1   0    4.62   519.9    3.6      47.728
2014    9       29     1   6    4.62   519.7    3.6      47.709
2014    9       29     1  11    4.62   519.6    3.6      47.690
2014    9       29     1  16    4.62   519.4    3.6      47.671
2014    9       29     1  22    4.62   519.2    3.6      47.652
2014    9       29     1  27    4.62   519.0    3.6      47.633
2014    9       29     1  32    4.62   518.9    3.6      47.614
2014    9       29     1  38    4.61   518.7    3.6      47.594
2014    9       29     1  43    4.61   518.5    3.6      47.575
2014    9       29     1  49    4.61   518.4    3.6      47.555
2014    9       29     1  54    4.61   518.2    3.6      47.535
2014    9       29     1  59    4.61   518.0    3.6      47.514
2014    9       29     2   5    4.61   517.9    3.6      47.493
2014    9       29     2  10    4.61   517.7    3.6      47.472
2014    9       29     2  15    4.61   517.5    3.6      47.451
2014    9       29     2  21    4.61   517.3    3.6      47.429
2014    9       29     2  26    4.61   517.2    3.6      47.407
2014    9       29     2  32    4.61   517.0    3.6      47.385
2014    9       29     2  37    4.60   516.8    3.6      47.362
2014    9       29     2  42    4.60   516.6    3.6      47.339
2014    9       29     2  48    4.60   516.5    3.6      47.316
2014    9       29     2  53    4.60   516.3    3.6      47.293
2014    9       29     2  59    4.60   516.1    3.6      47.270
2014    9       29     3   4    4.60   516.0    3.6      47.246
2014    9       29     3   9    4.60   515.8    3.6      47.222
2014    9       29     3  15    4.60   515.6    3.6      47.198
2014    9       29     3  20    4.60   515.4    3.6      47.174
2014    9       29     3  25    4.60   515.3    3.6      47.150
2014    9       29     3  31    4.59   515.1    3.6      47.126
2014    9       29     3  36    4.59   514.9    3.6      47.101
2014    9       29     3  42    4.59   514.8    3.6      47.077
2014    9       29     3  47    4.59   514.6    3.6      47.051
2014    9       29     3  52    4.59   514.4    3.6      47.026
2014    9       29     3  58    4.59   514.3    3.6      47.001
2014    9       29     4   3    4.59   514.1    3.6      46.974
2014    9       29     4   8    4.59   513.9    3.6      46.948
2014    9       29     4  14    4.59   513.8    3.6      46.922
2014    9       29     4  19    4.59   513.6    3.6      46.895
2014    9       29     4  25    4.59   513.4    3.6      46.868
2014    9       29     4  30    4.58   513.2    3.6      46.840
2014    9       29     4  35    4.58   513.1    3.6      46.813
2014    9       29     4  41    4.58   512.9    3.6      46.785
2014    9       29     4  46    4.58   512.7    3.6      46.757
2014    9       29     4  52    4.58   512.6    3.6      46.728
2014    9       29     4  57    4.58   512.4    3.6      46.700
2014    9       29     5   2    4.58   512.2    3.6      46.671
2014    9       29     5   8    4.58   512.0    3.6      46.643
2014    9       29     5  13    4.58   511.9    3.6      46.614
2014    9       29     5  19    4.57   511.7    3.6      46.585
2014    9       29     5  24    4.57   511.5    3.6      46.556
2014    9       29     5  29    4.57   511.3    3.6      46.528
2014    9       29     5  35    4.57   511.2    3.6      46.499
2014    9       29     5  40    4.57   511.0    3.6      46.471
2014    9       29     5  45    4.57   510.8    3.6      46.442
2014    9       29     5  51    4.57   510.7    3.6      46.414
2014    9       29     5  56    4.57   510.5    3.6      46.386
2014    9       29     6   2    4.57   510.3    3.6      46.358
2014    9       29     6   7    4.57   510.1    3.6      46.331
2014    9       29     6  12    4.56   510.0    3.6      46.303
2014    9       29     6  18    4.56   509.8    3.6      46.276
2014    9       29     6  23    4.56   509.6    3.6      46.249
2014    9       29     6  29    4.56   509.4    3.6      46.222
2014    9       29     6  34    4.56   509.3    3.6      46.196
2014    9       29     6  39    4.56   509.1    3.6      46.169
2014    9       29     6  45    4.56   508.9    3.6      46.142
2014    9       29     6  50    4.56   508.7    3.6      46.116
2014    9       29     6  55    4.56   508.6    3.6      46.089
2014    9       29     7   1    4.56   508.4    3.6      46.063
2014    9       29     7   6    4.55   508.2    3.6      46.036
2014    9       29     7  12    4.55   508.0    3.6      46.010
2014    9       29     7  17    4.55   507.9    3.6      45.983
2014    9       29     7  22    4.55   507.7    3.6      45.957
2014    9       29     7  28    4.55   507.5    3.6      45.930
2014    9       29     7  33    4.55   507.3    3.6      45.904
2014    9       29     7  39    4.55   507.2    3.6      45.877
2014    9       29     7  44    4.55   507.0    3.6      45.850
2014    9       29     7  49    4.55   506.8    3.7      45.823
2014    9       29     7  55    4.55   506.6    3.7      45.797
2014    9       29     8   0    4.54   506.4    3.7      45.770
2014    9       29     8   5    4.54   506.3    3.7      45.743
2014    9       29     8  11    4.54   506.1    3.7      45.716
2014    9       29     8  16    4.54   505.9    3.7      45.689
2014    9       29     8  22    4.54   505.7    3.7      45.663
2014    9       29     8  27    4.54   505.6    3.7      45.636
2014    9       29     8  32    4.54   505.4    3.7      45.609
2014    9       29     8  38    4.54   505.2    3.7      45.582
2014    9       29     8  43    4.54   505.0    3.7      45.556
2014    9       29     8  49    4.54   504.8    3.7      45.529
2014    9       29     8  54    4.53   504.7    3.7      45.503
2014    9       29     8  59    4.53   504.5    3.7      45.477
2014    9       29     9   5    4.53   504.3    3.7      45.450
2014    9       29     9  10    4.53   504.1    3.7      45.424
2014    9       29     9  15    4.53   504.0    3.7      45.398
2014    9       29     9  21    4.53   503.8    3.7      45.371
2014    9       29     9  26    4.53   503.6    3.7      45.345
2014    9       29     9  32    4.53   503.4    3.7      45.318
2014    9       29     9  37    4.53   503.3    3.7      45.292
2014    9       29     9  42    4.53   503.1    3.7      45.265
2014    9       29     9  48    4.52   502.9    3.7      45.238
2014    9       29     9  53    4.52   502.7    3.7      45.211
2014    9       29     9  58    4.52   502.6    3.7      45.184
2014    9       29    10   4    4.52   502.4    3.7      45.157
2014    9       29    10   9    4.52   502.2    3.7      45.129
2014    9       29    10  15    4.52   502.0    3.7      45.102
2014    9       29    10  20    4.52   501.9    3.7      45.074
2014    9       29    10  25    4.52   501.7    3.7      45.046
2014    9       29    10  31    4.52   501.5    3.7      45.018
2014    9       29    10  36    4.51   501.3    3.7      44.989
2014    9       29    10  41    4.51   501.2    3.7      44.961
2014    9       29    10  47    4.51   501.0    3.7      44.932
2014    9       29    10  52    4.51   500.8    3.7      44.904
2014    9       29    10  58    4.51   500.6    3.7      44.874
2014    9       29    11   3    4.51   500.5    3.7      44.845
2014    9       29    11   8    4.51   500.3    3.7      44.816
2014    9       29    11  14    4.51   500.1    3.7      44.787
2014    9       29    11  19    4.51   499.9    3.7      44.757
2014    9       29    11  25    4.50   499.8    3.7      44.727
2014    9       29    11  30    4.50   499.6    3.7      44.698
2014    9       29    11  35    4.50   499.4    3.7      44.668
2014    9       29    11  41    4.50   499.2    3.7      44.638
2014    9       29    11  46    4.50   499.0    3.7      44.608
2014    9       29    11  51    4.50   498.9    3.7      44.578
2014    9       29    11  57    4.50   498.7    3.7      44.548
2014    9       29    12   2    4.50   498.5    3.7      44.518
2014    9       29    12   8    4.50   498.3    3.7      44.488
2014    9       29    12  13    4.50   498.1    3.7      44.458
2014    9       29    12  18    4.49   498.0    3.7      44.428
2014    9       29    12  24    4.49   497.8    3.7      44.398
2014    9       29    12  29    4.49   497.6    3.7      44.367
2014    9       29    12  35    4.49   497.4    3.7      44.337
2014    9       29    12  40    4.49   497.2    3.7      44.307
2014    9       29    12  45    4.49   497.1    3.7      44.277
2014    9       29    12  51    4.49   496.9    3.7      44.247
2014    9       29    12  56    4.49   496.7    3.7      44.217
2014    9       29    13   1    4.49   496.5    3.7      44.187
2014    9       29    13   7    4.49   496.3    3.7      44.157
2014    9       29    13  12    4.48   496.1    3.7      44.127
2014    9       29    13  18    4.48   496.0    3.7      44.097
2014    9       29    13  23    4.48   495.8    3.7      44.067
2014    9       29    13  28    4.48   495.6    3.7      44.037
2014    9       29    13  34    4.48   495.4    3.7      44.007
2014    9       29    13  39    4.48   495.2    3.7      43.977
2014    9       29    13  45    4.48   495.0    3.7      43.946
2014    9       29    13  50    4.48   494.9    3.7      43.916
2014    9       29    13  55    4.48   494.7    3.7      43.886
2014    9       29    14   1    4.48   494.5    3.7      43.856
2014    9       29    14   6    4.47   494.3    3.7      43.826
2014    9       29    14  12    4.47   494.1    3.7      43.796
2014    9       29    14  17    4.47   493.9    3.7      43.766
2014    9       29    14  22    4.47   493.7    3.7      43.736
2014    9       29    14  28    4.47   493.6    3.7      43.706
2014    9       29    14  33    4.47   493.4    3.7      43.676
2014    9       29    14  38    4.47   493.2    3.7      43.646
2014    9       29    14  44    4.47   493.0    3.8      43.616
2014    9       29    14  49    4.47   492.8    3.8      43.586
2014    9       29    14  55    4.47   492.6    3.8      43.556
2014    9       29    15   0    4.46   492.4    3.8      43.526
2014    9       29    15   5    4.46   492.2    3.8      43.496
2014    9       29    15  11    4.46   492.1    3.8      43.466
2014    9       29    15  16    4.46   491.9    3.8      43.436
2014    9       29    15  22    4.46   491.7    3.8      43.406
2014    9       29    15  27    4.46   491.5    3.8      43.376
2014    9       29    15  32    4.46   491.3    3.8      43.346
2014    9       29    15  38    4.46   491.1    3.8      43.316
2014    9       29    15  43    4.46   490.9    3.8      43.286
2014    9       29    15  48    4.46   490.8    3.8      43.256
2014    9       29    15  54    4.45   490.6    3.8      43.225
2014    9       29    15  59    4.45   490.4    3.8      43.195
2014    9       29    16   5    4.45   490.2    3.8      43.165
2014    9       29    16  10    4.45   490.0    3.8      43.135
2014    9       29    16  15    4.45   489.8    3.8      43.105
2014    9       29    16  21    4.45   489.6    3.8      43.074
2014    9       29    16  26    4.45   489.5    3.8      43.044
2014    9       29    16  31    4.45   489.3    3.8      43.014
2014    9       29    16  37    4.45   489.1    3.8      42.983
2014    9       29    16  42    4.45   488.9    3.8      42.953
2014    9       29    16  48    4.44   488.7    3.8      42.922
2014    9       29    16  53    4.44   488.5    3.8      42.892
2014    9       29    16  58    4.44   488.3    3.8      42.861
2014    9       29    17   4    4.44   488.2    3.8      42.831
2014    9       29    17   9    4.44   488.0    3.8      42.800
2014    9       29    17  14    4.44   487.8    3.8      42.769
2014    9       29    17  20    4.44   487.6    3.8      42.739
2014    9       29    17  25    4.44   487.4    3.8      42.708
2014    9       29    17  31    4.44   487.2    3.8      42.677
2014    9       29    17  36    4.44   487.0    3.8      42.646
2014    9       29    17  41    4.43   486.8    3.8      42.615
2014    9       29    17  47    4.43   486.7    3.8      42.584
2014    9       29    17  52    4.43   486.5    3.8      42.554
2014    9       29    17  57    4.43   486.3    3.8      42.523
2014    9       29    18   3    4.43   486.1    3.8      42.492
2014    9       29    18   8    4.43   485.9    3.8      42.461
2014    9       29    18  14    4.43   485.7    3.8      42.430
2014    9       29    18  19    4.43   485.5    3.8      42.399
2014    9       29    18  24    4.43   485.3    3.8      42.368
2014    9       29    18  30    4.43   485.2    3.8      42.337
2014    9       29    18  35    4.42   485.0    3.8      42.306
2014    9       29    18  41    4.42   484.8    3.8      42.275
2014    9       29    18  46    4.42   484.6    3.8      42.244
2014    9       29    18  51    4.42   484.4    3.8      42.213
2014    9       29    18  57    4.42   484.2    3.8      42.181
2014    9       29    19   2    4.42   484.0    3.8      42.150
2014    9       29    19   7    4.42   483.8    3.8      42.119
2014    9       29    19  13    4.42   483.6    3.8      42.088
2014    9       29    19  18    4.42   483.5    3.8      42.056
2014    9       29    19  24    4.41   483.3    3.8      42.025
2014    9       29    19  29    4.41   483.1    3.8      41.994
2014    9       29    19  34    4.41   482.9    3.8      41.962
2014    9       29    19  40    4.41   482.7    3.8      41.931
2014    9       29    19  45    4.41   482.5    3.8      41.899
2014    9       29    19  51    4.41   482.3    3.8      41.867
2014    9       29    19  56    4.41   482.1    3.8      41.835
2014    9       29    20   1    4.41   481.9    3.8      41.803
2014    9       29    20   7    4.41   481.8    3.8      41.771
2014    9       29    20  12    4.41   481.6    3.8      41.739
2014    9       29    20  17    4.40   481.4    3.9      41.707
2014    9       29    20  23    4.40   481.2    3.9      41.675
2014    9       29    20  28    4.40   481.0    3.9      41.642
2014    9       29    20  34    4.40   480.8    3.9      41.610
2014    9       29    20  39    4.40   480.6    3.9      41.577
2014    9       29    20  44    4.40   480.4    3.9      41.545
2014    9       29    20  50    4.40   480.2    3.9      41.512
2014    9       29    20  55    4.40   480.0    3.9      41.479
2014    9       29    21   1    4.40   479.8    3.9      41.446
2014    9       29    21   6    4.39   479.6    3.9      41.413
2014    9       29    21  11    4.39   479.5    3.9      41.380
2014    9       29    21  17    4.39   479.3    3.9      41.347
2014    9       29    21  22    4.39   479.1    3.9      41.314
2014    9       29    21  27    4.39   478.9    3.9      41.281
2014    9       29    21  33    4.39   478.7    3.9      41.248
2014    9       29    21  38    4.39   478.5    3.9      41.214
2014    9       29    21  44    4.39   478.3    3.9      41.181
2014    9       29    21  49    4.39   478.1    3.9      41.148
2014    9       29    21  54    4.39   477.9    3.9      41.114
2014    9       29    22   0    4.38   477.7    3.9      41.081
2014    9       29    22   5    4.38   477.5    3.9      41.048
2014    9       29    22  11    4.38   477.3    3.9      41.014
2014    9       29    22  16    4.38   477.1    3.9      40.981
2014    9       29    22  21    4.38   476.9    3.9      40.948
2014    9       29    22  27    4.38   476.7    3.9      40.915
2014    9       29    22  32    4.38   476.5    3.9      40.881
2014    9       29    22  37    4.38   476.4    3.9      40.848
2014    9       29    22  43    4.38   476.2    3.9      40.815
2014    9       29    22  48    4.38   476.0    3.9      40.782
2014    9       29    22  54    4.37   475.8    3.9      40.748
2014    9       29    22  59    4.37   475.6    3.9      40.715
2014    9       29    23   4    4.37   475.4    3.9      40.682
2014    9       29    23  10    4.37   475.2    3.9      40.649
2014    9       29    23  15    4.37   475.0    3.9      40.616
2014    9       29    23  21    4.37   474.8    3.9      40.583
2014    9       29    23  26    4.37   474.6    3.9      40.550
2014    9       29    23  31    4.37   474.4    3.9      40.517
2014    9       29    23  37    4.37   474.2    3.9      40.484
2014    9       29    23  42    4.37   474.0    3.9      40.451
2014    9       29    23  47    4.37   473.8    3.9      40.418
2014    9       29    23  53    4.36   473.6    3.9      40.385
2014    9       29    23  58    4.36   473.4    3.9      40.352
2014    9       30     0   4    4.36   473.2    3.9      40.319
2014    9       30     0   9    4.36   473.0    3.9      40.286
2014    9       30     0  14    4.36   472.8    3.9      40.252
2014    9       30     0  20    4.36   472.6    3.9      40.219
2014    9       30     0  25    4.36   472.4    3.9      40.186
2014    9       30     0  30    4.36   472.2    3.9      40.153
2014    9       30     0  36    4.36   472.0    3.9      40.120
2014    9       30     0  41    4.36   471.8    3.9      40.087
2014    9       30     0  47    4.35   471.6    3.9      40.054
2014    9       30     0  52    4.35   471.4    3.9      40.021
2014    9       30     0  57    4.35   471.2    3.9      39.988
2014    9       30     1   3    4.35   471.0    3.9      39.955
2014    9       30     1   8    4.35   470.8    3.9      39.922
2014    9       30     1  13    4.35   470.6    4.0      39.889
2014    9       30     1  19    4.35   470.4    4.0      39.856
2014    9       30     1  24    4.35   470.2    4.0      39.823
2014    9       30     1  30    4.35   470.0    4.0      39.790
2014    9       30     1  35    4.35   469.8    4.0      39.757
2014    9       30     1  40    4.34   469.6    4.0      39.724
2014    9       30     1  46    4.34   469.4    4.0      39.691
2014    9       30     1  51    4.34   469.2    4.0      39.658
2014    9       30     1  56    4.34   469.0    4.0      39.625
2014    9       30     2   2    4.34   468.8    4.0      39.592
2014    9       30     2   7    4.34   468.6    4.0      39.559
2014    9       30     2  13    4.34   468.4    4.0      39.526
2014    9       30     2  18    4.34   468.2    4.0      39.494
2014    9       30     2  23    4.34   468.0    4.0      39.461
2014    9       30     2  29    4.34   467.8    4.0      39.428
2014    9       30     2  34    4.34   467.6    4.0      39.395
2014    9       30     2  40    4.33   467.4    4.0      39.362
2014    9       30     2  45    4.33   467.2    4.0      39.329
2014    9       30     2  50    4.33   467.0    4.0      39.296
2014    9       30     2  56    4.33   466.8    4.0      39.263
2014    9       30     3   1    4.33   466.6    4.0      39.230
2014    9       30     3   7    4.33   466.4    4.0      39.196
2014    9       30     3  12    4.33   466.2    4.0      39.163
2014    9       30     3  17    4.33   466.0    4.0      39.130
2014    9       30     3  23    4.33   465.8    4.0      39.096
2014    9       30     3  28    4.33   465.6    4.0      39.063
2014    9       30     3  33    4.33   465.4    4.0      39.029
2014    9       30     3  39    4.32   465.2    4.0      38.996
2014    9       30     3  44    4.32   465.0    4.0      38.962
2014    9       30     3  50    4.32   464.8    4.0      38.928
2014    9       30     3  55    4.32   464.6    4.0      38.895
2014    9       30     4   0    4.32   464.4    4.0      38.861
2014    9       30     4   6    4.32   464.2    4.0      38.827
2014    9       30     4  11    4.32   464.0    4.0      38.792
2014    9       30     4  17    4.32   463.8    4.0      38.758
2014    9       30     4  22    4.32   463.6    4.0      38.724
2014    9       30     4  27    4.32   463.4    4.0      38.690
2014    9       30     4  33    4.32   463.2    4.0      38.655
2014    9       30     4  38    4.31   463.0    4.0      38.620
2014    9       30     4  43    4.31   462.8    4.0      38.586
2014    9       30     4  49    4.31   462.6    4.0      38.551
2014    9       30     4  54    4.31   462.4    4.0      38.517
2014    9       30     5   0    4.31   462.2    4.0      38.482
2014    9       30     5   5    4.31   462.0    4.1      38.447
2014    9       30     5  10    4.31   461.7    4.1      38.412
2014    9       30     5  16    4.31   461.5    4.1      38.377
2014    9       30     5  21    4.31   461.3    4.1      38.342
2014    9       30     5  27    4.31   461.1    4.1      38.307
2014    9       30     5  32    4.31   460.9    4.1      38.272
2014    9       30     5  37    4.30   460.7    4.1      38.237
2014    9       30     5  43    4.30   460.5    4.1      38.202
2014    9       30     5  48    4.30   460.3    4.1      38.167
2014    9       30     5  53    4.30   460.1    4.1      38.132
2014    9       30     5  59    4.30   459.9    4.1      38.097
2014    9       30     6   4    4.30   459.7    4.1      38.063
2014    9       30     6  10    4.30   459.5    4.1      38.028
2014    9       30     6  15    4.30   459.3    4.1      37.993
2014    9       30     6  20    4.30   459.1    4.1      37.958
2014    9       30     6  26    4.30   458.9    4.1      37.923
2014    9       30     6  31    4.30   458.7    4.1      37.889
2014    9       30     6  36    4.29   458.4    4.1      37.854
2014    9       30     6  42    4.29   458.2    4.1      37.819
2014    9       30     6  47    4.29   458.0    4.1      37.785
2014    9       30     6  53    4.29   457.8    4.1      37.750
2014    9       30     6  58    4.29   457.6    4.1      37.716
2014    9       30     7   3    4.29   457.4    4.1      37.681
2014    9       30     7   9    4.29   457.2    4.1      37.647
2014    9       30     7  14    4.29   457.0    4.1      37.612
2014    9       30     7  19    4.29   456.8    4.1      37.578
2014    9       30     7  25    4.29   456.6    4.1      37.543
2014    9       30     7  30    4.29   456.4    4.1      37.509
2014    9       30     7  36    4.29   456.2    4.1      37.475
2014    9       30     7  41    4.28   456.0    4.1      37.441
2014    9       30     7  46    4.28   455.7    4.1      37.406
2014    9       30     7  52    4.28   455.5    4.1      37.372
2014    9       30     7  57    4.28   455.3    4.1      37.338
2014    9       30     8   3    4.28   455.1    4.1      37.304
2014    9       30     8   8    4.28   454.9    4.1      37.269
2014    9       30     8  13    4.28   454.7    4.1      37.235
2014    9       30     8  19    4.28   454.5    4.1      37.201
2014    9       30     8  24    4.28   454.3    4.1      37.167
2014    9       30     8  29    4.28   454.1    4.1      37.133
2014    9       30     8  35    4.28   453.9    4.1      37.098
2014    9       30     8  40    4.28   453.6    4.1      37.064
2014    9       30     8  46    4.28   453.4    4.2      37.030
2014    9       30     8  51    4.27   453.2    4.2      36.996
2014    9       30     8  56    4.27   453.0    4.2      36.962
2014    9       30     9   2    4.27   452.8    4.2      36.927
2014    9       30     9   7    4.27   452.6    4.2      36.893
2014    9       30     9  12    4.27   452.4    4.2      36.859
2014    9       30     9  18    4.27   452.2    4.2      36.825
2014    9       30     9  23    4.27   452.0    4.2      36.790
2014    9       30     9  29    4.27   451.8    4.2      36.756
2014    9       30     9  34    4.27   451.5    4.2      36.722
2014    9       30     9  39    4.27   451.3    4.2      36.688
2014    9       30     9  45    4.27   451.1    4.2      36.653
2014    9       30     9  50    4.27   450.9    4.2      36.619
2014    9       30     9  56    4.27   450.7    4.2      36.584
2014    9       30    10   1    4.27   450.5    4.2      36.550
2014    9       30    10   6    4.26   450.3    4.2      36.516
2014    9       30    10  12    4.26   450.1    4.2      36.481
2014    9       30    10  17    4.26   449.9    4.2      36.447
2014    9       30    10  22    4.26   449.7    4.2      36.412
2014    9       30    10  28    4.26   449.4    4.2      36.378
2014    9       30    10  33    4.26   449.2    4.2      36.343
2014    9       30    10  39    4.26   449.0    4.2      36.309
2014    9       30    10  44    4.26   448.8    4.2      36.274
2014    9       30    10  49    4.26   448.6    4.2      36.239
2014    9       30    10  55    4.26   448.4    4.2      36.205
2014    9       30    11   0    4.26   448.2    4.2      36.170
2014    9       30    11   6    4.26   448.0    4.2      36.135
2014    9       30    11  11    4.26   447.8    4.2      36.100
2014    9       30    11  16    4.26   447.5    4.2      36.065
2014    9       30    11  22    4.26   447.3    4.2      36.031
2014    9       30    11  27    4.25   447.1    4.2      35.995
2014    9       30    11  33    4.25   446.9    4.2      35.961
2014    9       30    11  38    4.25   446.7    4.3      35.925
2014    9       30    11  43    4.25   446.5    4.3      35.890
2014    9       30    11  49    4.25   446.3    4.3      35.855
2014    9       30    11  54    4.25   446.1    4.3      35.820
2014    9       30    11  59    4.25   445.9    4.3      35.785
2014    9       30    12   5    4.25   445.6    4.3      35.750
2014    9       30    12  10    4.25   445.4    4.3      35.715
2014    9       30    12  16    4.25   445.2    4.3      35.679
2014    9       30    12  21    4.25   445.0    4.3      35.644
2014    9       30    12  26    4.25   444.8    4.3      35.609
2014    9       30    12  32    4.25   444.6    4.3      35.573
2014    9       30    12  37    4.25   444.4    4.3      35.538
2014    9       30    12  43    4.25   444.1    4.3      35.503
2014    9       30    12  48    4.24   443.9    4.3      35.467
2014    9       30    12  53    4.24   443.7    4.3      35.432
2014    9       30    12  59    4.24   443.5    4.3      35.397
2014    9       30    13   4    4.24   443.3    4.3      35.362
2014    9       30    13   9    4.24   443.1    4.3      35.326
2014    9       30    13  15    4.24   442.9    4.3      35.291
2014    9       30    13  20    4.24   442.6    4.3      35.256
2014    9       30    13  26    4.24   442.4    4.3      35.221
2014    9       30    13  31    4.24   442.2    4.3      35.186
2014    9       30    13  36    4.24   442.0    4.3      35.151
2014    9       30    13  42    4.24   441.8    4.3      35.116
2014    9       30    13  47    4.24   441.6    4.3      35.081
2014    9       30    13  52    4.24   441.3    4.3      35.046
2014    9       30    13  58    4.24   441.1    4.3      35.011
2014    9       30    14   3    4.24   440.9    4.3      34.976
2014    9       30    14   9    4.24   440.7    4.3      34.942
2014    9       30    14  14    4.24   440.5    4.3      34.907
2014    9       30    14  19    4.23   440.3    4.3      34.872
2014    9       30    14  25    4.23   440.0    4.3      34.838
2014    9       30    14  30    4.23   439.8    4.4      34.804
2014    9       30    14  35    4.23   439.6    4.4      34.769
2014    9       30    14  41    4.23   439.4    4.4      34.735
2014    9       30    14  46    4.23   439.2    4.4      34.701
2014    9       30    14  52    4.23   439.0    4.4      34.667
2014    9       30    14  57    4.23   438.7    4.4      34.633
2014    9       30    15   2    4.23   438.5    4.4      34.599
2014    9       30    15   8    4.23   438.3    4.4      34.565
2014    9       30    15  13    4.23   438.1    4.4      34.531
2014    9       30    15  18    4.23   437.9    4.4      34.497
2014    9       30    15  24    4.23   437.7    4.4      34.463
2014    9       30    15  29    4.23   437.4    4.4      34.429
2014    9       30    15  35    4.23   437.2    4.4      34.396
2014    9       30    15  40    4.23   437.0    4.4      34.362
2014    9       30    15  45    4.23   436.8    4.4      34.328
2014    9       30    15  51    4.23   436.6    4.4      34.295
2014    9       30    15  56    4.23   436.3    4.4      34.261
2014    9       30    16   2    4.23   436.1    4.4      34.228
2014    9       30    16   7    4.23   435.9    4.4      34.194
2014    9       30    16  12    4.23   435.7    4.4      34.161
2014    9       30    16  18    4.22   435.5    4.4      34.128
2014    9       30    16  23    4.22   435.3    4.4      34.094
2014    9       30    16  28    4.22   435.0    4.4      34.061
2014    9       30    16  34    4.22   434.8    4.4      34.028
2014    9       30    16  39    4.22   434.6    4.4      33.994
2014    9       30    16  45    4.22   434.4    4.4      33.961
2014    9       30    16  50    4.22   434.2    4.4      33.928
2014    9       30    16  55    4.22   434.0    4.5      33.894
2014    9       30    17   1    4.22   433.7    4.5      33.861
2014    9       30    17   6    4.22   433.5    4.5      33.828
2014    9       30    17  12    4.22   433.3    4.5      33.794
2014    9       30    17  17    4.22   433.1    4.5      33.761
2014    9       30    17  22    4.22   432.9    4.5      33.728
2014    9       30    17  28    4.22   432.6    4.5      33.694
2014    9       30    17  33    4.22   432.4    4.5      33.661
2014    9       30    17  38    4.22   432.2    4.5      33.628
2014    9       30    17  44    4.22   432.0    4.5      33.594
2014    9       30    17  49    4.22   431.8    4.5      33.561
2014    9       30    17  55    4.22   431.6    4.5      33.528
2014    9       30    18   0    4.22   431.3    4.5      33.494
2014    9       30    18   5    4.22   431.1    4.5      33.461
2014    9       30    18  11    4.22   430.9    4.5      33.428
2014    9       30    18  16    4.22   430.7    4.5      33.394
2014    9       30    18  22    4.22   430.5    4.5      33.361
2014    9       30    18  27    4.22   430.2    4.5      33.327
2014    9       30    18  32    4.22   430.0    4.5      33.294
2014    9       30    18  38    4.22   429.8    4.5      33.261
2014    9       30    18  43    4.22   429.6    4.5      33.227
2014    9       30    18  48    4.22   429.4    4.5      33.194
2014    9       30    18  54    4.22   429.1    4.5      33.160
2014    9       30    18  59    4.22   428.9    4.5      33.127
2014    9       30    19   5    4.22   428.7    4.5      33.093
2014    9       30    19  10    4.22   428.5    4.6      33.060
2014    9       30    19  15    4.22   428.3    4.6      33.026
2014    9       30    19  21    4.22   428.1    4.6      32.993
2014    9       30    19  26    4.22   427.8    4.6      32.960
2014    9       30    19  32    4.22   427.6    4.6      32.926
2014    9       30    19  37    4.21   427.4    4.6      32.893
2014    9       30    19  42    4.21   427.2    4.6      32.860
2014    9       30    19  48    4.21   426.9    4.6      32.826
2014    9       30    19  53    4.21   426.7    4.6      32.793
2014    9       30    19  58    4.21   426.5    4.6      32.760
2014    9       30    20   4    4.21   426.3    4.6      32.726
2014    9       30    20   9    4.21   426.1    4.6      32.693
2014    9       30    20  15    4.21   425.8    4.6      32.660
2014    9       30    20  20    4.21   425.6    4.6      32.627
2014    9       30    20  25    4.21   425.4    4.6      32.594
2014    9       30    20  31    4.21   425.2    4.6      32.561
2014    9       30    20  36    4.21   425.0    4.6      32.528
2014    9       30    20  42    4.21   424.7    4.6      32.495
2014    9       30    20  47    4.21   424.5    4.6      32.462
2014    9       30    20  52    4.21   424.3    4.6      32.429
2014    9       30    20  58    4.21   424.1    4.6      32.396
2014    9       30    21   3    4.21   423.9    4.6      32.363
2014    9       30    21   8    4.21   423.6    4.6      32.331
2014    9       30    21  14    4.21   423.4    4.6      32.298
2014    9       30    21  19    4.21   423.2    4.7      32.266
2014    9       30    21  25    4.21   423.0    4.7      32.233
2014    9       30    21  30    4.21   422.8    4.7      32.201
2014    9       30    21  35    4.21   422.5    4.7      32.168
2014    9       30    21  41    4.21   422.3    4.7      32.136
2014    9       30    21  46    4.21   422.1    4.7      32.104
2014    9       30    21  51    4.21   421.9    4.7      32.072
2014    9       30    21  57    4.21   421.7    4.7      32.039
2014    9       30    22   2    4.21   421.4    4.7      32.007
2014    9       30    22   8    4.21   421.2    4.7      31.975
2014    9       30    22  13    4.21   421.0    4.7      31.944
2014    9       30    22  18    4.21   420.8    4.7      31.912
2014    9       30    22  24    4.21   420.6    4.7      31.880
2014    9       30    22  29    4.21   420.3    4.7      31.848
2014    9       30    22  34    4.21   420.1    4.7      31.816
2014    9       30    22  40    4.21   419.9    4.7      31.785
2014    9       30    22  45    4.21   419.7    4.7      31.753
2014    9       30    22  51    4.21   419.4    4.7      31.722
2014    9       30    22  56    4.21   419.2    4.7      31.690
2014    9       30    23   1    4.21   419.0    4.7      31.659
2014    9       30    23   7    4.22   418.8    4.7      31.628
2014    9       30    23  12    4.22   418.6    4.8      31.596
2014    9       30    23  17    4.22   418.3    4.8      31.565
2014    9       30    23  23    4.22   418.1    4.8      31.534
2014    9       30    23  28    4.22   417.9    4.8      31.503
2014    9       30    23  34    4.22   417.7    4.8      31.472
2014    9       30    23  39    4.22   417.5    4.8      31.441
2014    9       30    23  44    4.22   417.2    4.8      31.410
2014    9       30    23  50    4.22   417.0    4.8      31.379
2014    9       30    23  55    4.22   416.8    4.8      31.348
2014   10        1     0   1    4.22   416.6    4.8      31.317
2014   10        1     0   6    4.22   416.4    4.8      31.287
2014   10        1     0  11    4.22   416.1    4.8      31.256
2014   10        1     0  17    4.22   415.9    4.8      31.225
2014   10        1     0  22    4.22   415.7    4.8      31.195
2014   10        1     0  27    4.22   415.5    4.8      31.164
2014   10        1     0  33    4.22   415.3    4.8      31.134
2014   10        1     0  38    4.22   415.0    4.8      31.103
2014   10        1     0  44    4.22   414.8    4.8      31.073
2014   10        1     0  49    4.22   414.6    4.8      31.043
2014   10        1     0  54    4.22   414.4    4.8      31.012
2014   10        1     1   0    4.22   414.1    4.9      30.982
2014   10        1     1   5    4.22   413.9    4.9      30.952
2014   10        1     1  11    4.22   413.7    4.9      30.922
2014   10        1     1  16    4.22   413.5    4.9      30.892
2014   10        1     1  21    4.22   413.3    4.9      30.862
2014   10        1     1  27    4.22   413.0    4.9      30.832
2014   10        1     1  32    4.22   412.8    4.9      30.802
2014   10        1     1  37    4.22   412.6    4.9      30.772
2014   10        1     1  43    4.22   412.4    4.9      30.743
2014   10        1     1  48    4.22   412.2    4.9      30.713
2014   10        1     1  54    4.23   411.9    4.9      30.683
2014   10        1     1  59    4.23   411.7    4.9      30.654
2014   10        1     2   4    4.23   411.5    4.9      30.625
2014   10        1     2  10    4.23   411.3    4.9      30.595
2014   10        1     2  15    4.23   411.1    4.9      30.566
2014   10        1     2  21    4.23   410.8    4.9      30.537
2014   10        1     2  26    4.23   410.6    4.9      30.508
2014   10        1     2  31    4.23   410.4    4.9      30.479
2014   10        1     2  37    4.23   410.2    4.9      30.450
2014   10        1     2  42    4.23   410.0    5.0      30.421
2014   10        1     2  47    4.23   409.7    5.0      30.392
2014   10        1     2  53    4.23   409.5    5.0      30.363
2014   10        1     2  58    4.23   409.3    5.0      30.335
2014   10        1     3   4    4.23   409.1    5.0      30.306
2014   10        1     3   9    4.23   408.9    5.0      30.278
2014   10        1     3  14    4.23   408.6    5.0      30.250
2014   10        1     3  20    4.23   408.4    5.0      30.222
2014   10        1     3  25    4.24   408.2    5.0      30.194
2014   10        1     3  31    4.24   408.0    5.0      30.166
2014   10        1     3  36    4.24   407.8    5.0      30.138
2014   10        1     3  41    4.24   407.5    5.0      30.110
2014   10        1     3  47    4.24   407.3    5.0      30.083
2014   10        1     3  52    4.24   407.1    5.0      30.055
2014   10        1     3  57    4.24   406.9    5.0      30.028
2014   10        1     4   3    4.24   406.7    5.0      30.001
2014   10        1     4   8    4.24   406.5    5.0      29.974
2014   10        1     4  14    4.24   406.2    5.0      29.947
2014   10        1     4  19    4.24   406.0    5.1      29.920
2014   10        1     4  24    4.24   405.8    5.1      29.893
2014   10        1     4  30    4.25   405.6    5.1      29.866
2014   10        1     4  35    4.25   405.4    5.1      29.840
2014   10        1     4  40    4.25   405.1    5.1      29.813
2014   10        1     4  46    4.25   404.9    5.1      29.787
2014   10        1     4  51    4.25   404.7    5.1      29.761
2014   10        1     4  57    4.25   404.5    5.1      29.735
2014   10        1     5   2    4.25   404.3    5.1      29.709
2014   10        1     5   7    4.25   404.1    5.1      29.683
2014   10        1     5  13    4.25   403.9    5.1      29.657
2014   10        1     5  18    4.25   403.6    5.1      29.632
2014   10        1     5  23    4.25   403.4    5.1      29.606
2014   10        1     5  29    4.26   403.2    5.1      29.581
2014   10        1     5  34    4.26   403.0    5.1      29.555
2014   10        1     5  40    4.26   402.8    5.1      29.530
2014   10        1     5  45    4.26   402.6    5.2      29.505
2014   10        1     5  50    4.26   402.3    5.2      29.480
2014   10        1     5  56    4.26   402.1    5.2      29.455
2014   10        1     6   1    4.26   401.9    5.2      29.430
2014   10        1     6   6    4.26   401.7    5.2      29.406
2014   10        1     6  12    4.26   401.5    5.2      29.381
2014   10        1     6  17    4.27   401.3    5.2      29.356
2014   10        1     6  23    4.27   401.1    5.2      29.332
2014   10        1     6  28    4.27   400.9    5.2      29.308
2014   10        1     6  33    4.27   400.6    5.2      29.283
2014   10        1     6  39    4.27   400.4    5.2      29.259
2014   10        1     6  44    4.27   400.2    5.2      29.235
2014   10        1     6  50    4.27   400.0    5.2      29.211
2014   10        1     6  55    4.27   399.8    5.2      29.187
2014   10        1     7   0    4.28   399.6    5.2      29.163
2014   10        1     7   6    4.28   399.4    5.2      29.139
2014   10        1     7  11    4.28   399.2    5.3      29.116
2014   10        1     7  16    4.28   399.0    5.3      29.092
2014   10        1     7  22    4.28   398.7    5.3      29.069
2014   10        1     7  27    4.28   398.5    5.3      29.045
2014   10        1     7  33    4.28   398.3    5.3      29.022
2014   10        1     7  38    4.28   398.1    5.3      28.999
2014   10        1     7  43    4.29   397.9    5.3      28.976
2014   10        1     7  49    4.29   397.7    5.3      28.953
2014   10        1     7  54    4.29   397.5    5.3      28.930
2014   10        1     8   0    4.29   397.3    5.3      28.907
2014   10        1     8   5    4.29   397.1    5.3      28.885
2014   10        1     8  10    4.29   396.9    5.3      28.863
2014   10        1     8  16    4.29   396.7    5.3      28.840
2014   10        1     8  21    4.30   396.5    5.3      28.818
2014   10        1     8  26    4.30   396.2    5.3      28.796
2014   10        1     8  32    4.30   396.0    5.4      28.774
2014   10        1     8  37    4.30   395.8    5.4      28.752
2014   10        1     8  43    4.30   395.6    5.4      28.731
2014   10        1     8  48    4.30   395.4    5.4      28.709
2014   10        1     8  53    4.31   395.2    5.4      28.688
2014   10        1     8  59    4.31   395.0    5.4      28.666
2014   10        1     9   4    4.31   394.8    5.4      28.645
2014   10        1     9  10    4.31   394.6    5.4      28.625
2014   10        1     9  15    4.31   394.4    5.4      28.604
2014   10        1     9  20    4.31   394.2    5.4      28.583
2014   10        1     9  26    4.32   394.0    5.4      28.563
2014   10        1     9  31    4.32   393.8    5.4      28.543
2014   10        1     9  36    4.32   393.6    5.4      28.522
2014   10        1     9  42    4.32   393.4    5.4      28.502
2014   10        1     9  47    4.32   393.2    5.5      28.483
2014   10        1     9  53    4.32   393.0    5.5      28.463
2014   10        1     9  58    4.33   392.8    5.5      28.444
2014   10        1    10   3    4.33   392.6    5.5      28.424
2014   10        1    10   9    4.33   392.4    5.5      28.405
2014   10        1    10  14    4.33   392.2    5.5      28.386
2014   10        1    10  20    4.33   392.0    5.5      28.367
2014   10        1    10  25    4.33   391.8    5.5      28.349
2014   10        1    10  30    4.34   391.6    5.5      28.331
2014   10        1    10  36    4.34   391.4    5.5      28.312
2014   10        1    10  41    4.34   391.2    5.5      28.294
2014   10        1    10  46    4.34   391.0    5.5      28.276
2014   10        1    10  52    4.34   390.8    5.5      28.259
2014   10        1    10  57    4.35   390.6    5.5      28.241
2014   10        1    11   3    4.35   390.4    5.6      28.224
2014   10        1    11   8    4.35   390.2    5.6      28.207
2014   10        1    11  13    4.35   390.0    5.6      28.190
2014   10        1    11  19    4.35   389.8    5.6      28.173
2014   10        1    11  24    4.36   389.6    5.6      28.157
2014   10        1    11  30    4.36   389.4    5.6      28.140
2014   10        1    11  35    4.36   389.2    5.6      28.124
2014   10        1    11  40    4.36   389.0    5.6      28.108
2014   10        1    11  46    4.37   388.8    5.6      28.092
2014   10        1    11  51    4.37   388.6    5.6      28.077
2014   10        1    11  56    4.37   388.4    5.6      28.061
2014   10        1    12   2    4.37   388.2    5.6      28.046
2014   10        1    12   7    4.37   388.0    5.6      28.031
2014   10        1    12  13    4.38   387.8    5.7      28.016
2014   10        1    12  18    4.38   387.7    5.7      28.002
2014   10        1    12  23    4.38   387.5    5.7      27.987
2014   10        1    12  29    4.38   387.3    5.7      27.973
2014   10        1    12  34    4.39   387.1    5.7      27.959
2014   10        1    12  39    4.39   386.9    5.7      27.945
2014   10        1    12  45    4.39   386.7    5.7      27.931
2014   10        1    12  50    4.39   386.5    5.7      27.917
2014   10        1    12  56    4.40   386.3    5.7      27.904
2014   10        1    13   1    4.40   386.1    5.7      27.890
2014   10        1    13   6    4.40   386.0    5.7      27.877
2014   10        1    13  12    4.40   385.8    5.7      27.864
2014   10        1    13  17    4.41   385.6    5.8      27.852
2014   10        1    13  22    4.41   385.4    5.8      27.839
2014   10        1    13  28    4.41   385.2    5.8      27.826
2014   10        1    13  33    4.41   385.0    5.8      27.814
2014   10        1    13  39    4.42   384.9    5.8      27.802
2014   10        1    13  44    4.42   384.7    5.8      27.790
2014   10        1    13  49    4.42   384.5    5.8      27.778
2014   10        1    13  55    4.42   384.3    5.8      27.766
2014   10        1    14   0    4.43   384.1    5.8      27.755
2014   10        1    14   5    4.43   383.9    5.8      27.743
2014   10        1    14  11    4.43   383.8    5.8      27.732
2014   10        1    14  16    4.43   383.6    5.8      27.721
2014   10        1    14  22    4.44   383.4    5.9      27.710
2014   10        1    14  27    4.44   383.2    5.9      27.699
2014   10        1    14  32    4.44   383.1    5.9      27.688
2014   10        1    14  38    4.44   382.9    5.9      27.677
2014   10        1    14  43    4.45   382.7    5.9      27.667
2014   10        1    14  49    4.45   382.5    5.9      27.657
2014   10        1    14  54    4.45   382.4    5.9      27.646
2014   10        1    14  59    4.46   382.2    5.9      27.636
2014   10        1    15   5    4.46   382.0    5.9      27.626
2014   10        1    15  10    4.46   381.8    5.9      27.616
2014   10        1    15  15    4.46   381.7    5.9      27.607
2014   10        1    15  21    4.47   381.5    5.9      27.597
2014   10        1    15  26    4.47   381.3    6.0      27.588
2014   10        1    15  32    4.47   381.2    6.0      27.578
2014   10        1    15  37    4.48   381.0    6.0      27.569
2014   10        1    15  42    4.48   380.8    6.0      27.560
2014   10        1    15  48    4.48   380.6    6.0      27.552
2014   10        1    15  53    4.48   380.5    6.0      27.543
2014   10        1    15  59    4.49   380.3    6.0      27.534
2014   10        1    16   4    4.49   380.1    6.0      27.526
2014   10        1    16   9    4.49   380.0    6.0      27.518
2014   10        1    16  15    4.50   379.8    6.0      27.510
2014   10        1    16  20    4.50   379.6    6.0      27.502
2014   10        1    16  25    4.50   379.5    6.0      27.494
2014   10        1    16  31    4.51   379.3    6.1      27.487
2014   10        1    16  36    4.51   379.2    6.1      27.479
2014   10        1    16  42    4.51   379.0    6.1      27.472
2014   10        1    16  47    4.51   378.8    6.1      27.465
2014   10        1    16  52    4.52   378.7    6.1      27.458
2014   10        1    16  58    4.52   378.5    6.1      27.452
2014   10        1    17   3    4.52   378.3    6.1      27.445
2014   10        1    17   9    4.53   378.2    6.1      27.439
2014   10        1    17  14    4.53   378.0    6.1      27.433
2014   10        1    17  19    4.53   377.9    6.1      27.427
2014   10        1    17  25    4.54   377.7    6.1      27.421
2014   10        1    17  30    4.54   377.5    6.1      27.416
2014   10        1    17  36    4.54   377.4    6.2      27.410
2014   10        1    17  41    4.55   377.2    6.2      27.405
2014   10        1    17  46    4.55   377.1    6.2      27.400
2014   10        1    17  52    4.55   376.9    6.2      27.396
2014   10        1    17  57    4.56   376.8    6.2      27.391
2014   10        1    18   2    4.56   376.6    6.2      27.387
2014   10        1    18   8    4.56   376.5    6.2      27.383
2014   10        1    18  13    4.57   376.3    6.2      27.379
2014   10        1    18  19    4.57   376.2    6.2      27.375
2014   10        1    18  24    4.57   376.0    6.2      27.372
2014   10        1    18  29    4.58   375.9    6.2      27.369
2014   10        1    18  35    4.58   375.7    6.3      27.366
2014   10        1    18  40    4.58   375.6    6.3      27.363
2014   10        1    18  45    4.59   375.4    6.3      27.360
2014   10        1    18  51    4.59   375.3    6.3      27.358
2014   10        1    18  56    4.59   375.1    6.3      27.355
2014   10        1    19   2    4.60   375.0    6.3      27.353
2014   10        1    19   7    4.60   374.8    6.3      27.351
2014   10        1    19  12    4.60   374.7    6.3      27.350
2014   10        1    19  18    4.61   374.5    6.3      27.348
2014   10        1    19  23    4.61   374.4    6.3      27.347
2014   10        1    19  28    4.61   374.2    6.3      27.346
2014   10        1    19  34    4.62   374.1    6.4      27.345
2014   10        1    19  39    4.62   374.0    6.4      27.344
2014   10        1    19  45    4.63   373.8    6.4      27.344
2014   10        1    19  50    4.63   373.7    6.4      27.344
2014   10        1    19  55    4.63   373.5    6.4      27.343
2014   10        1    20   1    4.64   373.4    6.4      27.343
2014   10        1    20   6    4.64   373.3    6.4      27.344
2014   10        1    20  11    4.64   373.1    6.4      27.344
2014   10        1    20  17    4.65   373.0    6.4      27.345
2014   10        1    20  22    4.65   372.8    6.4      27.345
2014   10        1    20  28    4.65   372.7    6.5      27.346
2014   10        1    20  33    4.66   372.6    6.5      27.347
2014   10        1    20  38    4.66   372.4    6.5      27.349
2014   10        1    20  44    4.67   372.3    6.5      27.350
2014   10        1    20  49    4.67   372.2    6.5      27.352
2014   10        1    20  55    4.67   372.0    6.5      27.353
2014   10        1    21   0    4.68   371.9    6.5      27.355
2014   10        1    21   5    4.68   371.8    6.5      27.357
2014   10        1    21  11    4.69   371.6    6.5      27.359
2014   10        1    21  16    4.69   371.5    6.5      27.361
2014   10        1    21  21    4.69   371.4    6.5      27.363
2014   10        1    21  27    4.70   371.3    6.6      27.366
2014   10        1    21  32    4.70   371.1    6.6      27.368
2014   10        1    21  38    4.71   371.0    6.6      27.371
2014   10        1    21  43    4.71   370.9    6.6      27.373
2014   10        1    21  48    4.71   370.8    6.6      27.376
2014   10        1    21  54    4.72   370.6    6.6      27.379
2014   10        1    21  59    4.72   370.5    6.6      27.382
2014   10        1    22   4    4.73   370.4    6.6      27.385
2014   10        1    22  10    4.73   370.3    6.6      27.388
2014   10        1    22  15    4.73   370.1    6.6      27.392
2014   10        1    22  21    4.74   370.0    6.7      27.395
2014   10        1    22  26    4.74   369.9    6.7      27.398
2014   10        1    22  31    4.75   369.8    6.7      27.402
2014   10        1    22  37    4.75   369.7    6.7      27.405
2014   10        1    22  42    4.75   369.5    6.7      27.409
2014   10        1    22  48    4.76   369.4    6.7      27.412
2014   10        1    22  53    4.76   369.3    6.7      27.416
2014   10        1    22  58    4.77   369.2    6.7      27.419
2014   10        1    23   4    4.77   369.1    6.7      27.423
2014   10        1    23   9    4.77   368.9    6.7      27.427
2014   10        1    23  15    4.78   368.8    6.7      27.431
2014   10        1    23  20    4.78   368.7    6.8      27.435
2014   10        1    23  25    4.79   368.6    6.8      27.439
2014   10        1    23  31    4.79   368.5    6.8      27.443
2014   10        1    23  36    4.79   368.4    6.8      27.447
2014   10        1    23  41    4.80   368.3    6.8      27.451
2014   10        1    23  47    4.80   368.1    6.8      27.456
2014   10        1    23  52    4.81   368.0    6.8      27.460
2014   10        1    23  58    4.81   367.9    6.8      27.465
2014   10        2     0   3    4.82   367.8    6.8      27.469
2014   10        2     0   8    4.82   367.7    6.8      27.474
2014   10        2     0  14    4.82   367.6    6.8      27.479
2014   10        2     0  19    4.83   367.5    6.9      27.483
2014   10        2     0  25    4.83   367.4    6.9      27.488
2014   10        2     0  30    4.84   367.3    6.9      27.494
2014   10        2     0  35    4.84   367.1    6.9      27.499
2014   10        2     0  41    4.84   367.0    6.9      27.504
2014   10        2     0  46    4.85   366.9    6.9      27.510
2014   10        2     0  51    4.85   366.8    6.9      27.515
2014   10        2     0  57    4.86   366.7    6.9      27.521
2014   10        2     1   2    4.86   366.6    6.9      27.527
2014   10        2     1   8    4.87   366.5    6.9      27.533
2014   10        2     1  13    4.87   366.4    6.9      27.540
2014   10        2     1  18    4.88   366.3    7.0      27.546
2014   10        2     1  24    4.88   366.2    7.0      27.552
2014   10        2     1  29    4.88   366.1    7.0      27.559
2014   10        2     1  34    4.89   366.0    7.0      27.566
2014   10        2     1  40    4.89   365.9    7.0      27.573
2014   10        2     1  45    4.90   365.8    7.0      27.580
2014   10        2     1  51    4.90   365.7    7.0      27.587
2014   10        2     1  56    4.91   365.6    7.0      27.595
2014   10        2     2   1    4.91   365.5    7.0      27.602
2014   10        2     2   7    4.92   365.4    7.0      27.610
2014   10        2     2  12    4.92   365.3    7.1      27.618
2014   10        2     2  18    4.92   365.2    7.1      27.626
2014   10        2     2  23    4.93   365.1    7.1      27.634
2014   10        2     2  28    4.93   365.0    7.1      27.643
2014   10        2     2  34    4.94   364.9    7.1      27.651
2014   10        2     2  39    4.94   364.8    7.1      27.660
2014   10        2     2  44    4.95   364.7    7.1      27.669
2014   10        2     2  50    4.95   364.6    7.1      27.678
2014   10        2     2  55    4.96   364.5    7.1      27.687
2014   10        2     3   1    4.96   364.4    7.1      27.697
2014   10        2     3   6    4.97   364.3    7.1      27.706
2014   10        2     3  11    4.97   364.3    7.2      27.716
2014   10        2     3  17    4.97   364.2    7.2      27.726
2014   10        2     3  22    4.98   364.1    7.2      27.735
2014   10        2     3  27    4.98   364.0    7.2      27.746
2014   10        2     3  33    4.99   363.9    7.2      27.756
2014   10        2     3  38    4.99   363.8    7.2      27.766
2014   10        2     3  44    5.00   363.7    7.2      27.777
2014   10        2     3  49    5.00   363.6    7.2      27.787
2014   10        2     3  54    5.01   363.5    7.2      27.798
2014   10        2     4   0    5.01   363.5    7.2      27.809
2014   10        2     4   5    5.02   363.4    7.3      27.820
2014   10        2     4  10    5.02   363.3    7.3      27.831
2014   10        2     4  16    5.03   363.2    7.3      27.842
2014   10        2     4  21    5.03   363.1    7.3      27.853
2014   10        2     4  27    5.03   363.0    7.3      27.865
2014   10        2     4  32    5.04   363.0    7.3      27.877
2014   10        2     4  37    5.04   362.9    7.3      27.888
2014   10        2     4  43    5.05   362.8    7.3      27.900
2014   10        2     4  48    5.05   362.7    7.3      27.912
2014   10        2     4  53    5.06   362.6    7.3      27.924
2014   10        2     4  59    5.06   362.6    7.3      27.936
2014   10        2     5   4    5.07   362.5    7.4      27.949
2014   10        2     5  10    5.07   362.4    7.4      27.961
2014   10        2     5  15    5.08   362.3    7.4      27.974
2014   10        2     5  20    5.08   362.2    7.4      27.986
2014   10        2     5  26    5.09   362.2    7.4      27.999
2014   10        2     5  31    5.09   362.1    7.4      28.012
2014   10        2     5  37    5.10   362.0    7.4      28.025
2014   10        2     5  42    5.10   361.9    7.4      28.038
2014   10        2     5  47    5.11   361.9    7.4      28.051
2014   10        2     5  53    5.11   361.8    7.4      28.065
2014   10        2     5  58    5.12   361.7    7.4      28.078
2014   10        2     6   4    5.12   361.6    7.5      28.092
2014   10        2     6   9    5.13   361.6    7.5      28.106
2014   10        2     6  14    5.13   361.5    7.5      28.120
2014   10        2     6  20    5.14   361.4    7.5      28.134
2014   10        2     6  25    5.14   361.3    7.5      28.148
2014   10        2     6  30    5.14   361.3    7.5      28.162
2014   10        2     6  36    5.15   361.2    7.5      28.176
2014   10        2     6  41    5.15   361.1    7.5      28.191
2014   10        2     6  47    5.16   361.1    7.5      28.205
2014   10        2     6  52    5.16   361.0    7.5      28.220
2014   10        2     6  57    5.17   360.9    7.5      28.235
2014   10        2     7   3    5.17   360.8    7.6      28.249
2014   10        2     7   8    5.18   360.8    7.6      28.264
2014   10        2     7  14    5.18   360.7    7.6      28.279
2014   10        2     7  19    5.19   360.6    7.6      28.294
2014   10        2     7  24    5.19   360.6    7.6      28.309
2014   10        2     7  30    5.20   360.5    7.6      28.325
2014   10        2     7  35    5.20   360.4    7.6      28.340
2014   10        2     7  40    5.21   360.4    7.6      28.355
2014   10        2     7  46    5.21   360.3    7.6      28.371
2014   10        2     7  51    5.22   360.2    7.6      28.386
2014   10        2     7  57    5.22   360.2    7.6      28.402
2014   10        2     8   2    5.23   360.1    7.7      28.418
2014   10        2     8   7    5.23   360.0    7.7      28.433
2014   10        2     8  13    5.24   360.0    7.7      28.449
2014   10        2     8  18    5.24   359.9    7.7      28.465
2014   10        2     8  24    5.25   359.8    7.7      28.481
2014   10        2     8  29    5.25   359.8    7.7      28.497
2014   10        2     8  34    5.26   359.7    7.7      28.513
2014   10        2     8  40    5.26   359.7    7.7      28.529
2014   10        2     8  45    5.27   359.6    7.7      28.545
2014   10        2     8  50    5.27   359.5    7.7      28.561
2014   10        2     8  56    5.28   359.5    7.7      28.577
2014   10        2     9   1    5.28   359.4    7.8      28.593
2014   10        2     9   7    5.29   359.4    7.8      28.610
2014   10        2     9  12    5.29   359.3    7.8      28.626
2014   10        2     9  17    5.30   359.2    7.8      28.642
2014   10        2     9  23    5.30   359.2    7.8      28.659
2014   10        2     9  28    5.31   359.1    7.8      28.675
2014   10        2     9  33    5.31   359.1    7.8      28.692
2014   10        2     9  39    5.32   359.0    7.8      28.708
2014   10        2     9  44    5.32   358.9    7.8      28.725
2014   10        2     9  50    5.33   358.9    7.8      28.742
2014   10        2     9  55    5.33   358.8    7.8      28.759
2014   10        2    10   0    5.34   358.8    7.9      28.776
2014   10        2    10   6    5.34   358.7    7.9      28.793
2014   10        2    10  11    5.35   358.7    7.9      28.810
2014   10        2    10  16    5.35   358.6    7.9      28.828
2014   10        2    10  22    5.36   358.6    7.9      28.845
2014   10        2    10  27    5.36   358.5    7.9      28.863
2014   10        2    10  33    5.37   358.5    7.9      28.882
2014   10        2    10  38    5.37   358.4    7.9      28.900
2014   10        2    10  43    5.38   358.4    7.9      28.919
2014   10        2    10  49    5.38   358.3    7.9      28.938
2014   10        2    10  54    5.39   358.3    7.9      28.958
2014   10        2    10  59    5.39   358.2    8.0      28.978
2014   10        2    11   5    5.40   358.2    8.0      28.998
2014   10        2    11  10    5.40   358.1    8.0      29.019
2014   10        2    11  16    5.41   358.1    8.0      29.040
2014   10        2    11  21    5.41   358.0    8.0      29.061
2014   10        2    11  26    5.42   358.0    8.0      29.082
2014   10        2    11  32    5.42   357.9    8.0      29.104
2014   10        2    11  37    5.43   357.9    8.0      29.126
2014   10        2    11  42    5.43   357.9    8.0      29.148
2014   10        2    11  48    5.44   357.8    8.0      29.171
2014   10        2    11  53    5.44   357.8    8.0      29.193
2014   10        2    11  59    5.45   357.7    8.0      29.216
2014   10        2    12   4    5.45   357.7    8.1      29.239
2014   10        2    12   9    5.46   357.6    8.1      29.263
2014   10        2    12  15    5.46   357.6    8.1      29.286
2014   10        2    12  20    5.47   357.6    8.1      29.310
2014   10        2    12  26    5.47   357.5    8.1      29.334
2014   10        2    12  31    5.48   357.5    8.1      29.358
2014   10        2    12  36    5.48   357.4    8.1      29.382
2014   10        2    12  42    5.49   357.4    8.1      29.406
2014   10        2    12  47    5.49   357.4    8.1      29.430
2014   10        2    12  52    5.50   357.3    8.1      29.455
2014   10        2    12  58    5.51   357.3    8.1      29.479
2014   10        2    13   3    5.51   357.2    8.1      29.504
2014   10        2    13   9    5.52   357.2    8.1      29.529
2014   10        2    13  14    5.52   357.2    8.2      29.554
2014   10        2    13  19    5.53   357.1    8.2      29.578
2014   10        2    13  25    5.53   357.1    8.2      29.603
2014   10        2    13  30    5.54   357.0    8.2      29.628
2014   10        2    13  36    5.54   357.0    8.2      29.653
2014   10        2    13  41    5.55   357.0    8.2      29.678
2014   10        2    13  46    5.55   356.9    8.2      29.703
2014   10        2    13  52    5.56   356.9    8.2      29.728
2014   10        2    13  57    5.56   356.9    8.2      29.753
2014   10        2    14   3    5.56   356.8    8.2      29.778
2014   10        2    14   8    5.57   356.8    8.2      29.803
2014   10        2    14  13    5.57   356.8    8.2      29.828
2014   10        2    14  19    5.58   356.7    8.2      29.853
2014   10        2    14  24    5.58   356.7    8.2      29.878
2014   10        2    14  29    5.59   356.7    8.3      29.902
2014   10        2    14  35    5.59   356.6    8.3      29.927
2014   10        2    14  40    5.60   356.6    8.3      29.952
2014   10        2    14  46    5.60   356.6    8.3      29.977
2014   10        2    14  51    5.61   356.5    8.3      30.001
2014   10        2    14  56    5.61   356.5    8.3      30.026
2014   10        2    15   2    5.62   356.5    8.3      30.050
2014   10        2    15   7    5.62   356.4    8.3      30.075
2014   10        2    15  13    5.63   356.4    8.3      30.100
2014   10        2    15  18    5.63   356.4    8.3      30.124
2014   10        2    15  23    5.64   356.3    8.3      30.149
2014   10        2    15  29    5.64   356.3    8.3      30.173
2014   10        2    15  34    5.65   356.3    8.3      30.198
2014   10        2    15  39    5.65   356.2    8.3      30.222
2014   10        2    15  45    5.66   356.2    8.4      30.247
2014   10        2    15  50    5.66   356.2    8.4      30.271
2014   10        2    15  56    5.67   356.2    8.4      30.296
2014   10        2    16   1    5.67   356.1    8.4      30.320
2014   10        2    16   6    5.68   356.1    8.4      30.345
2014   10        2    16  12    5.68   356.1    8.4      30.369
2014   10        2    16  17    5.69   356.0    8.4      30.393
2014   10        2    16  22    5.69   356.0    8.4      30.418
2014   10        2    16  28    5.70   356.0    8.4      30.442
2014   10        2    16  33    5.70   356.0    8.4      30.467
2014   10        2    16  39    5.71   355.9    8.4      30.492
2014   10        2    16  44    5.71   355.9    8.4      30.516
2014   10        2    16  49    5.72   355.9    8.4      30.541
2014   10        2    16  55    5.72   355.9    8.5      30.566
2014   10        2    17   0    5.73   355.8    8.5      30.591
2014   10        2    17   5    5.73   355.8    8.5      30.616
2014   10        2    17  11    5.74   355.8    8.5      30.641
2014   10        2    17  16    5.75   355.8    8.5      30.666
2014   10        2    17  22    5.75   355.8    8.5      30.692
2014   10        2    17  27    5.76   355.7    8.5      30.718
2014   10        2    17  32    5.76   355.7    8.5      30.744
2014   10        2    17  38    5.77   355.7    8.5      30.770
2014   10        2    17  43    5.77   355.7    8.5      30.797
2014   10        2    17  48    5.78   355.7    8.5      30.824
2014   10        2    17  54    5.78   355.7    8.5      30.852
2014   10        2    17  59    5.79   355.6    8.6      30.880
2014   10        2    18   5    5.79   355.6    8.6      30.908
2014   10        2    18  10    5.80   355.6    8.6      30.937
2014   10        2    18  15    5.80   355.6    8.6      30.967
2014   10        2    18  21    5.81   355.6    8.6      30.997
2014   10        2    18  26    5.81   355.6    8.6      31.028
2014   10        2    18  32    5.82   355.6    8.6      31.059
2014   10        2    18  37    5.82   355.6    8.6      31.091
2014   10        2    18  42    5.83   355.6    8.6      31.123
2014   10        2    18  48    5.83   355.6    8.6      31.157
2014   10        2    18  53    5.84   355.5    8.6      31.190
2014   10        2    18  58    5.84   355.5    8.6      31.225
2014   10        2    19   4    5.85   355.5    8.6      31.260
2014   10        2    19   9    5.85   355.5    8.7      31.296
2014   10        2    19  15    5.86   355.5    8.7      31.332
2014   10        2    19  20    5.86   355.5    8.7      31.368
2014   10        2    19  25    5.87   355.5    8.7      31.404
2014   10        2    19  31    5.87   355.5    8.7      31.441
2014   10        2    19  36    5.88   355.5    8.7      31.478
2014   10        2    19  41    5.88   355.5    8.7      31.514
2014   10        2    19  47    5.89   355.5    8.7      31.551
2014   10        2    19  52    5.89   355.5    8.7      31.587
2014   10        2    19  58    5.90   355.5    8.7      31.623
2014   10        2    20   3    5.90   355.5    8.7      31.659
2014   10        2    20   8    5.90   355.5    8.7      31.695
2014   10        2    20  14    5.91   355.5    8.7      31.730
2014   10        2    20  19    5.91   355.5    8.7      31.765
2014   10        2    20  25    5.92   355.5    8.7      31.800
2014   10        2    20  30    5.92   355.5    8.7      31.835
2014   10        2    20  35    5.93   355.5    8.8      31.870
2014   10        2    20  41    5.93   355.5    8.8      31.904
2014   10        2    20  46    5.94   355.5    8.8      31.938
2014   10        2    20  51    5.94   355.5    8.8      31.972
2014   10        2    20  57    5.95   355.5    8.8      32.005
2014   10        2    21   2    5.95   355.5    8.8      32.039
2014   10        2    21   8    5.95   355.5    8.8      32.072
2014   10        2    21  13    5.96   355.5    8.8      32.104
2014   10        2    21  18    5.96   355.5    8.8      32.137
2014   10        2    21  24    5.97   355.5    8.8      32.169
2014   10        2    21  29    5.97   355.5    8.8      32.201
2014   10        2    21  35    5.98   355.5    8.8      32.232
2014   10        2    21  40    5.98   355.5    8.8      32.264
2014   10        2    21  45    5.98   355.5    8.8      32.295
2014   10        2    21  51    5.99   355.5    8.8      32.326
2014   10        2    21  56    5.99   355.5    8.8      32.356
2014   10        2    22   2    6.00   355.5    8.8      32.387
2014   10        2    22   7    6.00   355.5    8.8      32.417
2014   10        2    22  12    6.01   355.5    8.8      32.448
2014   10        2    22  18    6.01   355.5    8.8      32.478
2014   10        2    22  23    6.01   355.5    8.8      32.507
2014   10        2    22  28    6.02   355.5    8.8      32.537
2014   10        2    22  34    6.02   355.5    8.8      32.567
2014   10        2    22  39    6.03   355.5    8.9      32.596
2014   10        2    22  45    6.03   355.5    8.9      32.626
2014   10        2    22  50    6.04   355.5    8.9      32.655
2014   10        2    22  55    6.04   355.5    8.9      32.684
2014   10        2    23   1    6.04   355.5    8.9      32.713
2014   10        2    23   6    6.05   355.5    8.9      32.742
2014   10        2    23  11    6.05   355.5    8.9      32.771
2014   10        2    23  17    6.06   355.5    8.9      32.800
2014   10        2    23  22    6.06   355.5    8.9      32.829
2014   10        2    23  28    6.07   355.5    8.9      32.858
2014   10        2    23  33    6.07   355.6    8.9      32.887
2014   10        2    23  38    6.07   355.6    8.9      32.916
2014   10        2    23  44    6.08   355.6    8.9      32.945
2014   10        2    23  49    6.08   355.6    8.9      32.974
2014   10        2    23  55    6.09   355.6    8.9      33.003
2014   10        3     0   0    6.09   355.6    8.9      33.032
