year    month   day   hour  minute  B_enl V_enl   n_enl       T_enl
[year] [month] [day] [hour][minute] [nT]  [km/s]  [cm-3]      [kK]
2014    9       16     0   4    5.62   357.5    9.0      31.219
2014    9       16     0   9    5.63   357.4    9.0      31.242
2014    9       16     0  15    5.63   357.4    9.1      31.266
2014    9       16     0  20    5.64   357.4    9.1      31.289
2014    9       16     0  25    5.64   357.4    9.1      31.312
2014    9       16     0  31    5.65   357.4    9.1      31.334
2014    9       16     0  36    5.65   357.4    9.1      31.357
2014    9       16     0  41    5.66   357.4    9.1      31.380
2014    9       16     0  47    5.66   357.4    9.1      31.402
2014    9       16     0  52    5.66   357.4    9.1      31.425
2014    9       16     0  57    5.67   357.3    9.1      31.447
2014    9       16     1   3    5.67   357.3    9.1      31.469
2014    9       16     1   8    5.68   357.3    9.1      31.490
2014    9       16     1  13    5.68   357.3    9.1      31.512
2014    9       16     1  19    5.69   357.3    9.2      31.533
2014    9       16     1  24    5.69   357.3    9.2      31.554
2014    9       16     1  30    5.70   357.3    9.2      31.575
2014    9       16     1  35    5.70   357.3    9.2      31.596
2014    9       16     1  40    5.71   357.3    9.2      31.617
2014    9       16     1  46    5.71   357.2    9.2      31.637
2014    9       16     1  51    5.71   357.2    9.2      31.657
2014    9       16     1  56    5.72   357.2    9.2      31.678
2014    9       16     2   2    5.72   357.2    9.2      31.698
2014    9       16     2   7    5.73   357.2    9.2      31.718
2014    9       16     2  12    5.73   357.2    9.2      31.737
2014    9       16     2  18    5.74   357.2    9.2      31.757
2014    9       16     2  23    5.74   357.2    9.3      31.776
2014    9       16     2  28    5.75   357.2    9.3      31.796
2014    9       16     2  34    5.75   357.1    9.3      31.815
2014    9       16     2  39    5.76   357.1    9.3      31.834
2014    9       16     2  44    5.76   357.1    9.3      31.853
2014    9       16     2  50    5.76   357.1    9.3      31.872
2014    9       16     2  55    5.77   357.1    9.3      31.891
2014    9       16     3   1    5.77   357.1    9.3      31.910
2014    9       16     3   6    5.78   357.1    9.3      31.929
2014    9       16     3  11    5.78   357.1    9.3      31.948
2014    9       16     3  17    5.79   357.1    9.3      31.966
2014    9       16     3  22    5.79   357.1    9.3      31.985
2014    9       16     3  27    5.80   357.0    9.3      32.004
2014    9       16     3  33    5.80   357.0    9.4      32.023
2014    9       16     3  38    5.81   357.0    9.4      32.041
2014    9       16     3  43    5.81   357.0    9.4      32.060
2014    9       16     3  49    5.82   357.0    9.4      32.079
2014    9       16     3  54    5.82   357.0    9.4      32.098
2014    9       16     3  59    5.83   357.0    9.4      32.117
2014    9       16     4   5    5.83   357.0    9.4      32.136
2014    9       16     4  10    5.84   357.0    9.4      32.156
2014    9       16     4  16    5.84   357.0    9.4      32.175
2014    9       16     4  21    5.84   357.0    9.4      32.195
2014    9       16     4  26    5.85   357.0    9.4      32.215
2014    9       16     4  32    5.85   357.0    9.4      32.235
2014    9       16     4  37    5.86   357.0    9.5      32.255
2014    9       16     4  42    5.86   357.0    9.5      32.276
2014    9       16     4  48    5.87   357.0    9.5      32.297
2014    9       16     4  53    5.87   357.0    9.5      32.317
2014    9       16     4  58    5.88   357.0    9.5      32.338
2014    9       16     5   4    5.88   357.0    9.5      32.360
2014    9       16     5   9    5.89   357.0    9.5      32.381
2014    9       16     5  14    5.89   357.0    9.5      32.403
2014    9       16     5  20    5.90   357.0    9.5      32.426
2014    9       16     5  25    5.90   357.0    9.5      32.448
2014    9       16     5  30    5.91   357.0    9.5      32.471
2014    9       16     5  36    5.91   357.0    9.5      32.495
2014    9       16     5  41    5.92   357.0    9.6      32.518
2014    9       16     5  47    5.92   357.0    9.6      32.542
2014    9       16     5  52    5.93   357.0    9.6      32.566
2014    9       16     5  57    5.93   357.1    9.6      32.590
2014    9       16     6   3    5.94   357.1    9.6      32.614
2014    9       16     6   8    5.94   357.1    9.6      32.638
2014    9       16     6  13    5.95   357.1    9.6      32.662
2014    9       16     6  19    5.95   357.1    9.6      32.685
2014    9       16     6  24    5.96   357.1    9.6      32.709
2014    9       16     6  29    5.96   357.1    9.6      32.733
2014    9       16     6  35    5.97   357.1    9.6      32.757
2014    9       16     6  40    5.97   357.2    9.6      32.781
2014    9       16     6  45    5.98   357.2    9.6      32.805
2014    9       16     6  51    5.98   357.2    9.7      32.829
2014    9       16     6  56    5.99   357.2    9.7      32.853
2014    9       16     7   1    5.99   357.2    9.7      32.877
2014    9       16     7   7    6.00   357.2    9.7      32.901
2014    9       16     7  12    6.00   357.2    9.7      32.925
2014    9       16     7  18    6.00   357.3    9.7      32.949
2014    9       16     7  23    6.01   357.3    9.7      32.972
2014    9       16     7  28    6.01   357.3    9.7      32.996
2014    9       16     7  34    6.02   357.3    9.7      33.020
2014    9       16     7  39    6.02   357.3    9.7      33.043
2014    9       16     7  44    6.03   357.3    9.7      33.066
2014    9       16     7  50    6.03   357.4    9.7      33.090
2014    9       16     7  55    6.04   357.4    9.7      33.113
2014    9       16     8   0    6.04   357.4    9.7      33.136
2014    9       16     8   6    6.05   357.4    9.8      33.159
2014    9       16     8  11    6.05   357.4    9.8      33.181
2014    9       16     8  16    6.06   357.4    9.8      33.204
2014    9       16     8  22    6.06   357.4    9.8      33.227
2014    9       16     8  27    6.07   357.5    9.8      33.249
2014    9       16     8  32    6.07   357.5    9.8      33.271
2014    9       16     8  38    6.07   357.5    9.8      33.293
2014    9       16     8  43    6.08   357.5    9.8      33.315
2014    9       16     8  49    6.08   357.5    9.8      33.337
2014    9       16     8  54    6.09   357.5    9.8      33.359
2014    9       16     8  59    6.09   357.6    9.8      33.381
2014    9       16     9   5    6.10   357.6    9.8      33.403
2014    9       16     9  10    6.10   357.6    9.8      33.424
2014    9       16     9  15    6.11   357.6    9.8      33.446
2014    9       16     9  21    6.11   357.6    9.8      33.468
2014    9       16     9  26    6.12   357.6    9.9      33.489
2014    9       16     9  31    6.12   357.6    9.9      33.511
2014    9       16     9  37    6.13   357.7    9.9      33.533
2014    9       16     9  42    6.13   357.7    9.9      33.554
2014    9       16     9  47    6.14   357.7    9.9      33.576
2014    9       16     9  53    6.14   357.7    9.9      33.598
2014    9       16     9  58    6.15   357.7    9.9      33.620
2014    9       16    10   3    6.15   357.8    9.9      33.642
2014    9       16    10   9    6.16   357.8    9.9      33.663
2014    9       16    10  14    6.16   357.8    9.9      33.685
2014    9       16    10  20    6.16   357.8    9.9      33.707
2014    9       16    10  25    6.17   357.8    9.9      33.729
2014    9       16    10  30    6.17   357.9    9.9      33.751
2014    9       16    10  36    6.18   357.9    9.9      33.774
2014    9       16    10  41    6.18   357.9   10.0      33.796
2014    9       16    10  46    6.19   357.9   10.0      33.818
2014    9       16    10  52    6.19   357.9   10.0      33.840
2014    9       16    10  57    6.20   358.0   10.0      33.863
2014    9       16    11   2    6.20   358.0   10.0      33.886
2014    9       16    11   8    6.21   358.0   10.0      33.909
2014    9       16    11  13    6.21   358.0   10.0      33.932
2014    9       16    11  18    6.22   358.1   10.0      33.956
2014    9       16    11  24    6.22   358.1   10.0      33.981
2014    9       16    11  29    6.23   358.1   10.0      34.006
2014    9       16    11  35    6.23   358.1   10.0      34.032
2014    9       16    11  40    6.24   358.2   10.0      34.059
2014    9       16    11  45    6.25   358.2   10.1      34.086
2014    9       16    11  51    6.25   358.2   10.1      34.113
2014    9       16    11  56    6.25   358.3   10.1      34.141
2014    9       16    12   1    6.26   358.3   10.1      34.168
2014    9       16    12   7    6.26   358.3   10.1      34.196
2014    9       16    12  12    6.27   358.4   10.1      34.224
2014    9       16    12  17    6.27   358.4   10.1      34.251
2014    9       16    12  23    6.28   358.4   10.1      34.279
2014    9       16    12  28    6.28   358.5   10.1      34.307
2014    9       16    12  33    6.29   358.5   10.1      34.335
2014    9       16    12  39    6.29   358.6   10.1      34.363
2014    9       16    12  44    6.30   358.6   10.1      34.392
2014    9       16    12  49    6.30   358.6   10.1      34.420
2014    9       16    12  55    6.31   358.7   10.2      34.448
2014    9       16    13   0    6.31   358.7   10.2      34.477
2014    9       16    13   6    6.32   358.8   10.2      34.505
2014    9       16    13  11    6.32   358.8   10.2      34.533
2014    9       16    13  16    6.33   358.8   10.2      34.561
2014    9       16    13  22    6.33   358.9   10.2      34.589
2014    9       16    13  27    6.34   358.9   10.2      34.617
2014    9       16    13  32    6.34   359.0   10.2      34.644
2014    9       16    13  38    6.35   359.0   10.2      34.671
2014    9       16    13  43    6.35   359.0   10.2      34.698
2014    9       16    13  48    6.35   359.1   10.2      34.725
2014    9       16    13  54    6.36   359.1   10.2      34.752
2014    9       16    13  59    6.36   359.2   10.2      34.778
2014    9       16    14   4    6.37   359.2   10.2      34.805
2014    9       16    14  10    6.37   359.2   10.2      34.831
2014    9       16    14  15    6.38   359.3   10.2      34.857
2014    9       16    14  20    6.38   359.3   10.2      34.883
2014    9       16    14  26    6.39   359.4   10.2      34.908
2014    9       16    14  31    6.39   359.4   10.3      34.934
2014    9       16    14  37    6.40   359.5   10.3      34.959
2014    9       16    14  42    6.40   359.5   10.3      34.984
2014    9       16    14  47    6.40   359.5   10.3      35.009
2014    9       16    14  53    6.41   359.6   10.3      35.034
2014    9       16    14  58    6.41   359.6   10.3      35.059
2014    9       16    15   3    6.42   359.7   10.3      35.083
2014    9       16    15   9    6.42   359.7   10.3      35.108
2014    9       16    15  14    6.43   359.7   10.3      35.132
2014    9       16    15  19    6.43   359.8   10.3      35.157
2014    9       16    15  25    6.44   359.8   10.3      35.181
2014    9       16    15  30    6.44   359.9   10.3      35.205
2014    9       16    15  35    6.45   359.9   10.3      35.229
2014    9       16    15  41    6.45   359.9   10.3      35.253
2014    9       16    15  46    6.45   360.0   10.3      35.277
2014    9       16    15  52    6.46   360.0   10.3      35.301
2014    9       16    15  57    6.46   360.1   10.3      35.325
2014    9       16    16   2    6.47   360.1   10.3      35.349
2014    9       16    16   8    6.47   360.2   10.3      35.373
2014    9       16    16  13    6.48   360.2   10.3      35.397
2014    9       16    16  18    6.48   360.2   10.3      35.421
2014    9       16    16  24    6.49   360.3   10.4      35.446
2014    9       16    16  29    6.49   360.3   10.4      35.470
2014    9       16    16  34    6.50   360.4   10.4      35.495
2014    9       16    16  40    6.50   360.4   10.4      35.519
2014    9       16    16  45    6.51   360.5   10.4      35.544
2014    9       16    16  50    6.51   360.5   10.4      35.569
2014    9       16    16  56    6.52   360.6   10.4      35.594
2014    9       16    17   1    6.52   360.6   10.4      35.620
2014    9       16    17   6    6.52   360.7   10.4      35.645
2014    9       16    17  12    6.53   360.7   10.4      35.671
2014    9       16    17  17    6.53   360.8   10.4      35.697
2014    9       16    17  23    6.54   360.8   10.4      35.723
2014    9       16    17  28    6.54   360.9   10.4      35.749
2014    9       16    17  33    6.55   360.9   10.4      35.776
2014    9       16    17  39    6.55   361.0   10.4      35.802
2014    9       16    17  44    6.56   361.0   10.4      35.829
2014    9       16    17  49    6.57   361.1   10.4      35.856
2014    9       16    17  55    6.57   361.1   10.5      35.883
2014    9       16    18   0    6.58   361.2   10.5      35.911
2014    9       16    18   5    6.58   361.2   10.5      35.939
2014    9       16    18  11    6.59   361.3   10.5      35.968
2014    9       16    18  16    6.59   361.4   10.5      35.998
2014    9       16    18  21    6.60   361.4   10.5      36.029
2014    9       16    18  27    6.60   361.5   10.5      36.061
2014    9       16    18  32    6.61   361.6   10.5      36.094
2014    9       16    18  37    6.61   361.6   10.5      36.128
2014    9       16    18  43    6.62   361.7   10.5      36.162
2014    9       16    18  48    6.62   361.8   10.5      36.197
2014    9       16    18  53    6.63   361.9   10.5      36.232
2014    9       16    18  59    6.63   361.9   10.5      36.267
2014    9       16    19   4    6.64   362.0   10.6      36.302
2014    9       16    19  10    6.64   362.1   10.6      36.336
2014    9       16    19  15    6.64   362.1   10.6      36.371
2014    9       16    19  20    6.65   362.2   10.6      36.405
2014    9       16    19  26    6.65   362.3   10.6      36.438
2014    9       16    19  31    6.66   362.4   10.6      36.472
2014    9       16    19  36    6.66   362.4   10.6      36.506
2014    9       16    19  42    6.67   362.5   10.6      36.539
2014    9       16    19  47    6.67   362.6   10.6      36.572
2014    9       16    19  52    6.68   362.6   10.6      36.605
2014    9       16    19  58    6.68   362.7   10.6      36.637
2014    9       16    20   3    6.69   362.8   10.6      36.670
2014    9       16    20   8    6.69   362.9   10.6      36.702
2014    9       16    20  14    6.69   362.9   10.6      36.734
2014    9       16    20  19    6.70   363.0   10.6      36.766
2014    9       16    20  24    6.70   363.1   10.6      36.797
2014    9       16    20  30    6.71   363.2   10.6      36.828
2014    9       16    20  35    6.71   363.2   10.6      36.859
2014    9       16    20  40    6.72   363.3   10.7      36.889
2014    9       16    20  46    6.72   363.4   10.7      36.919
2014    9       16    20  51    6.72   363.5   10.7      36.949
2014    9       16    20  57    6.73   363.5   10.7      36.979
2014    9       16    21   2    6.73   363.6   10.7      37.008
2014    9       16    21   7    6.74   363.7   10.7      37.037
2014    9       16    21  13    6.74   363.8   10.7      37.066
2014    9       16    21  18    6.74   363.8   10.7      37.095
2014    9       16    21  23    6.75   363.9   10.7      37.123
2014    9       16    21  29    6.75   364.0   10.7      37.151
2014    9       16    21  34    6.76   364.0   10.7      37.179
2014    9       16    21  39    6.76   364.1   10.7      37.207
2014    9       16    21  45    6.76   364.2   10.7      37.234
2014    9       16    21  50    6.77   364.3   10.7      37.261
2014    9       16    21  55    6.77   364.3   10.7      37.288
2014    9       16    22   1    6.78   364.4   10.7      37.315
2014    9       16    22   6    6.78   364.5   10.7      37.342
2014    9       16    22  11    6.79   364.5   10.7      37.368
2014    9       16    22  17    6.79   364.6   10.7      37.395
2014    9       16    22  22    6.79   364.7   10.7      37.421
2014    9       16    22  27    6.80   364.8   10.7      37.447
2014    9       16    22  33    6.80   364.8   10.7      37.473
2014    9       16    22  38    6.81   364.9   10.7      37.499
2014    9       16    22  44    6.81   365.0   10.7      37.525
2014    9       16    22  49    6.81   365.1   10.7      37.550
2014    9       16    22  54    6.82   365.1   10.7      37.576
2014    9       16    23   0    6.82   365.2   10.7      37.602
2014    9       16    23   5    6.83   365.3   10.7      37.627
2014    9       16    23  10    6.83   365.3   10.7      37.653
2014    9       16    23  16    6.83   365.4   10.7      37.678
2014    9       16    23  21    6.84   365.5   10.7      37.704
2014    9       16    23  26    6.84   365.6   10.7      37.729
2014    9       16    23  32    6.85   365.6   10.7      37.755
2014    9       16    23  37    6.85   365.7   10.7      37.781
2014    9       16    23  42    6.85   365.8   10.7      37.807
2014    9       16    23  48    6.86   365.9   10.7      37.833
2014    9       16    23  53    6.86   365.9   10.7      37.859
2014    9       16    23  58    6.87   366.0   10.7      37.886
2014    9       17     0   4    6.87   366.1   10.7      37.914
2014    9       17     0   9    6.88   366.2   10.7      37.943
2014    9       17     0  15    6.88   366.3   10.7      37.972
2014    9       17     0  20    6.89   366.3   10.7      38.001
2014    9       17     0  25    6.89   366.4   10.7      38.031
2014    9       17     0  31    6.89   366.5   10.7      38.061
2014    9       17     0  36    6.90   366.6   10.8      38.091
2014    9       17     0  41    6.90   366.7   10.8      38.121
2014    9       17     0  47    6.91   366.7   10.8      38.152
2014    9       17     0  52    6.91   366.8   10.8      38.183
2014    9       17     0  57    6.92   366.9   10.8      38.214
2014    9       17     1   3    6.92   367.0   10.8      38.245
2014    9       17     1   8    6.93   367.1   10.8      38.278
2014    9       17     1  13    6.93   367.2   10.8      38.311
2014    9       17     1  19    6.94   367.3   10.8      38.345
2014    9       17     1  24    6.94   367.4   10.8      38.380
2014    9       17     1  29    6.95   367.5   10.8      38.415
2014    9       17     1  35    6.95   367.6   10.8      38.451
2014    9       17     1  40    6.96   367.7   10.8      38.488
2014    9       17     1  46    6.96   367.8   10.8      38.525
2014    9       17     1  51    6.97   367.9   10.8      38.562
2014    9       17     1  56    6.97   368.0   10.8      38.600
2014    9       17     2   2    6.98   368.1   10.8      38.638
2014    9       17     2   7    6.98   368.2   10.8      38.675
2014    9       17     2  12    6.99   368.3   10.8      38.713
2014    9       17     2  18    6.99   368.4   10.9      38.752
2014    9       17     2  23    7.00   368.5   10.9      38.790
2014    9       17     2  28    7.00   368.6   10.9      38.828
2014    9       17     2  34    7.01   368.7   10.9      38.867
2014    9       17     2  39    7.01   368.8   10.9      38.905
2014    9       17     2  44    7.02   368.9   10.9      38.945
2014    9       17     2  50    7.02   369.0   10.9      38.985
2014    9       17     2  55    7.02   369.1   10.9      39.026
2014    9       17     3   0    7.03   369.2   10.9      39.068
2014    9       17     3   6    7.03   369.3   10.9      39.111
2014    9       17     3  11    7.04   369.4   10.9      39.155
2014    9       17     3  17    7.04   369.6   10.9      39.199
2014    9       17     3  22    7.05   369.7   10.9      39.243
2014    9       17     3  27    7.05   369.8   10.9      39.288
2014    9       17     3  33    7.06   369.9   10.9      39.333
2014    9       17     3  38    7.06   370.0   10.9      39.378
2014    9       17     3  43    7.07   370.1   10.9      39.422
2014    9       17     3  49    7.07   370.3   10.9      39.466
2014    9       17     3  54    7.07   370.4   11.0      39.509
2014    9       17     3  59    7.08   370.5   11.0      39.552
2014    9       17     4   5    7.08   370.6   11.0      39.594
2014    9       17     4  10    7.09   370.7   11.0      39.637
2014    9       17     4  15    7.09   370.9   11.0      39.678
2014    9       17     4  21    7.09   371.0   11.0      39.720
2014    9       17     4  26    7.10   371.1   11.0      39.761
2014    9       17     4  31    7.10   371.2   11.0      39.802
2014    9       17     4  37    7.11   371.3   11.0      39.843
2014    9       17     4  42    7.11   371.5   11.0      39.883
2014    9       17     4  47    7.12   371.6   11.0      39.923
2014    9       17     4  53    7.12   371.7   11.0      39.963
2014    9       17     4  58    7.12   371.8   11.0      40.002
2014    9       17     5   4    7.13   372.0   11.0      40.041
2014    9       17     5   9    7.13   372.1   11.0      40.079
2014    9       17     5  14    7.13   372.2   11.0      40.116
2014    9       17     5  20    7.14   372.3   11.0      40.153
2014    9       17     5  25    7.14   372.4   11.0      40.190
2014    9       17     5  30    7.15   372.6   11.0      40.226
2014    9       17     5  36    7.15   372.7   11.0      40.261
2014    9       17     5  41    7.15   372.8   11.0      40.296
2014    9       17     5  46    7.16   372.9   11.0      40.330
2014    9       17     5  52    7.16   373.0   11.0      40.364
2014    9       17     5  57    7.17   373.2   11.0      40.398
2014    9       17     6   2    7.17   373.3   11.0      40.431
2014    9       17     6   8    7.17   373.4   11.0      40.463
2014    9       17     6  13    7.18   373.5   11.0      40.495
2014    9       17     6  18    7.18   373.7   11.0      40.527
2014    9       17     6  24    7.18   373.8   11.0      40.558
2014    9       17     6  29    7.19   373.9   11.0      40.590
2014    9       17     6  35    7.19   374.0   11.0      40.620
2014    9       17     6  40    7.19   374.1   11.0      40.651
2014    9       17     6  45    7.20   374.3   11.0      40.681
2014    9       17     6  51    7.20   374.4   11.0      40.711
2014    9       17     6  56    7.20   374.5   11.0      40.741
2014    9       17     7   1    7.21   374.6   11.0      40.770
2014    9       17     7   7    7.21   374.7   11.0      40.800
2014    9       17     7  12    7.22   374.9   11.0      40.829
2014    9       17     7  17    7.22   375.0   11.0      40.858
2014    9       17     7  23    7.22   375.1   11.0      40.887
2014    9       17     7  28    7.23   375.2   11.0      40.916
2014    9       17     7  33    7.23   375.4   11.0      40.945
2014    9       17     7  39    7.23   375.5   11.0      40.974
2014    9       17     7  44    7.24   375.6   11.0      41.002
2014    9       17     7  49    7.24   375.7   11.0      41.031
2014    9       17     7  55    7.24   375.8   11.0      41.060
2014    9       17     8   0    7.25   376.0   11.0      41.088
2014    9       17     8   5    7.25   376.1   11.0      41.117
2014    9       17     8  11    7.25   376.2   11.0      41.146
2014    9       17     8  16    7.26   376.3   11.0      41.175
2014    9       17     8  22    7.26   376.5   11.0      41.204
2014    9       17     8  27    7.27   376.6   11.0      41.233
2014    9       17     8  32    7.27   376.7   10.9      41.262
2014    9       17     8  38    7.27   376.8   10.9      41.291
2014    9       17     8  43    7.28   376.9   10.9      41.321
2014    9       17     8  48    7.28   377.1   10.9      41.350
2014    9       17     8  54    7.28   377.2   10.9      41.380
2014    9       17     8  59    7.29   377.3   10.9      41.410
2014    9       17     9   4    7.29   377.4   10.9      41.440
2014    9       17     9  10    7.29   377.6   10.9      41.472
2014    9       17     9  15    7.30   377.7   10.9      41.504
2014    9       17     9  20    7.30   377.8   10.9      41.536
2014    9       17     9  26    7.31   377.9   11.0      41.569
2014    9       17     9  31    7.31   378.1   11.0      41.603
2014    9       17     9  37    7.31   378.2   11.0      41.638
2014    9       17     9  42    7.32   378.3   11.0      41.673
2014    9       17     9  47    7.32   378.4   11.0      41.709
2014    9       17     9  53    7.32   378.6   11.0      41.745
2014    9       17     9  58    7.33   378.7   11.0      41.783
2014    9       17    10   3    7.33   378.8   11.0      41.821
2014    9       17    10   9    7.34   379.0   11.0      41.861
2014    9       17    10  14    7.34   379.1   11.0      41.900
2014    9       17    10  19    7.34   379.2   11.0      41.941
2014    9       17    10  25    7.35   379.4   11.0      41.983
2014    9       17    10  30    7.35   379.5   11.0      42.025
2014    9       17    10  35    7.35   379.6   11.0      42.068
2014    9       17    10  41    7.36   379.8   11.0      42.111
2014    9       17    10  46    7.36   379.9   11.0      42.156
2014    9       17    10  51    7.37   380.1   11.0      42.201
2014    9       17    10  57    7.37   380.2   11.0      42.247
2014    9       17    11   2    7.37   380.3   11.0      42.293
2014    9       17    11   7    7.38   380.5   11.0      42.340
2014    9       17    11  13    7.38   380.6   11.0      42.388
2014    9       17    11  18    7.38   380.8   11.0      42.437
2014    9       17    11  24    7.39   380.9   11.0      42.485
2014    9       17    11  29    7.39   381.1   11.0      42.535
2014    9       17    11  34    7.40   381.3   11.0      42.584
2014    9       17    11  40    7.40   381.4   11.0      42.634
2014    9       17    11  45    7.40   381.6   11.0      42.684
2014    9       17    11  50    7.41   381.7   11.0      42.734
2014    9       17    11  56    7.41   381.9   11.0      42.784
2014    9       17    12   1    7.41   382.1   11.0      42.834
2014    9       17    12   6    7.42   382.2   11.0      42.884
2014    9       17    12  12    7.42   382.4   11.0      42.933
2014    9       17    12  17    7.43   382.6   11.0      42.983
2014    9       17    12  22    7.43   382.7   11.0      43.031
2014    9       17    12  28    7.43   382.9   11.0      43.079
2014    9       17    12  33    7.44   383.1   11.0      43.126
2014    9       17    12  38    7.44   383.3   11.0      43.172
2014    9       17    12  44    7.44   383.4   11.0      43.218
2014    9       17    12  49    7.45   383.6   11.0      43.264
2014    9       17    12  54    7.45   383.8   11.0      43.309
2014    9       17    13   0    7.45   383.9   11.0      43.353
2014    9       17    13   5    7.46   384.1   11.0      43.397
2014    9       17    13  11    7.46   384.3   11.0      43.440
2014    9       17    13  16    7.46   384.5   11.0      43.483
2014    9       17    13  21    7.47   384.6   11.0      43.526
2014    9       17    13  27    7.47   384.8   11.0      43.568
2014    9       17    13  32    7.47   385.0   11.0      43.609
2014    9       17    13  37    7.47   385.1   11.0      43.650
2014    9       17    13  43    7.48   385.3   11.0      43.691
2014    9       17    13  48    7.48   385.5   11.0      43.730
2014    9       17    13  53    7.48   385.7   11.0      43.770
2014    9       17    13  59    7.49   385.9   11.0      43.809
2014    9       17    14   4    7.49   386.0   11.0      43.847
2014    9       17    14   9    7.49   386.2   11.0      43.885
2014    9       17    14  15    7.49   386.4   11.0      43.922
2014    9       17    14  20    7.50   386.6   11.0      43.958
2014    9       17    14  25    7.50   386.7   11.0      43.994
2014    9       17    14  31    7.50   386.9   11.0      44.030
2014    9       17    14  36    7.51   387.1   11.0      44.065
2014    9       17    14  42    7.51   387.3   11.0      44.099
2014    9       17    14  47    7.51   387.4   11.0      44.133
2014    9       17    14  52    7.51   387.6   11.0      44.166
2014    9       17    14  58    7.52   387.8   11.0      44.199
2014    9       17    15   3    7.52   388.0   11.0      44.232
2014    9       17    15   8    7.52   388.2   11.0      44.264
2014    9       17    15  14    7.52   388.3   11.0      44.295
2014    9       17    15  19    7.53   388.5   11.0      44.326
2014    9       17    15  24    7.53   388.7   11.0      44.357
2014    9       17    15  30    7.53   388.9   11.0      44.387
2014    9       17    15  35    7.53   389.0   10.9      44.417
2014    9       17    15  40    7.54   389.2   10.9      44.447
2014    9       17    15  46    7.54   389.4   10.9      44.476
2014    9       17    15  51    7.54   389.6   10.9      44.505
2014    9       17    15  56    7.54   389.8   10.9      44.534
2014    9       17    16   2    7.55   389.9   10.9      44.562
2014    9       17    16   7    7.55   390.1   10.9      44.591
2014    9       17    16  12    7.55   390.3   10.9      44.619
2014    9       17    16  18    7.55   390.5   10.9      44.647
2014    9       17    16  23    7.56   390.6   10.9      44.675
2014    9       17    16  29    7.56   390.8   10.9      44.703
2014    9       17    16  34    7.56   391.0   10.9      44.731
2014    9       17    16  39    7.56   391.2   10.9      44.759
2014    9       17    16  45    7.56   391.4   10.9      44.787
2014    9       17    16  50    7.57   391.5   10.9      44.815
2014    9       17    16  55    7.57   391.7   10.9      44.843
2014    9       17    17   1    7.57   391.9   10.9      44.871
2014    9       17    17   6    7.57   392.1   10.8      44.900
2014    9       17    17  11    7.58   392.2   10.8      44.929
2014    9       17    17  17    7.58   392.4   10.8      44.958
2014    9       17    17  22    7.58   392.6   10.8      44.987
2014    9       17    17  27    7.58   392.8   10.8      45.018
2014    9       17    17  33    7.59   392.9   10.8      45.048
2014    9       17    17  38    7.59   393.1   10.8      45.078
2014    9       17    17  43    7.59   393.3   10.8      45.109
2014    9       17    17  49    7.59   393.5   10.8      45.140
2014    9       17    17  54    7.60   393.7   10.8      45.173
2014    9       17    18   0    7.60   393.8   10.8      45.206
2014    9       17    18   5    7.60   394.0   10.8      45.241
2014    9       17    18  10    7.60   394.2   10.8      45.276
2014    9       17    18  16    7.61   394.4   10.8      45.312
2014    9       17    18  21    7.61   394.6   10.8      45.349
2014    9       17    18  26    7.61   394.8   10.8      45.387
2014    9       17    18  32    7.62   395.0   10.8      45.426
2014    9       17    18  37    7.62   395.2   10.8      45.465
2014    9       17    18  42    7.62   395.4   10.8      45.504
2014    9       17    18  48    7.62   395.6   10.8      45.543
2014    9       17    18  53    7.63   395.8   10.8      45.582
2014    9       17    18  58    7.63   396.0   10.8      45.620
2014    9       17    19   4    7.63   396.2   10.8      45.658
2014    9       17    19   9    7.63   396.4   10.8      45.696
2014    9       17    19  14    7.64   396.6   10.8      45.733
2014    9       17    19  20    7.64   396.8   10.8      45.771
2014    9       17    19  25    7.64   397.0   10.8      45.808
2014    9       17    19  30    7.64   397.2   10.8      45.844
2014    9       17    19  36    7.65   397.4   10.8      45.881
2014    9       17    19  41    7.65   397.6   10.7      45.917
2014    9       17    19  47    7.65   397.8   10.7      45.953
2014    9       17    19  52    7.65   398.0   10.7      45.989
2014    9       17    19  57    7.65   398.2   10.7      46.025
2014    9       17    20   3    7.66   398.4   10.7      46.061
2014    9       17    20   8    7.66   398.6   10.7      46.097
2014    9       17    20  13    7.66   398.8   10.7      46.133
2014    9       17    20  19    7.66   399.0   10.7      46.169
2014    9       17    20  24    7.67   399.2   10.7      46.206
2014    9       17    20  29    7.67   399.4   10.7      46.242
2014    9       17    20  35    7.67   399.6   10.7      46.279
2014    9       17    20  40    7.67   399.8   10.7      46.316
2014    9       17    20  45    7.67   400.0   10.7      46.353
2014    9       17    20  51    7.68   400.2   10.7      46.390
2014    9       17    20  56    7.68   400.4   10.7      46.426
2014    9       17    21   1    7.68   400.6   10.7      46.463
2014    9       17    21   7    7.68   400.8   10.7      46.500
2014    9       17    21  12    7.68   401.0   10.7      46.537
2014    9       17    21  17    7.69   401.3   10.7      46.573
2014    9       17    21  23    7.69   401.5   10.7      46.610
2014    9       17    21  28    7.69   401.7   10.7      46.647
2014    9       17    21  34    7.69   401.9   10.7      46.684
2014    9       17    21  39    7.69   402.1   10.7      46.721
2014    9       17    21  44    7.69   402.3   10.6      46.757
2014    9       17    21  50    7.70   402.5   10.6      46.794
2014    9       17    21  55    7.70   402.8   10.6      46.831
2014    9       17    22   0    7.70   403.0   10.6      46.868
2014    9       17    22   6    7.70   403.2   10.6      46.904
2014    9       17    22  11    7.70   403.4   10.6      46.940
2014    9       17    22  16    7.70   403.7   10.6      46.976
2014    9       17    22  22    7.71   403.9   10.6      47.011
2014    9       17    22  27    7.71   404.1   10.6      47.045
2014    9       17    22  32    7.71   404.3   10.6      47.079
2014    9       17    22  38    7.71   404.5   10.6      47.112
2014    9       17    22  43    7.71   404.8   10.6      47.145
2014    9       17    22  48    7.71   405.0   10.6      47.177
2014    9       17    22  54    7.71   405.2   10.6      47.209
2014    9       17    22  59    7.72   405.4   10.5      47.239
2014    9       17    23   5    7.72   405.7   10.5      47.270
2014    9       17    23  10    7.72   405.9   10.5      47.300
2014    9       17    23  15    7.72   406.1   10.5      47.329
2014    9       17    23  21    7.72   406.3   10.5      47.358
2014    9       17    23  26    7.72   406.6   10.5      47.386
2014    9       17    23  31    7.72   406.8   10.5      47.414
2014    9       17    23  37    7.72   407.0   10.5      47.442
2014    9       17    23  42    7.72   407.3   10.5      47.469
2014    9       17    23  47    7.72   407.5   10.5      47.496
2014    9       17    23  53    7.73   407.7   10.4      47.522
2014    9       17    23  58    7.73   407.9   10.4      47.548
2014    9       18     0   3    7.73   408.1   10.4      47.573
2014    9       18     0   9    7.73   408.4   10.4      47.596
2014    9       18     0  14    7.73   408.6   10.4      47.619
2014    9       18     0  19    7.73   408.8   10.4      47.642
2014    9       18     0  25    7.73   409.0   10.4      47.665
2014    9       18     0  30    7.73   409.2   10.4      47.687
2014    9       18     0  36    7.73   409.5   10.4      47.709
2014    9       18     0  41    7.73   409.7   10.3      47.731
2014    9       18     0  46    7.73   409.9   10.3      47.752
2014    9       18     0  52    7.73   410.1   10.3      47.773
2014    9       18     0  57    7.73   410.3   10.3      47.794
2014    9       18     1   2    7.73   410.6   10.3      47.815
2014    9       18     1   8    7.73   410.8   10.3      47.835
2014    9       18     1  13    7.73   411.0   10.3      47.855
2014    9       18     1  18    7.73   411.2   10.3      47.875
2014    9       18     1  24    7.73   411.4   10.3      47.894
2014    9       18     1  29    7.73   411.7   10.2      47.913
2014    9       18     1  34    7.73   411.9   10.2      47.932
2014    9       18     1  40    7.73   412.1   10.2      47.950
2014    9       18     1  45    7.73   412.3   10.2      47.968
2014    9       18     1  50    7.73   412.5   10.2      47.986
2014    9       18     1  56    7.73   412.7   10.2      48.004
2014    9       18     2   1    7.73   413.0   10.2      48.022
2014    9       18     2   6    7.73   413.2   10.2      48.039
2014    9       18     2  12    7.73   413.4   10.2      48.057
2014    9       18     2  17    7.73   413.6   10.1      48.075
2014    9       18     2  23    7.73   413.8   10.1      48.094
2014    9       18     2  28    7.73   414.0   10.1      48.112
2014    9       18     2  33    7.73   414.2   10.1      48.131
2014    9       18     2  39    7.73   414.5   10.1      48.151
2014    9       18     2  44    7.73   414.7   10.1      48.170
2014    9       18     2  49    7.73   414.9   10.1      48.191
2014    9       18     2  55    7.73   415.1   10.1      48.211
2014    9       18     3   0    7.73   415.4   10.1      48.232
2014    9       18     3   5    7.73   415.6   10.0      48.254
2014    9       18     3  11    7.73   415.8   10.0      48.275
2014    9       18     3  16    7.73   416.1   10.0      48.297
2014    9       18     3  21    7.73   416.3   10.0      48.319
2014    9       18     3  27    7.73   416.5   10.0      48.340
2014    9       18     3  32    7.73   416.7   10.0      48.362
2014    9       18     3  37    7.73   417.0   10.0      48.383
2014    9       18     3  43    7.73   417.2   10.0      48.404
2014    9       18     3  48    7.73   417.4   10.0      48.426
2014    9       18     3  53    7.73   417.6   10.0      48.448
2014    9       18     3  59    7.73   417.9   10.0      48.470
2014    9       18     4   4    7.73   418.1    9.9      48.492
2014    9       18     4  10    7.73   418.3    9.9      48.514
2014    9       18     4  15    7.73   418.5    9.9      48.537
2014    9       18     4  20    7.73   418.8    9.9      48.560
2014    9       18     4  26    7.73   419.0    9.9      48.583
2014    9       18     4  31    7.73   419.2    9.9      48.606
2014    9       18     4  36    7.73   419.4    9.9      48.630
2014    9       18     4  42    7.73   419.7    9.9      48.654
2014    9       18     4  47    7.73   419.9    9.9      48.678
2014    9       18     4  52    7.73   420.1    9.9      48.703
2014    9       18     4  58    7.72   420.3    9.8      48.728
2014    9       18     5   3    7.72   420.6    9.8      48.753
2014    9       18     5   8    7.72   420.8    9.8      48.779
2014    9       18     5  14    7.72   421.0    9.8      48.805
2014    9       18     5  19    7.72   421.2    9.8      48.831
2014    9       18     5  24    7.72   421.5    9.8      48.857
2014    9       18     5  30    7.72   421.7    9.8      48.883
2014    9       18     5  35    7.72   421.9    9.8      48.909
2014    9       18     5  41    7.72   422.1    9.8      48.935
2014    9       18     5  46    7.72   422.4    9.8      48.962
2014    9       18     5  51    7.72   422.6    9.7      48.987
2014    9       18     5  57    7.72   422.8    9.7      49.013
2014    9       18     6   2    7.71   423.1    9.7      49.039
2014    9       18     6   7    7.71   423.3    9.7      49.065
2014    9       18     6  13    7.71   423.5    9.7      49.090
2014    9       18     6  18    7.71   423.7    9.7      49.116
2014    9       18     6  23    7.71   424.0    9.7      49.142
2014    9       18     6  29    7.71   424.2    9.7      49.167
2014    9       18     6  34    7.71   424.4    9.7      49.192
2014    9       18     6  39    7.71   424.6    9.7      49.218
2014    9       18     6  45    7.71   424.9    9.6      49.243
2014    9       18     6  50    7.70   425.1    9.6      49.268
2014    9       18     6  55    7.70   425.3    9.6      49.293
2014    9       18     7   1    7.70   425.5    9.6      49.318
2014    9       18     7   6    7.70   425.8    9.6      49.343
2014    9       18     7  12    7.70   426.0    9.6      49.368
2014    9       18     7  17    7.70   426.2    9.6      49.393
2014    9       18     7  22    7.70   426.4    9.6      49.417
2014    9       18     7  28    7.69   426.7    9.6      49.442
2014    9       18     7  33    7.69   426.9    9.5      49.466
2014    9       18     7  38    7.69   427.1    9.5      49.490
2014    9       18     7  44    7.69   427.4    9.5      49.514
2014    9       18     7  49    7.69   427.6    9.5      49.538
2014    9       18     7  54    7.69   427.8    9.5      49.562
2014    9       18     8   0    7.69   428.1    9.5      49.586
2014    9       18     8   5    7.68   428.3    9.5      49.609
2014    9       18     8  10    7.68   428.5    9.5      49.632
2014    9       18     8  16    7.68   428.8    9.5      49.655
2014    9       18     8  21    7.68   429.0    9.4      49.677
2014    9       18     8  26    7.68   429.2    9.4      49.699
2014    9       18     8  32    7.68   429.5    9.4      49.720
2014    9       18     8  37    7.67   429.7    9.4      49.740
2014    9       18     8  42    7.67   429.9    9.4      49.760
2014    9       18     8  48    7.67   430.2    9.4      49.780
2014    9       18     8  53    7.67   430.4    9.4      49.799
2014    9       18     8  59    7.67   430.6    9.4      49.817
2014    9       18     9   4    7.66   430.9    9.3      49.836
2014    9       18     9   9    7.66   431.1    9.3      49.853
2014    9       18     9  15    7.66   431.3    9.3      49.871
2014    9       18     9  20    7.66   431.6    9.3      49.888
2014    9       18     9  25    7.66   431.8    9.3      49.906
2014    9       18     9  31    7.65   432.0    9.3      49.923
2014    9       18     9  36    7.65   432.3    9.3      49.941
2014    9       18     9  41    7.65   432.5    9.3      49.959
2014    9       18     9  47    7.65   432.7    9.2      49.977
2014    9       18     9  52    7.65   433.0    9.2      49.995
2014    9       18     9  57    7.64   433.2    9.2      50.013
2014    9       18    10   3    7.64   433.5    9.2      50.031
2014    9       18    10   8    7.64   433.7    9.2      50.050
2014    9       18    10  13    7.64   433.9    9.2      50.069
2014    9       18    10  19    7.64   434.2    9.2      50.088
2014    9       18    10  24    7.63   434.4    9.2      50.107
2014    9       18    10  29    7.63   434.7    9.1      50.125
2014    9       18    10  35    7.63   434.9    9.1      50.144
2014    9       18    10  40    7.63   435.2    9.1      50.162
2014    9       18    10  46    7.62   435.5    9.1      50.179
2014    9       18    10  51    7.62   435.7    9.1      50.196
2014    9       18    10  56    7.62   436.0    9.1      50.213
2014    9       18    11   2    7.62   436.2    9.1      50.229
2014    9       18    11   7    7.61   436.5    9.1      50.244
2014    9       18    11  12    7.61   436.7    9.0      50.259
2014    9       18    11  18    7.61   437.0    9.0      50.274
2014    9       18    11  23    7.60   437.2    9.0      50.288
2014    9       18    11  28    7.60   437.4    9.0      50.301
2014    9       18    11  34    7.60   437.7    9.0      50.315
2014    9       18    11  39    7.59   437.9    9.0      50.327
2014    9       18    11  44    7.59   438.2    9.0      50.339
2014    9       18    11  50    7.59   438.4    8.9      50.351
2014    9       18    11  55    7.58   438.7    8.9      50.362
2014    9       18    12   0    7.58   438.9    8.9      50.372
2014    9       18    12   6    7.58   439.2    8.9      50.382
2014    9       18    12  11    7.57   439.4    8.9      50.392
2014    9       18    12  16    7.57   439.6    8.9      50.400
2014    9       18    12  22    7.57   439.9    8.9      50.408
2014    9       18    12  27    7.56   440.1    8.8      50.415
2014    9       18    12  33    7.56   440.3    8.8      50.422
2014    9       18    12  38    7.55   440.5    8.8      50.428
2014    9       18    12  43    7.55   440.8    8.8      50.434
2014    9       18    12  49    7.55   441.0    8.8      50.440
2014    9       18    12  54    7.54   441.2    8.8      50.447
2014    9       18    12  59    7.54   441.4    8.8      50.454
2014    9       18    13   5    7.54   441.6    8.7      50.462
2014    9       18    13  10    7.53   441.8    8.7      50.470
2014    9       18    13  15    7.53   442.0    8.7      50.478
2014    9       18    13  21    7.52   442.2    8.7      50.486
2014    9       18    13  26    7.52   442.4    8.7      50.496
2014    9       18    13  31    7.52   442.6    8.7      50.507
2014    9       18    13  37    7.51   442.8    8.7      50.519
2014    9       18    13  42    7.51   443.1    8.7      50.532
2014    9       18    13  47    7.51   443.3    8.7      50.546
2014    9       18    13  53    7.50   443.5    8.6      50.561
2014    9       18    13  58    7.50   443.7    8.6      50.577
2014    9       18    14   4    7.50   443.9    8.6      50.593
2014    9       18    14   9    7.49   444.1    8.6      50.609
2014    9       18    14  14    7.49   444.3    8.6      50.625
2014    9       18    14  20    7.49   444.6    8.6      50.641
2014    9       18    14  25    7.48   444.8    8.6      50.656
2014    9       18    14  30    7.48   445.0    8.6      50.672
2014    9       18    14  36    7.48   445.2    8.6      50.689
2014    9       18    14  41    7.47   445.4    8.5      50.706
2014    9       18    14  46    7.47   445.6    8.5      50.723
2014    9       18    14  52    7.47   445.9    8.5      50.741
2014    9       18    14  57    7.46   446.1    8.5      50.759
2014    9       18    15   2    7.46   446.3    8.5      50.777
2014    9       18    15   8    7.45   446.6    8.5      50.795
2014    9       18    15  13    7.45   446.8    8.5      50.813
2014    9       18    15  18    7.45   447.0    8.5      50.830
2014    9       18    15  24    7.44   447.3    8.4      50.846
2014    9       18    15  29    7.44   447.5    8.4      50.862
2014    9       18    15  35    7.43   447.7    8.4      50.876
2014    9       18    15  40    7.43   447.9    8.4      50.890
2014    9       18    15  45    7.43   448.1    8.4      50.903
2014    9       18    15  51    7.42   448.4    8.4      50.915
2014    9       18    15  56    7.42   448.6    8.4      50.926
2014    9       18    16   1    7.41   448.8    8.4      50.937
2014    9       18    16   7    7.41   449.0    8.3      50.948
2014    9       18    16  12    7.40   449.2    8.3      50.958
2014    9       18    16  17    7.40   449.4    8.3      50.968
2014    9       18    16  23    7.39   449.7    8.3      50.977
2014    9       18    16  28    7.39   449.9    8.3      50.987
2014    9       18    16  33    7.39   450.1    8.3      50.996
2014    9       18    16  39    7.38   450.3    8.3      51.004
2014    9       18    16  44    7.38   450.5    8.2      51.013
2014    9       18    16  49    7.37   450.8    8.2      51.020
2014    9       18    16  55    7.37   451.0    8.2      51.028
2014    9       18    17   0    7.36   451.2    8.2      51.034
2014    9       18    17   5    7.36   451.5    8.2      51.041
2014    9       18    17  11    7.35   451.7    8.2      51.046
2014    9       18    17  16    7.35   451.9    8.2      51.050
2014    9       18    17  22    7.34   452.1    8.2      51.054
2014    9       18    17  27    7.34   452.4    8.1      51.058
2014    9       18    17  32    7.33   452.6    8.1      51.060
2014    9       18    17  38    7.33   452.8    8.1      51.062
2014    9       18    17  43    7.32   453.0    8.1      51.063
2014    9       18    17  48    7.32   453.2    8.1      51.064
2014    9       18    17  54    7.31   453.4    8.1      51.064
2014    9       18    17  59    7.31   453.6    8.1      51.063
2014    9       18    18   4    7.30   453.9    8.0      51.062
2014    9       18    18  10    7.30   454.1    8.0      51.061
2014    9       18    18  15    7.29   454.3    8.0      51.060
2014    9       18    18  20    7.29   454.5    8.0      51.059
2014    9       18    18  26    7.28   454.7    8.0      51.057
2014    9       18    18  31    7.28   454.9    8.0      51.055
2014    9       18    18  36    7.27   455.1    8.0      51.053
2014    9       18    18  42    7.27   455.3    7.9      51.051
2014    9       18    18  47    7.26   455.6    7.9      51.048
2014    9       18    18  52    7.26   455.8    7.9      51.045
2014    9       18    18  58    7.25   456.0    7.9      51.040
2014    9       18    19   3    7.25   456.2    7.9      51.035
2014    9       18    19   9    7.24   456.4    7.9      51.029
2014    9       18    19  14    7.24   456.6    7.9      51.021
2014    9       18    19  19    7.23   456.9    7.8      51.013
2014    9       18    19  25    7.22   457.1    7.8      51.003
2014    9       18    19  30    7.22   457.3    7.8      50.992
2014    9       18    19  35    7.21   457.5    7.8      50.980
2014    9       18    19  41    7.21   457.6    7.8      50.967
2014    9       18    19  46    7.20   457.8    7.8      50.952
2014    9       18    19  51    7.20   458.0    7.7      50.936
2014    9       18    19  57    7.19   458.2    7.7      50.919
2014    9       18    20   2    7.18   458.3    7.7      50.903
2014    9       18    20   7    7.18   458.5    7.7      50.886
2014    9       18    20  13    7.17   458.7    7.7      50.869
2014    9       18    20  18    7.17   458.8    7.7      50.853
2014    9       18    20  23    7.16   459.0    7.7      50.837
2014    9       18    20  29    7.16   459.2    7.6      50.821
2014    9       18    20  34    7.15   459.3    7.6      50.805
2014    9       18    20  40    7.14   459.5    7.6      50.791
2014    9       18    20  45    7.14   459.7    7.6      50.777
2014    9       18    20  50    7.13   459.9    7.6      50.764
2014    9       18    20  56    7.13   460.0    7.6      50.752
2014    9       18    21   1    7.12   460.2    7.6      50.740
2014    9       18    21   6    7.12   460.4    7.5      50.729
2014    9       18    21  12    7.11   460.6    7.5      50.719
2014    9       18    21  17    7.11   460.7    7.5      50.708
2014    9       18    21  22    7.10   460.9    7.5      50.696
2014    9       18    21  28    7.09   461.1    7.5      50.684
2014    9       18    21  33    7.09   461.2    7.5      50.672
2014    9       18    21  38    7.08   461.4    7.5      50.660
2014    9       18    21  44    7.08   461.5    7.5      50.648
2014    9       18    21  49    7.07   461.7    7.4      50.636
2014    9       18    21  54    7.07   461.9    7.4      50.625
2014    9       18    22   0    7.06   462.1    7.4      50.615
2014    9       18    22   5    7.06   462.3    7.4      50.605
2014    9       18    22  11    7.05   462.4    7.4      50.595
2014    9       18    22  16    7.04   462.6    7.4      50.586
2014    9       18    22  21    7.04   462.8    7.4      50.576
2014    9       18    22  27    7.03   463.0    7.4      50.566
2014    9       18    22  32    7.03   463.2    7.3      50.554
2014    9       18    22  37    7.02   463.3    7.3      50.542
2014    9       18    22  43    7.01   463.5    7.3      50.528
2014    9       18    22  48    7.01   463.7    7.3      50.513
2014    9       18    22  53    7.00   463.8    7.3      50.496
2014    9       18    22  59    7.00   464.0    7.3      50.480
2014    9       18    23   4    6.99   464.1    7.3      50.462
2014    9       18    23   9    6.98   464.2    7.3      50.445
2014    9       18    23  15    6.98   464.4    7.2      50.426
2014    9       18    23  20    6.97   464.5    7.2      50.408
2014    9       18    23  25    6.97   464.7    7.2      50.390
2014    9       18    23  31    6.96   464.8    7.2      50.371
2014    9       18    23  36    6.95   464.9    7.2      50.353
2014    9       18    23  41    6.95   465.1    7.2      50.334
2014    9       18    23  47    6.94   465.2    7.2      50.315
2014    9       18    23  52    6.93   465.3    7.2      50.296
2014    9       18    23  58    6.93   465.5    7.1      50.277
2014    9       19     0   3    6.92   465.6    7.1      50.257
2014    9       19     0   8    6.92   465.7    7.1      50.236
2014    9       19     0  14    6.91   465.9    7.1      50.216
2014    9       19     0  19    6.90   466.0    7.1      50.195
2014    9       19     0  24    6.90   466.1    7.1      50.174
2014    9       19     0  30    6.89   466.3    7.1      50.153
2014    9       19     0  35    6.89   466.4    7.1      50.131
2014    9       19     0  40    6.88   466.5    7.1      50.109
2014    9       19     0  46    6.87   466.7    7.0      50.087
2014    9       19     0  51    6.87   466.8    7.0      50.064
2014    9       19     0  56    6.86   466.9    7.0      50.041
2014    9       19     1   2    6.86   467.1    7.0      50.018
2014    9       19     1   7    6.85   467.2    7.0      49.995
2014    9       19     1  12    6.84   467.3    7.0      49.972
2014    9       19     1  18    6.84   467.4    7.0      49.948
2014    9       19     1  23    6.83   467.5    7.0      49.924
2014    9       19     1  28    6.83   467.7    6.9      49.900
2014    9       19     1  34    6.82   467.8    6.9      49.876
2014    9       19     1  39    6.81   467.9    6.9      49.851
2014    9       19     1  45    6.81   468.0    6.9      49.826
2014    9       19     1  50    6.80   468.2    6.9      49.800
2014    9       19     1  55    6.79   468.3    6.9      49.774
2014    9       19     2   1    6.79   468.4    6.9      49.747
2014    9       19     2   6    6.78   468.5    6.9      49.720
2014    9       19     2  11    6.78   468.6    6.9      49.693
2014    9       19     2  17    6.77   468.7    6.8      49.665
2014    9       19     2  22    6.76   468.8    6.8      49.636
2014    9       19     2  27    6.76   468.9    6.8      49.608
2014    9       19     2  33    6.75   469.1    6.8      49.578
2014    9       19     2  38    6.74   469.2    6.8      49.548
2014    9       19     2  43    6.74   469.3    6.8      49.517
2014    9       19     2  49    6.73   469.4    6.8      49.487
2014    9       19     2  54    6.73   469.5    6.8      49.455
2014    9       19     2  59    6.72   469.5    6.8      49.423
2014    9       19     3   5    6.71   469.6    6.7      49.391
2014    9       19     3  10    6.71   469.7    6.7      49.359
2014    9       19     3  15    6.70   469.8    6.7      49.326
2014    9       19     3  21    6.70   469.9    6.7      49.294
2014    9       19     3  26    6.69   470.0    6.7      49.261
2014    9       19     3  32    6.68   470.1    6.7      49.228
2014    9       19     3  37    6.68   470.2    6.7      49.196
2014    9       19     3  42    6.67   470.2    6.7      49.164
2014    9       19     3  48    6.66   470.3    6.7      49.132
2014    9       19     3  53    6.66   470.4    6.6      49.100
2014    9       19     3  58    6.65   470.5    6.6      49.068
2014    9       19     4   4    6.65   470.6    6.6      49.037
2014    9       19     4   9    6.64   470.7    6.6      49.005
2014    9       19     4  14    6.63   470.8    6.6      48.974
2014    9       19     4  20    6.63   470.8    6.6      48.942
2014    9       19     4  25    6.62   470.9    6.6      48.910
2014    9       19     4  30    6.62   471.0    6.6      48.878
2014    9       19     4  36    6.61   471.1    6.6      48.846
2014    9       19     4  41    6.60   471.2    6.6      48.813
2014    9       19     4  46    6.60   471.2    6.6      48.779
2014    9       19     4  52    6.59   471.3    6.5      48.746
2014    9       19     4  57    6.59   471.4    6.5      48.712
2014    9       19     5   3    6.58   471.5    6.5      48.678
2014    9       19     5   8    6.57   471.5    6.5      48.644
2014    9       19     5  13    6.57   471.6    6.5      48.610
2014    9       19     5  19    6.56   471.7    6.5      48.575
2014    9       19     5  24    6.56   471.7    6.5      48.540
2014    9       19     5  29    6.55   471.8    6.5      48.505
2014    9       19     5  35    6.54   471.9    6.5      48.469
2014    9       19     5  40    6.54   471.9    6.5      48.434
2014    9       19     5  45    6.53   472.0    6.4      48.398
2014    9       19     5  51    6.53   472.0    6.4      48.362
2014    9       19     5  56    6.52   472.1    6.4      48.326
2014    9       19     6   1    6.51   472.1    6.4      48.290
2014    9       19     6   7    6.51   472.2    6.4      48.254
2014    9       19     6  12    6.50   472.2    6.4      48.218
2014    9       19     6  17    6.50   472.3    6.4      48.182
2014    9       19     6  23    6.49   472.3    6.4      48.146
2014    9       19     6  28    6.48   472.3    6.4      48.111
2014    9       19     6  34    6.48   472.4    6.4      48.075
2014    9       19     6  39    6.47   472.4    6.4      48.039
2014    9       19     6  44    6.47   472.4    6.4      48.004
2014    9       19     6  50    6.46   472.5    6.3      47.968
2014    9       19     6  55    6.46   472.5    6.3      47.932
2014    9       19     7   0    6.45   472.5    6.3      47.897
2014    9       19     7   6    6.44   472.6    6.3      47.861
2014    9       19     7  11    6.44   472.6    6.3      47.825
2014    9       19     7  16    6.43   472.6    6.3      47.789
2014    9       19     7  22    6.43   472.6    6.3      47.754
2014    9       19     7  27    6.42   472.7    6.3      47.718
2014    9       19     7  32    6.42   472.7    6.3      47.682
2014    9       19     7  38    6.41   472.7    6.3      47.646
2014    9       19     7  43    6.40   472.8    6.3      47.610
2014    9       19     7  48    6.40   472.8    6.3      47.574
2014    9       19     7  54    6.39   472.8    6.3      47.538
2014    9       19     7  59    6.39   472.9    6.3      47.501
2014    9       19     8   5    6.38   472.9    6.2      47.465
2014    9       19     8  10    6.38   472.9    6.2      47.428
2014    9       19     8  15    6.37   472.9    6.2      47.391
2014    9       19     8  21    6.37   473.0    6.2      47.353
2014    9       19     8  26    6.36   473.0    6.2      47.316
2014    9       19     8  31    6.35   473.0    6.2      47.278
2014    9       19     8  37    6.35   473.0    6.2      47.240
2014    9       19     8  42    6.34   473.1    6.2      47.201
2014    9       19     8  47    6.34   473.1    6.2      47.162
2014    9       19     8  53    6.33   473.1    6.2      47.124
2014    9       19     8  58    6.33   473.1    6.2      47.085
2014    9       19     9   3    6.32   473.1    6.2      47.046
2014    9       19     9   9    6.32   473.1    6.2      47.007
2014    9       19     9  14    6.31   473.1    6.2      46.968
2014    9       19     9  19    6.30   473.2    6.1      46.929
2014    9       19     9  25    6.30   473.2    6.1      46.890
2014    9       19     9  30    6.29   473.2    6.1      46.850
2014    9       19     9  35    6.29   473.2    6.1      46.811
2014    9       19     9  41    6.28   473.2    6.1      46.772
2014    9       19     9  46    6.28   473.2    6.1      46.732
2014    9       19     9  52    6.27   473.2    6.1      46.693
2014    9       19     9  57    6.27   473.2    6.1      46.653
2014    9       19    10   2    6.26   473.2    6.1      46.613
2014    9       19    10   8    6.26   473.2    6.1      46.574
2014    9       19    10  13    6.25   473.2    6.1      46.534
2014    9       19    10  18    6.25   473.2    6.1      46.494
2014    9       19    10  24    6.24   473.2    6.1      46.454
2014    9       19    10  29    6.23   473.2    6.1      46.414
2014    9       19    10  34    6.23   473.2    6.1      46.374
2014    9       19    10  40    6.22   473.2    6.0      46.334
2014    9       19    10  45    6.22   473.2    6.0      46.294
2014    9       19    10  50    6.21   473.2    6.0      46.254
2014    9       19    10  56    6.21   473.2    6.0      46.214
2014    9       19    11   1    6.20   473.2    6.0      46.174
2014    9       19    11   7    6.20   473.2    6.0      46.134
2014    9       19    11  12    6.19   473.2    6.0      46.094
2014    9       19    11  17    6.19   473.2    6.0      46.054
2014    9       19    11  23    6.18   473.1    6.0      46.014
2014    9       19    11  28    6.18   473.1    6.0      45.975
2014    9       19    11  33    6.17   473.1    6.0      45.935
2014    9       19    11  39    6.17   473.1    6.0      45.896
2014    9       19    11  44    6.16   473.1    6.0      45.857
2014    9       19    11  49    6.16   473.0    6.0      45.818
2014    9       19    11  55    6.15   473.0    6.0      45.779
2014    9       19    12   0    6.15   473.0    6.0      45.740
2014    9       19    12   5    6.14   473.0    6.0      45.701
2014    9       19    12  11    6.14   472.9    6.0      45.663
2014    9       19    12  16    6.13   472.9    6.0      45.624
2014    9       19    12  21    6.13   472.9    6.0      45.586
2014    9       19    12  27    6.12   472.9    5.9      45.548
2014    9       19    12  32    6.12   472.8    5.9      45.510
2014    9       19    12  38    6.11   472.8    5.9      45.472
2014    9       19    12  43    6.11   472.8    5.9      45.434
2014    9       19    12  48    6.11   472.7    5.9      45.396
2014    9       19    12  54    6.10   472.7    5.9      45.358
2014    9       19    12  59    6.10   472.7    5.9      45.321
2014    9       19    13   4    6.09   472.6    5.9      45.282
2014    9       19    13  10    6.09   472.6    5.9      45.245
2014    9       19    13  15    6.08   472.6    5.9      45.207
2014    9       19    13  20    6.08   472.5    5.9      45.169
2014    9       19    13  26    6.07   472.5    5.9      45.130
2014    9       19    13  31    6.07   472.5    5.9      45.092
2014    9       19    13  36    6.06   472.4    5.9      45.054
2014    9       19    13  42    6.06   472.4    5.9      45.015
2014    9       19    13  47    6.05   472.4    5.9      44.977
2014    9       19    13  52    6.05   472.3    5.9      44.938
2014    9       19    13  58    6.05   472.3    5.9      44.899
2014    9       19    14   3    6.04   472.2    5.9      44.860
2014    9       19    14   9    6.04   472.2    5.9      44.820
2014    9       19    14  14    6.03   472.2    5.9      44.781
2014    9       19    14  19    6.03   472.1    5.9      44.741
2014    9       19    14  25    6.02   472.1    5.9      44.702
2014    9       19    14  30    6.02   472.0    5.8      44.662
2014    9       19    14  35    6.01   472.0    5.8      44.621
2014    9       19    14  41    6.01   472.0    5.8      44.581
2014    9       19    14  46    6.01   471.9    5.8      44.541
2014    9       19    14  51    6.00   471.9    5.8      44.500
2014    9       19    14  57    6.00   471.8    5.8      44.459
2014    9       19    15   2    5.99   471.8    5.8      44.418
2014    9       19    15   7    5.99   471.7    5.8      44.377
2014    9       19    15  13    5.98   471.7    5.8      44.336
2014    9       19    15  18    5.98   471.6    5.8      44.294
2014    9       19    15  23    5.97   471.6    5.8      44.253
2014    9       19    15  29    5.97   471.5    5.8      44.211
2014    9       19    15  34    5.97   471.5    5.8      44.169
2014    9       19    15  40    5.96   471.4    5.8      44.126
2014    9       19    15  45    5.96   471.4    5.8      44.084
2014    9       19    15  50    5.95   471.3    5.8      44.041
2014    9       19    15  56    5.95   471.3    5.8      43.999
2014    9       19    16   1    5.94   471.2    5.8      43.956
2014    9       19    16   6    5.94   471.2    5.8      43.913
2014    9       19    16  12    5.94   471.1    5.8      43.870
2014    9       19    16  17    5.93   471.0    5.8      43.827
2014    9       19    16  22    5.93   471.0    5.8      43.783
2014    9       19    16  28    5.92   470.9    5.8      43.740
2014    9       19    16  33    5.92   470.8    5.8      43.697
2014    9       19    16  38    5.91   470.8    5.8      43.653
2014    9       19    16  44    5.91   470.7    5.7      43.610
2014    9       19    16  49    5.91   470.6    5.7      43.566
2014    9       19    16  54    5.90   470.6    5.7      43.523
2014    9       19    17   0    5.90   470.5    5.7      43.479
2014    9       19    17   5    5.89   470.4    5.7      43.436
2014    9       19    17  10    5.89   470.3    5.7      43.393
2014    9       19    17  16    5.89   470.2    5.7      43.349
2014    9       19    17  21    5.88   470.2    5.7      43.306
2014    9       19    17  27    5.88   470.1    5.7      43.263
2014    9       19    17  32    5.87   470.0    5.7      43.221
2014    9       19    17  37    5.87   469.9    5.7      43.178
2014    9       19    17  43    5.87   469.8    5.7      43.135
2014    9       19    17  48    5.86   469.8    5.7      43.093
2014    9       19    17  53    5.86   469.7    5.7      43.051
2014    9       19    17  59    5.85   469.6    5.7      43.009
2014    9       19    18   4    5.85   469.5    5.7      42.967
2014    9       19    18   9    5.85   469.4    5.7      42.925
2014    9       19    18  15    5.84   469.3    5.7      42.884
2014    9       19    18  20    5.84   469.2    5.7      42.842
2014    9       19    18  25    5.84   469.1    5.7      42.801
2014    9       19    18  31    5.83   469.0    5.7      42.760
2014    9       19    18  36    5.83   469.0    5.7      42.719
2014    9       19    18  42    5.83   468.9    5.7      42.678
2014    9       19    18  47    5.82   468.8    5.7      42.638
2014    9       19    18  52    5.82   468.7    5.7      42.597
2014    9       19    18  58    5.82   468.6    5.7      42.557
2014    9       19    19   3    5.81   468.5    5.7      42.517
2014    9       19    19   8    5.81   468.4    5.7      42.476
2014    9       19    19  14    5.81   468.3    5.7      42.436
2014    9       19    19  19    5.80   468.2    5.7      42.395
2014    9       19    19  24    5.80   468.1    5.7      42.355
2014    9       19    19  30    5.80   468.0    5.7      42.314
2014    9       19    19  35    5.79   467.9    5.7      42.274
2014    9       19    19  40    5.79   467.8    5.7      42.233
2014    9       19    19  46    5.79   467.7    5.7      42.193
2014    9       19    19  51    5.78   467.6    5.7      42.152
2014    9       19    19  56    5.78   467.5    5.7      42.111
2014    9       19    20   2    5.78   467.4    5.7      42.070
2014    9       19    20   7    5.77   467.3    5.7      42.029
2014    9       19    20  13    5.77   467.2    5.7      41.988
2014    9       19    20  18    5.77   467.1    5.7      41.947
2014    9       19    20  23    5.76   467.0    5.7      41.906
2014    9       19    20  29    5.76   466.9    5.7      41.865
2014    9       19    20  34    5.76   466.8    5.6      41.823
2014    9       19    20  39    5.76   466.7    5.6      41.782
2014    9       19    20  45    5.75   466.6    5.6      41.740
2014    9       19    20  50    5.75   466.5    5.6      41.699
2014    9       19    20  55    5.75   466.4    5.6      41.657
2014    9       19    21   1    5.74   466.3    5.6      41.615
2014    9       19    21   6    5.74   466.2    5.6      41.573
2014    9       19    21  11    5.74   466.1    5.6      41.531
2014    9       19    21  17    5.74   466.0    5.6      41.489
2014    9       19    21  22    5.73   465.9    5.6      41.447
2014    9       19    21  27    5.73   465.8    5.6      41.405
2014    9       19    21  33    5.73   465.7    5.6      41.363
2014    9       19    21  38    5.72   465.6    5.6      41.321
2014    9       19    21  44    5.72   465.5    5.6      41.279
2014    9       19    21  49    5.72   465.4    5.6      41.236
2014    9       19    21  54    5.72   465.3    5.6      41.194
2014    9       19    22   0    5.71   465.2    5.6      41.152
2014    9       19    22   5    5.71   465.1    5.6      41.109
2014    9       19    22  10    5.71   465.0    5.6      41.067
2014    9       19    22  16    5.71   464.9    5.6      41.025
2014    9       19    22  21    5.70   464.8    5.6      40.983
2014    9       19    22  26    5.70   464.7    5.6      40.941
2014    9       19    22  32    5.70   464.6    5.6      40.898
2014    9       19    22  37    5.69   464.5    5.6      40.856
2014    9       19    22  42    5.69   464.4    5.6      40.814
2014    9       19    22  48    5.69   464.3    5.6      40.772
2014    9       19    22  53    5.69   464.2    5.6      40.730
2014    9       19    22  58    5.68   464.1    5.6      40.688
2014    9       19    23   4    5.68   464.0    5.6      40.645
2014    9       19    23   9    5.68   463.9    5.6      40.603
2014    9       19    23  14    5.68   463.8    5.6      40.562
2014    9       19    23  20    5.67   463.7    5.6      40.520
2014    9       19    23  25    5.67   463.6    5.6      40.478
2014    9       19    23  31    5.67   463.5    5.6      40.436
2014    9       19    23  36    5.67   463.4    5.6      40.395
2014    9       19    23  41    5.66   463.3    5.6      40.353
2014    9       19    23  47    5.66   463.2    5.6      40.312
2014    9       19    23  52    5.66   463.1    5.6      40.270
2014    9       19    23  57    5.66   463.0    5.6      40.229
2014    9       20     0   3    5.65   462.9    5.6      40.188
2014    9       20     0   8    5.65   462.8    5.6      40.147
2014    9       20     0  13    5.65   462.7    5.6      40.107
2014    9       20     0  19    5.65   462.6    5.6      40.066
2014    9       20     0  24    5.65   462.5    5.6      40.025
2014    9       20     0  29    5.64   462.3    5.6      39.985
2014    9       20     0  35    5.64   462.2    5.6      39.945
2014    9       20     0  40    5.64   462.1    5.6      39.905
2014    9       20     0  45    5.64   462.0    5.6      39.865
2014    9       20     0  51    5.63   461.9    5.6      39.825
2014    9       20     0  56    5.63   461.8    5.6      39.785
2014    9       20     1   2    5.63   461.7    5.6      39.746
2014    9       20     1   7    5.63   461.6    5.6      39.706
2014    9       20     1  12    5.63   461.4    5.6      39.667
2014    9       20     1  18    5.62   461.3    5.6      39.628
2014    9       20     1  23    5.62   461.2    5.6      39.589
2014    9       20     1  28    5.62   461.1    5.6      39.550
2014    9       20     1  34    5.62   461.0    5.6      39.512
2014    9       20     1  39    5.62   460.9    5.6      39.473
2014    9       20     1  44    5.61   460.8    5.6      39.435
2014    9       20     1  50    5.61   460.6    5.6      39.396
2014    9       20     1  55    5.61   460.5    5.6      39.358
2014    9       20     2   0    5.61   460.4    5.6      39.320
2014    9       20     2   6    5.61   460.3    5.6      39.282
2014    9       20     2  11    5.60   460.1    5.6      39.244
2014    9       20     2  16    5.60   460.0    5.6      39.206
2014    9       20     2  22    5.60   459.9    5.6      39.169
2014    9       20     2  27    5.60   459.8    5.6      39.131
2014    9       20     2  33    5.60   459.6    5.6      39.093
2014    9       20     2  38    5.59   459.5    5.6      39.056
2014    9       20     2  43    5.59   459.4    5.6      39.019
2014    9       20     2  49    5.59   459.3    5.6      38.981
2014    9       20     2  54    5.59   459.1    5.6      38.944
2014    9       20     2  59    5.59   459.0    5.6      38.907
2014    9       20     3   5    5.58   458.9    5.6      38.870
2014    9       20     3  10    5.58   458.8    5.6      38.834
2014    9       20     3  15    5.58   458.6    5.6      38.797
2014    9       20     3  21    5.58   458.5    5.6      38.761
2014    9       20     3  26    5.58   458.4    5.6      38.724
2014    9       20     3  31    5.58   458.2    5.6      38.688
2014    9       20     3  37    5.57   458.1    5.6      38.652
2014    9       20     3  42    5.57   458.0    5.6      38.617
2014    9       20     3  47    5.57   457.8    5.6      38.581
2014    9       20     3  53    5.57   457.7    5.6      38.546
2014    9       20     3  58    5.57   457.6    5.6      38.511
2014    9       20     4   3    5.57   457.4    5.6      38.477
2014    9       20     4   9    5.56   457.3    5.6      38.442
2014    9       20     4  14    5.56   457.1    5.6      38.408
2014    9       20     4  20    5.56   457.0    5.6      38.374
2014    9       20     4  25    5.56   456.9    5.6      38.340
2014    9       20     4  30    5.56   456.7    5.6      38.306
2014    9       20     4  36    5.56   456.6    5.6      38.273
2014    9       20     4  41    5.56   456.5    5.6      38.239
2014    9       20     4  46    5.55   456.3    5.6      38.206
2014    9       20     4  52    5.55   456.2    5.6      38.173
2014    9       20     4  57    5.55   456.1    5.6      38.140
2014    9       20     5   2    5.55   455.9    5.6      38.107
2014    9       20     5   8    5.55   455.8    5.6      38.074
2014    9       20     5  13    5.55   455.6    5.6      38.041
2014    9       20     5  18    5.55   455.5    5.6      38.008
2014    9       20     5  24    5.55   455.4    5.6      37.975
2014    9       20     5  29    5.54   455.2    5.6      37.942
2014    9       20     5  34    5.54   455.1    5.6      37.909
2014    9       20     5  40    5.54   454.9    5.6      37.877
2014    9       20     5  45    5.54   454.8    5.6      37.844
2014    9       20     5  51    5.54   454.7    5.6      37.812
2014    9       20     5  56    5.54   454.5    5.6      37.780
2014    9       20     6   1    5.54   454.4    5.6      37.748
2014    9       20     6   7    5.54   454.2    5.6      37.716
2014    9       20     6  12    5.54   454.1    5.6      37.684
2014    9       20     6  17    5.53   454.0    5.6      37.652
2014    9       20     6  23    5.53   453.8    5.6      37.620
2014    9       20     6  28    5.53   453.7    5.6      37.588
2014    9       20     6  33    5.53   453.5    5.6      37.556
2014    9       20     6  39    5.53   453.4    5.6      37.524
2014    9       20     6  44    5.53   453.2    5.6      37.492
2014    9       20     6  49    5.53   453.1    5.6      37.460
2014    9       20     6  55    5.53   452.9    5.6      37.427
2014    9       20     7   0    5.53   452.8    5.6      37.395
2014    9       20     7   5    5.53   452.6    5.6      37.361
2014    9       20     7  11    5.52   452.5    5.6      37.328
2014    9       20     7  16    5.52   452.4    5.6      37.294
2014    9       20     7  21    5.52   452.2    5.6      37.260
2014    9       20     7  27    5.52   452.1    5.6      37.226
2014    9       20     7  32    5.52   451.9    5.6      37.191
2014    9       20     7  38    5.52   451.8    5.6      37.157
2014    9       20     7  43    5.52   451.6    5.6      37.122
2014    9       20     7  48    5.52   451.5    5.6      37.087
2014    9       20     7  54    5.52   451.3    5.6      37.051
2014    9       20     7  59    5.52   451.2    5.6      37.016
2014    9       20     8   4    5.52   451.0    5.6      36.980
2014    9       20     8  10    5.51   450.9    5.6      36.944
2014    9       20     8  15    5.51   450.7    5.6      36.908
2014    9       20     8  20    5.51   450.5    5.6      36.872
2014    9       20     8  26    5.51   450.4    5.6      36.835
2014    9       20     8  31    5.51   450.2    5.6      36.799
2014    9       20     8  36    5.51   450.1    5.6      36.762
2014    9       20     8  42    5.51   449.9    5.6      36.725
2014    9       20     8  47    5.51   449.8    5.6      36.687
2014    9       20     8  52    5.51   449.6    5.6      36.650
2014    9       20     8  58    5.51   449.5    5.6      36.612
2014    9       20     9   3    5.51   449.3    5.6      36.575
2014    9       20     9   9    5.51   449.2    5.6      36.537
2014    9       20     9  14    5.51   449.0    5.6      36.499
2014    9       20     9  19    5.51   448.9    5.6      36.461
2014    9       20     9  25    5.50   448.7    5.6      36.422
2014    9       20     9  30    5.50   448.6    5.6      36.384
2014    9       20     9  35    5.50   448.4    5.6      36.346
2014    9       20     9  41    5.50   448.2    5.6      36.307
2014    9       20     9  46    5.50   448.1    5.7      36.268
2014    9       20     9  51    5.50   447.9    5.7      36.229
2014    9       20     9  57    5.50   447.8    5.7      36.190
2014    9       20    10   2    5.50   447.6    5.7      36.151
2014    9       20    10   7    5.50   447.4    5.7      36.112
2014    9       20    10  13    5.50   447.3    5.7      36.073
2014    9       20    10  18    5.50   447.1    5.7      36.033
2014    9       20    10  23    5.50   447.0    5.7      35.994
2014    9       20    10  29    5.50   446.8    5.7      35.954
2014    9       20    10  34    5.50   446.6    5.7      35.915
2014    9       20    10  39    5.50   446.5    5.7      35.875
2014    9       20    10  45    5.50   446.3    5.7      35.835
2014    9       20    10  50    5.50   446.1    5.7      35.795
2014    9       20    10  56    5.50   446.0    5.7      35.755
2014    9       20    11   1    5.50   445.8    5.7      35.714
2014    9       20    11   6    5.50   445.6    5.7      35.674
2014    9       20    11  12    5.50   445.5    5.7      35.634
2014    9       20    11  17    5.49   445.3    5.7      35.593
2014    9       20    11  22    5.49   445.1    5.7      35.553
2014    9       20    11  28    5.49   444.9    5.7      35.513
2014    9       20    11  33    5.49   444.8    5.7      35.472
2014    9       20    11  38    5.49   444.6    5.7      35.432
2014    9       20    11  44    5.49   444.4    5.7      35.392
2014    9       20    11  49    5.49   444.2    5.7      35.352
2014    9       20    11  54    5.49   444.0    5.7      35.313
2014    9       20    12   0    5.49   443.9    5.7      35.273
2014    9       20    12   5    5.49   443.7    5.7      35.234
2014    9       20    12  10    5.49   443.5    5.7      35.195
2014    9       20    12  16    5.49   443.3    5.7      35.156
2014    9       20    12  21    5.49   443.1    5.7      35.118
2014    9       20    12  26    5.49   442.9    5.7      35.081
2014    9       20    12  32    5.49   442.7    5.7      35.044
2014    9       20    12  37    5.49   442.5    5.7      35.007
2014    9       20    12  43    5.49   442.3    5.7      34.971
2014    9       20    12  48    5.49   442.1    5.7      34.936
2014    9       20    12  53    5.49   441.9    5.7      34.901
2014    9       20    12  59    5.50   441.8    5.7      34.868
2014    9       20    13   4    5.50   441.6    5.7      34.835
2014    9       20    13   9    5.50   441.4    5.7      34.803
2014    9       20    13  15    5.50   441.2    5.7      34.772
2014    9       20    13  20    5.50   441.0    5.7      34.742
2014    9       20    13  25    5.50   440.8    5.7      34.713
2014    9       20    13  31    5.50   440.6    5.7      34.686
2014    9       20    13  36    5.50   440.4    5.7      34.659
2014    9       20    13  41    5.50   440.2    5.8      34.633
2014    9       20    13  47    5.50   440.0    5.8      34.609
2014    9       20    13  52    5.50   439.8    5.8      34.586
2014    9       20    13  57    5.50   439.6    5.8      34.564
2014    9       20    14   3    5.51   439.4    5.8      34.543
2014    9       20    14   8    5.51   439.2    5.8      34.523
2014    9       20    14  14    5.51   439.0    5.8      34.504
2014    9       20    14  19    5.51   438.8    5.8      34.487
2014    9       20    14  24    5.51   438.7    5.8      34.470
2014    9       20    14  30    5.51   438.5    5.8      34.454
2014    9       20    14  35    5.51   438.3    5.8      34.439
2014    9       20    14  40    5.52   438.1    5.8      34.425
2014    9       20    14  46    5.52   437.9    5.9      34.412
2014    9       20    14  51    5.52   437.7    5.9      34.400
2014    9       20    14  56    5.52   437.5    5.9      34.388
2014    9       20    15   2    5.52   437.4    5.9      34.377
2014    9       20    15   7    5.52   437.2    5.9      34.366
2014    9       20    15  12    5.53   437.0    5.9      34.355
2014    9       20    15  18    5.53   436.8    5.9      34.345
2014    9       20    15  23    5.53   436.6    5.9      34.336
2014    9       20    15  28    5.53   436.5    5.9      34.327
2014    9       20    15  34    5.53   436.3    5.9      34.319
2014    9       20    15  39    5.54   436.1    6.0      34.310
2014    9       20    15  45    5.54   436.0    6.0      34.302
2014    9       20    15  50    5.54   435.8    6.0      34.294
2014    9       20    15  55    5.54   435.6    6.0      34.286
2014    9       20    16   1    5.54   435.4    6.0      34.278
2014    9       20    16   6    5.55   435.3    6.0      34.270
2014    9       20    16  11    5.55   435.1    6.0      34.262
2014    9       20    16  17    5.55   434.9    6.0      34.253
2014    9       20    16  22    5.55   434.8    6.0      34.243
2014    9       20    16  27    5.56   434.6    6.0      34.233
2014    9       20    16  33    5.56   434.5    6.1      34.224
2014    9       20    16  38    5.56   434.3    6.1      34.213
2014    9       20    16  43    5.56   434.1    6.1      34.203
2014    9       20    16  49    5.56   434.0    6.1      34.192
2014    9       20    16  54    5.57   433.8    6.1      34.181
2014    9       20    16  59    5.57   433.6    6.1      34.170
2014    9       20    17   5    5.57   433.5    6.1      34.159
2014    9       20    17  10    5.57   433.3    6.1      34.148
2014    9       20    17  16    5.58   433.2    6.1      34.136
2014    9       20    17  21    5.58   433.0    6.1      34.125
2014    9       20    17  26    5.58   432.9    6.1      34.113
2014    9       20    17  32    5.59   432.7    6.1      34.102
2014    9       20    17  37    5.59   432.5    6.2      34.090
2014    9       20    17  42    5.59   432.4    6.2      34.078
2014    9       20    17  48    5.59   432.2    6.2      34.067
2014    9       20    17  53    5.60   432.1    6.2      34.055
2014    9       20    17  58    5.60   431.9    6.2      34.043
2014    9       20    18   4    5.60   431.8    6.2      34.032
2014    9       20    18   9    5.61   431.6    6.2      34.021
2014    9       20    18  14    5.61   431.5    6.2      34.010
2014    9       20    18  20    5.61   431.3    6.2      33.999
2014    9       20    18  25    5.62   431.2    6.2      33.989
2014    9       20    18  30    5.62   431.0    6.2      33.978
2014    9       20    18  36    5.62   430.9    6.3      33.969
2014    9       20    18  41    5.63   430.7    6.3      33.960
2014    9       20    18  46    5.63   430.6    6.3      33.951
2014    9       20    18  52    5.63   430.4    6.3      33.943
2014    9       20    18  57    5.64   430.3    6.3      33.935
2014    9       20    19   3    5.64   430.2    6.3      33.928
2014    9       20    19   8    5.64   430.0    6.3      33.922
2014    9       20    19  13    5.65   429.9    6.3      33.917
2014    9       20    19  19    5.65   429.8    6.3      33.913
2014    9       20    19  24    5.66   429.6    6.3      33.910
2014    9       20    19  29    5.66   429.5    6.4      33.907
2014    9       20    19  35    5.66   429.4    6.4      33.905
2014    9       20    19  40    5.67   429.2    6.4      33.904
2014    9       20    19  45    5.67   429.1    6.4      33.904
2014    9       20    19  51    5.68   429.0    6.4      33.905
2014    9       20    19  56    5.68   428.9    6.4      33.906
2014    9       20    20   1    5.68   428.7    6.4      33.909
2014    9       20    20   7    5.69   428.6    6.4      33.912
2014    9       20    20  12    5.69   428.5    6.4      33.916
2014    9       20    20  17    5.70   428.4    6.5      33.921
2014    9       20    20  23    5.70   428.3    6.5      33.927
2014    9       20    20  28    5.71   428.2    6.5      33.934
2014    9       20    20  33    5.71   428.0    6.5      33.943
2014    9       20    20  39    5.72   427.9    6.5      33.953
2014    9       20    20  44    5.72   427.8    6.5      33.965
2014    9       20    20  50    5.73   427.7    6.5      33.977
2014    9       20    20  55    5.73   427.7    6.5      33.991
2014    9       20    21   0    5.73   427.6    6.6      34.006
2014    9       20    21   6    5.74   427.5    6.6      34.022
2014    9       20    21  11    5.74   427.4    6.6      34.038
2014    9       20    21  16    5.75   427.3    6.6      34.054
2014    9       20    21  22    5.75   427.2    6.6      34.071
2014    9       20    21  27    5.76   427.1    6.6      34.088
2014    9       20    21  32    5.76   427.0    6.6      34.106
2014    9       20    21  38    5.77   426.9    6.7      34.124
2014    9       20    21  43    5.78   426.9    6.7      34.142
2014    9       20    21  48    5.78   426.8    6.7      34.161
2014    9       20    21  54    5.79   426.7    6.7      34.180
2014    9       20    21  59    5.79   426.6    6.7      34.200
2014    9       20    22   4    5.80   426.6    6.7      34.219
2014    9       20    22  10    5.80   426.5    6.7      34.238
2014    9       20    22  15    5.81   426.4    6.8      34.258
2014    9       20    22  21    5.81   426.4    6.8      34.277
2014    9       20    22  26    5.82   426.3    6.8      34.297
2014    9       20    22  31    5.82   426.3    6.8      34.316
2014    9       20    22  37    5.83   426.2    6.8      34.335
2014    9       20    22  42    5.84   426.2    6.8      34.354
2014    9       20    22  47    5.84   426.1    6.8      34.373
2014    9       20    22  53    5.85   426.1    6.8      34.391
2014    9       20    22  58    5.85   426.0    6.9      34.409
2014    9       20    23   3    5.86   426.0    6.9      34.426
2014    9       20    23   9    5.86   425.9    6.9      34.443
2014    9       20    23  14    5.87   425.9    6.9      34.459
2014    9       20    23  19    5.88   425.8    6.9      34.475
2014    9       20    23  25    5.88   425.8    6.9      34.490
2014    9       20    23  30    5.89   425.7    6.9      34.504
2014    9       20    23  35    5.89   425.7    7.0      34.519
2014    9       20    23  41    5.90   425.7    7.0      34.533
2014    9       20    23  46    5.90   425.6    7.0      34.546
2014    9       20    23  52    5.91   425.6    7.0      34.560
2014    9       20    23  57    5.92   425.5    7.0      34.573
2014    9       21     0   2    5.92   425.5    7.0      34.586
2014    9       21     0   8    5.93   425.5    7.0      34.598
2014    9       21     0  13    5.93   425.4    7.0      34.611
2014    9       21     0  18    5.94   425.4    7.0      34.623
2014    9       21     0  24    5.94   425.4    7.1      34.635
2014    9       21     0  29    5.95   425.3    7.1      34.648
2014    9       21     0  34    5.96   425.3    7.1      34.660
2014    9       21     0  40    5.96   425.3    7.1      34.672
2014    9       21     0  45    5.97   425.2    7.1      34.685
2014    9       21     0  50    5.97   425.2    7.1      34.697
2014    9       21     0  56    5.98   425.2    7.1      34.710
2014    9       21     1   1    5.99   425.1    7.1      34.723
2014    9       21     1   6    5.99   425.1    7.1      34.736
2014    9       21     1  12    6.00   425.1    7.2      34.750
2014    9       21     1  17    6.01   425.1    7.2      34.764
2014    9       21     1  22    6.01   425.1    7.2      34.779
2014    9       21     1  28    6.02   425.0    7.2      34.795
2014    9       21     1  33    6.03   425.0    7.2      34.811
2014    9       21     1  39    6.03   425.0    7.2      34.827
2014    9       21     1  44    6.04   425.0    7.2      34.845
2014    9       21     1  49    6.05   425.0    7.3      34.863
2014    9       21     1  55    6.05   425.0    7.3      34.883
2014    9       21     2   0    6.06   425.0    7.3      34.904
2014    9       21     2   5    6.07   425.0    7.3      34.926
2014    9       21     2  11    6.07   425.0    7.3      34.950
2014    9       21     2  16    6.08   425.0    7.3      34.974
2014    9       21     2  21    6.09   425.0    7.3      35.001
2014    9       21     2  27    6.09   425.0    7.4      35.029
2014    9       21     2  32    6.10   425.0    7.4      35.058
2014    9       21     2  37    6.11   425.1    7.4      35.090
2014    9       21     2  43    6.11   425.1    7.4      35.122
2014    9       21     2  48    6.12   425.1    7.4      35.156
2014    9       21     2  53    6.13   425.2    7.4      35.192
2014    9       21     2  59    6.14   425.2    7.4      35.229
2014    9       21     3   4    6.14   425.3    7.5      35.268
2014    9       21     3  10    6.15   425.4    7.5      35.308
2014    9       21     3  15    6.16   425.4    7.5      35.349
2014    9       21     3  20    6.16   425.5    7.5      35.390
2014    9       21     3  26    6.17   425.6    7.5      35.432
2014    9       21     3  31    6.18   425.6    7.5      35.473
2014    9       21     3  36    6.18   425.7    7.5      35.514
2014    9       21     3  42    6.19   425.8    7.6      35.556
2014    9       21     3  47    6.20   425.8    7.6      35.599
2014    9       21     3  52    6.20   425.9    7.6      35.641
2014    9       21     3  58    6.21   426.0    7.6      35.685
2014    9       21     4   3    6.22   426.1    7.6      35.728
2014    9       21     4   8    6.22   426.2    7.6      35.771
2014    9       21     4  14    6.23   426.2    7.6      35.815
2014    9       21     4  19    6.23   426.3    7.6      35.858
2014    9       21     4  24    6.24   426.4    7.7      35.900
2014    9       21     4  30    6.25   426.5    7.7      35.941
2014    9       21     4  35    6.25   426.5    7.7      35.983
2014    9       21     4  40    6.26   426.6    7.7      36.023
2014    9       21     4  46    6.26   426.7    7.7      36.063
2014    9       21     4  51    6.27   426.8    7.7      36.103
2014    9       21     4  57    6.27   426.9    7.7      36.142
2014    9       21     5   2    6.28   426.9    7.7      36.180
2014    9       21     5   7    6.29   427.0    7.7      36.218
2014    9       21     5  13    6.29   427.1    7.7      36.255
2014    9       21     5  18    6.30   427.2    7.7      36.292
2014    9       21     5  23    6.30   427.2    7.8      36.328
2014    9       21     5  29    6.31   427.3    7.8      36.364
2014    9       21     5  34    6.31   427.4    7.8      36.400
2014    9       21     5  39    6.32   427.5    7.8      36.434
2014    9       21     5  45    6.32   427.6    7.8      36.468
2014    9       21     5  50    6.33   427.6    7.8      36.502
2014    9       21     5  55    6.33   427.7    7.8      36.535
2014    9       21     6   1    6.34   427.8    7.8      36.568
2014    9       21     6   6    6.34   427.9    7.8      36.600
2014    9       21     6  11    6.35   427.9    7.8      36.632
2014    9       21     6  17    6.36   428.0    7.8      36.663
2014    9       21     6  22    6.36   428.1    7.8      36.694
2014    9       21     6  28    6.37   428.2    7.8      36.725
2014    9       21     6  33    6.37   428.3    7.8      36.755
2014    9       21     6  38    6.38   428.3    7.8      36.784
2014    9       21     6  44    6.38   428.4    7.8      36.813
2014    9       21     6  49    6.39   428.5    7.9      36.842
2014    9       21     6  54    6.39   428.6    7.9      36.870
2014    9       21     7   0    6.40   428.6    7.9      36.898
2014    9       21     7   5    6.40   428.7    7.9      36.925
2014    9       21     7  10    6.41   428.8    7.9      36.953
2014    9       21     7  16    6.41   428.9    7.9      36.979
2014    9       21     7  21    6.42   429.0    7.9      37.006
2014    9       21     7  26    6.42   429.0    7.9      37.032
2014    9       21     7  32    6.43   429.1    7.9      37.058
2014    9       21     7  37    6.43   429.2    7.9      37.084
2014    9       21     7  42    6.44   429.3    7.9      37.110
2014    9       21     7  48    6.44   429.3    7.9      37.136
2014    9       21     7  53    6.45   429.4    7.9      37.162
2014    9       21     7  59    6.45   429.5    7.9      37.188
2014    9       21     8   4    6.46   429.6    7.9      37.214
2014    9       21     8   9    6.46   429.6    7.9      37.240
2014    9       21     8  15    6.47   429.7    7.9      37.266
2014    9       21     8  20    6.47   429.8    7.9      37.292
2014    9       21     8  25    6.48   429.9    7.9      37.319
2014    9       21     8  31    6.48   430.0    7.9      37.346
2014    9       21     8  36    6.49   430.1    7.9      37.374
2014    9       21     8  41    6.49   430.1    7.9      37.402
2014    9       21     8  47    6.50   430.2    7.9      37.430
2014    9       21     8  52    6.50   430.3    8.0      37.459
2014    9       21     8  57    6.51   430.4    8.0      37.489
2014    9       21     9   3    6.51   430.5    8.0      37.519
2014    9       21     9   8    6.52   430.6    8.0      37.548
2014    9       21     9  13    6.53   430.7    8.0      37.578
2014    9       21     9  19    6.53   430.8    8.0      37.609
2014    9       21     9  24    6.54   430.9    8.0      37.639
2014    9       21     9  29    6.54   431.0    8.0      37.670
2014    9       21     9  35    6.55   431.1    8.0      37.702
2014    9       21     9  40    6.55   431.2    8.0      37.734
2014    9       21     9  46    6.56   431.3    8.0      37.767
2014    9       21     9  51    6.56   431.4    8.0      37.800
2014    9       21     9  56    6.57   431.6    8.0      37.834
2014    9       21    10   2    6.57   431.7    8.0      37.869
2014    9       21    10   7    6.58   431.8    8.0      37.904
2014    9       21    10  12    6.58   431.9    8.0      37.939
2014    9       21    10  18    6.59   432.0    8.0      37.974
2014    9       21    10  23    6.59   432.2    8.0      38.009
2014    9       21    10  28    6.60   432.3    8.0      38.044
2014    9       21    10  34    6.60   432.4    8.0      38.078
2014    9       21    10  39    6.61   432.5    8.0      38.113
2014    9       21    10  44    6.61   432.6    8.1      38.148
2014    9       21    10  50    6.62   432.8    8.1      38.182
2014    9       21    10  55    6.62   432.9    8.1      38.218
2014    9       21    11   0    6.63   433.0    8.1      38.253
2014    9       21    11   6    6.63   433.1    8.1      38.288
2014    9       21    11  11    6.64   433.3    8.1      38.324
2014    9       21    11  16    6.64   433.4    8.1      38.359
2014    9       21    11  22    6.64   433.5    8.1      38.395
2014    9       21    11  27    6.65   433.6    8.1      38.432
2014    9       21    11  33    6.65   433.8    8.1      38.469
2014    9       21    11  38    6.66   433.9    8.1      38.506
2014    9       21    11  43    6.66   434.0    8.1      38.544
2014    9       21    11  49    6.67   434.1    8.1      38.582
2014    9       21    11  54    6.67   434.3    8.1      38.620
2014    9       21    11  59    6.68   434.4    8.1      38.660
2014    9       21    12   5    6.68   434.5    8.1      38.699
2014    9       21    12  10    6.68   434.6    8.1      38.739
2014    9       21    12  15    6.69   434.8    8.1      38.781
2014    9       21    12  21    6.69   434.9    8.1      38.823
2014    9       21    12  26    6.70   435.0    8.1      38.865
2014    9       21    12  31    6.70   435.1    8.1      38.908
2014    9       21    12  37    6.70   435.3    8.1      38.951
2014    9       21    12  42    6.71   435.4    8.2      38.996
2014    9       21    12  47    6.71   435.5    8.2      39.042
2014    9       21    12  53    6.72   435.7    8.2      39.089
2014    9       21    12  58    6.72   435.8    8.2      39.138
2014    9       21    13   4    6.72   435.9    8.2      39.187
2014    9       21    13   9    6.73   436.1    8.2      39.236
2014    9       21    13  14    6.73   436.2    8.2      39.287
2014    9       21    13  20    6.74   436.3    8.2      39.338
2014    9       21    13  25    6.74   436.5    8.2      39.391
2014    9       21    13  30    6.74   436.6    8.2      39.443
2014    9       21    13  36    6.75   436.8    8.2      39.495
2014    9       21    13  41    6.75   436.9    8.2      39.547
2014    9       21    13  46    6.75   437.1    8.2      39.599
2014    9       21    13  52    6.76   437.2    8.2      39.652
2014    9       21    13  57    6.76   437.4    8.2      39.704
2014    9       21    14   2    6.76   437.5    8.2      39.755
2014    9       21    14   8    6.77   437.7    8.2      39.804
2014    9       21    14  13    6.77   437.9    8.2      39.852
2014    9       21    14  18    6.77   438.0    8.2      39.899
2014    9       21    14  24    6.78   438.2    8.2      39.944
2014    9       21    14  29    6.78   438.3    8.2      39.987
2014    9       21    14  35    6.78   438.5    8.2      40.029
2014    9       21    14  40    6.79   438.7    8.2      40.071
2014    9       21    14  45    6.79   438.8    8.2      40.110
2014    9       21    14  51    6.79   439.0    8.2      40.149
2014    9       21    14  56    6.79   439.1    8.2      40.187
2014    9       21    15   1    6.80   439.3    8.2      40.223
2014    9       21    15   7    6.80   439.5    8.2      40.259
2014    9       21    15  12    6.80   439.6    8.2      40.294
2014    9       21    15  17    6.81   439.8    8.2      40.328
2014    9       21    15  23    6.81   440.0    8.2      40.361
2014    9       21    15  28    6.81   440.1    8.2      40.393
2014    9       21    15  33    6.82   440.3    8.2      40.425
2014    9       21    15  39    6.82   440.5    8.2      40.456
2014    9       21    15  44    6.82   440.6    8.2      40.487
2014    9       21    15  49    6.82   440.8    8.2      40.517
2014    9       21    15  55    6.83   441.0    8.2      40.547
2014    9       21    16   0    6.83   441.1    8.2      40.576
2014    9       21    16   5    6.83   441.3    8.2      40.605
2014    9       21    16  11    6.83   441.5    8.2      40.633
2014    9       21    16  16    6.84   441.7    8.2      40.661
2014    9       21    16  22    6.84   441.8    8.2      40.689
2014    9       21    16  27    6.84   442.0    8.2      40.717
2014    9       21    16  32    6.85   442.2    8.2      40.744
2014    9       21    16  38    6.85   442.3    8.2      40.772
2014    9       21    16  43    6.85   442.5    8.1      40.799
2014    9       21    16  48    6.85   442.7    8.1      40.826
2014    9       21    16  54    6.86   442.8    8.1      40.853
2014    9       21    16  59    6.86   443.0    8.1      40.880
2014    9       21    17   4    6.86   443.2    8.1      40.907
2014    9       21    17  10    6.87   443.3    8.1      40.935
2014    9       21    17  15    6.87   443.5    8.1      40.962
2014    9       21    17  20    6.87   443.7    8.1      40.990
2014    9       21    17  26    6.88   443.9    8.1      41.018
2014    9       21    17  31    6.88   444.0    8.1      41.046
2014    9       21    17  36    6.88   444.2    8.1      41.075
2014    9       21    17  42    6.88   444.4    8.1      41.105
2014    9       21    17  47    6.89   444.5    8.1      41.137
2014    9       21    17  53    6.89   444.7    8.1      41.169
2014    9       21    17  58    6.89   444.9    8.1      41.203
2014    9       21    18   3    6.90   445.1    8.1      41.237
2014    9       21    18   9    6.90   445.2    8.1      41.272
2014    9       21    18  14    6.90   445.4    8.1      41.309
2014    9       21    18  19    6.91   445.6    8.1      41.349
2014    9       21    18  25    6.91   445.8    8.1      41.390
2014    9       21    18  30    6.91   446.0    8.1      41.434
2014    9       21    18  35    6.92   446.2    8.1      41.479
2014    9       21    18  41    6.92   446.4    8.1      41.526
2014    9       21    18  46    6.92   446.6    8.1      41.575
2014    9       21    18  51    6.92   446.8    8.1      41.626
2014    9       21    18  57    6.93   447.0    8.1      41.676
2014    9       21    19   2    6.93   447.2    8.1      41.727
2014    9       21    19   7    6.93   447.4    8.1      41.777
2014    9       21    19  13    6.93   447.6    8.1      41.827
2014    9       21    19  18    6.94   447.8    8.1      41.878
2014    9       21    19  23    6.94   448.0    8.1      41.929
2014    9       21    19  29    6.94   448.1    8.1      41.979
2014    9       21    19  34    6.94   448.3    8.1      42.029
2014    9       21    19  40    6.94   448.5    8.1      42.078
2014    9       21    19  45    6.95   448.7    8.1      42.127
2014    9       21    19  50    6.95   448.9    8.1      42.176
2014    9       21    19  56    6.95   449.1    8.1      42.225
2014    9       21    20   1    6.95   449.3    8.1      42.275
2014    9       21    20   6    6.95   449.5    8.1      42.325
2014    9       21    20  12    6.95   449.7    8.1      42.374
2014    9       21    20  17    6.96   449.9    8.1      42.423
2014    9       21    20  22    6.96   450.1    8.1      42.472
2014    9       21    20  28    6.96   450.3    8.1      42.523
2014    9       21    20  33    6.96   450.5    8.1      42.572
2014    9       21    20  38    6.96   450.7    8.1      42.622
2014    9       21    20  44    6.96   450.9    8.1      42.670
2014    9       21    20  49    6.96   451.1    8.1      42.718
2014    9       21    20  54    6.96   451.4    8.1      42.766
2014    9       21    21   0    6.96   451.6    8.1      42.813
2014    9       21    21   5    6.96   451.8    8.1      42.859
2014    9       21    21  11    6.97   452.0    8.1      42.904
2014    9       21    21  16    6.97   452.2    8.1      42.946
2014    9       21    21  21    6.97   452.4    8.0      42.987
2014    9       21    21  27    6.97   452.6    8.0      43.026
2014    9       21    21  32    6.97   452.8    8.0      43.064
2014    9       21    21  37    6.97   453.0    8.0      43.099
2014    9       21    21  43    6.97   453.3    8.0      43.134
2014    9       21    21  48    6.97   453.5    8.0      43.167
2014    9       21    21  53    6.97   453.7    8.0      43.199
2014    9       21    21  59    6.97   453.9    8.0      43.230
2014    9       21    22   4    6.97   454.1    8.0      43.259
2014    9       21    22   9    6.97   454.3    8.0      43.287
2014    9       21    22  15    6.97   454.6    8.0      43.315
2014    9       21    22  20    6.97   454.8    8.0      43.341
2014    9       21    22  25    6.97   455.0    8.0      43.366
2014    9       21    22  31    6.97   455.2    8.0      43.390
2014    9       21    22  36    6.97   455.4    7.9      43.414
2014    9       21    22  42    6.97   455.6    7.9      43.437
2014    9       21    22  47    6.97   455.9    7.9      43.459
2014    9       21    22  52    6.97   456.1    7.9      43.480
2014    9       21    22  58    6.97   456.3    7.9      43.501
2014    9       21    23   3    6.97   456.5    7.9      43.521
2014    9       21    23   8    6.97   456.8    7.9      43.540
2014    9       21    23  14    6.97   457.0    7.9      43.559
2014    9       21    23  19    6.97   457.2    7.9      43.578
2014    9       21    23  24    6.97   457.4    7.9      43.596
2014    9       21    23  30    6.97   457.6    7.8      43.614
2014    9       21    23  35    6.97   457.8    7.8      43.632
2014    9       21    23  40    6.97   458.0    7.8      43.650
2014    9       21    23  46    6.97   458.2    7.8      43.668
2014    9       21    23  51    6.97   458.4    7.8      43.686
2014    9       21    23  56    6.97   458.7    7.8      43.706
2014    9       22     0   2    6.97   458.9    7.8      43.725
2014    9       22     0   7    6.97   459.1    7.8      43.745
2014    9       22     0  12    6.97   459.3    7.8      43.767
2014    9       22     0  18    6.97   459.5    7.8      43.788
2014    9       22     0  23    6.97   459.8    7.8      43.811
2014    9       22     0  29    6.97   460.0    7.7      43.834
2014    9       22     0  34    6.97   460.2    7.7      43.858
2014    9       22     0  39    6.97   460.4    7.7      43.881
2014    9       22     0  45    6.97   460.7    7.7      43.905
2014    9       22     0  50    6.97   460.9    7.7      43.929
2014    9       22     0  55    6.97   461.1    7.7      43.953
2014    9       22     1   1    6.97   461.3    7.7      43.978
2014    9       22     1   6    6.97   461.6    7.7      44.004
2014    9       22     1  11    6.96   461.8    7.7      44.030
2014    9       22     1  17    6.96   462.0    7.7      44.056
2014    9       22     1  22    6.96   462.2    7.7      44.083
2014    9       22     1  27    6.96   462.4    7.7      44.112
2014    9       22     1  33    6.96   462.6    7.7      44.143
2014    9       22     1  38    6.96   462.9    7.6      44.176
2014    9       22     1  43    6.96   463.1    7.6      44.210
2014    9       22     1  49    6.96   463.3    7.6      44.245
2014    9       22     1  54    6.96   463.6    7.6      44.282
2014    9       22     1  59    6.96   463.8    7.6      44.320
2014    9       22     2   5    6.96   464.0    7.6      44.358
2014    9       22     2  10    6.96   464.3    7.6      44.396
2014    9       22     2  16    6.96   464.5    7.6      44.433
2014    9       22     2  21    6.96   464.8    7.6      44.469
2014    9       22     2  26    6.95   465.0    7.6      44.504
2014    9       22     2  32    6.95   465.2    7.6      44.538
2014    9       22     2  37    6.95   465.5    7.5      44.571
2014    9       22     2  42    6.95   465.7    7.5      44.603
2014    9       22     2  48    6.95   466.0    7.5      44.633
2014    9       22     2  53    6.94   466.2    7.5      44.662
2014    9       22     2  58    6.94   466.4    7.5      44.690
2014    9       22     3   4    6.94   466.7    7.5      44.716
2014    9       22     3   9    6.94   466.9    7.5      44.740
2014    9       22     3  14    6.94   467.2    7.5      44.763
2014    9       22     3  20    6.93   467.4    7.5      44.785
2014    9       22     3  25    6.93   467.7    7.4      44.805
2014    9       22     3  30    6.93   467.9    7.4      44.823
2014    9       22     3  36    6.92   468.2    7.4      44.840
2014    9       22     3  41    6.92   468.4    7.4      44.855
2014    9       22     3  47    6.92   468.6    7.4      44.867
2014    9       22     3  52    6.92   468.9    7.4      44.879
2014    9       22     3  57    6.91   469.1    7.4      44.889
2014    9       22     4   3    6.91   469.4    7.3      44.896
2014    9       22     4   8    6.91   469.6    7.3      44.902
2014    9       22     4  13    6.90   469.8    7.3      44.906
2014    9       22     4  19    6.90   470.1    7.3      44.909
2014    9       22     4  24    6.90   470.3    7.3      44.910
2014    9       22     4  29    6.89   470.5    7.3      44.910
2014    9       22     4  35    6.89   470.7    7.2      44.908
2014    9       22     4  40    6.89   470.9    7.2      44.904
2014    9       22     4  45    6.88   471.2    7.2      44.901
2014    9       22     4  51    6.88   471.4    7.2      44.896
2014    9       22     4  56    6.88   471.6    7.2      44.891
2014    9       22     5   1    6.87   471.8    7.2      44.884
2014    9       22     5   7    6.87   472.0    7.1      44.877
2014    9       22     5  12    6.86   472.2    7.1      44.868
2014    9       22     5  18    6.86   472.4    7.1      44.859
2014    9       22     5  23    6.86   472.7    7.1      44.848
2014    9       22     5  28    6.85   472.9    7.1      44.836
2014    9       22     5  34    6.85   473.1    7.1      44.822
2014    9       22     5  39    6.84   473.3    7.0      44.806
2014    9       22     5  44    6.84   473.5    7.0      44.790
2014    9       22     5  50    6.84   473.6    7.0      44.771
2014    9       22     5  55    6.83   473.8    7.0      44.751
2014    9       22     6   0    6.83   474.0    7.0      44.730
2014    9       22     6   6    6.82   474.2    7.0      44.708
2014    9       22     6  11    6.82   474.4    6.9      44.686
2014    9       22     6  16    6.82   474.5    6.9      44.664
2014    9       22     6  22    6.81   474.7    6.9      44.642
2014    9       22     6  27    6.81   474.9    6.9      44.619
2014    9       22     6  32    6.80   475.0    6.9      44.596
2014    9       22     6  38    6.80   475.2    6.9      44.574
2014    9       22     6  43    6.79   475.4    6.9      44.551
2014    9       22     6  48    6.79   475.5    6.8      44.529
2014    9       22     6  54    6.79   475.7    6.8      44.507
2014    9       22     6  59    6.78   475.8    6.8      44.486
2014    9       22     7   5    6.78   476.0    6.8      44.466
2014    9       22     7  10    6.77   476.1    6.8      44.447
2014    9       22     7  15    6.77   476.3    6.8      44.429
2014    9       22     7  21    6.77   476.4    6.8      44.412
2014    9       22     7  26    6.76   476.6    6.7      44.396
2014    9       22     7  31    6.76   476.8    6.7      44.381
2014    9       22     7  37    6.75   476.9    6.7      44.367
2014    9       22     7  42    6.75   477.1    6.7      44.353
2014    9       22     7  47    6.75   477.2    6.7      44.339
2014    9       22     7  53    6.74   477.4    6.7      44.325
2014    9       22     7  58    6.74   477.6    6.7      44.311
2014    9       22     8   3    6.74   477.7    6.6      44.297
2014    9       22     8   9    6.73   477.9    6.6      44.281
2014    9       22     8  14    6.73   478.0    6.6      44.266
2014    9       22     8  19    6.72   478.1    6.6      44.250
2014    9       22     8  25    6.72   478.3    6.6      44.234
2014    9       22     8  30    6.71   478.4    6.6      44.217
2014    9       22     8  35    6.71   478.5    6.6      44.201
2014    9       22     8  41    6.71   478.7    6.6      44.184
2014    9       22     8  46    6.70   478.8    6.5      44.166
2014    9       22     8  52    6.70   479.0    6.5      44.148
2014    9       22     8  57    6.69   479.1    6.5      44.130
2014    9       22     9   2    6.69   479.2    6.5      44.111
2014    9       22     9   8    6.69   479.4    6.5      44.092
2014    9       22     9  13    6.68   479.5    6.5      44.071
2014    9       22     9  18    6.68   479.6    6.5      44.050
2014    9       22     9  24    6.67   479.8    6.5      44.028
2014    9       22     9  29    6.67   479.9    6.4      44.006
2014    9       22     9  34    6.66   480.0    6.4      43.982
2014    9       22     9  40    6.66   480.2    6.4      43.958
2014    9       22     9  45    6.65   480.3    6.4      43.933
2014    9       22     9  50    6.65   480.4    6.4      43.907
2014    9       22     9  56    6.65   480.5    6.4      43.881
2014    9       22    10   1    6.64   480.7    6.4      43.854
2014    9       22    10   6    6.64   480.8    6.4      43.827
2014    9       22    10  12    6.63   480.9    6.3      43.798
2014    9       22    10  17    6.63   481.0    6.3      43.769
2014    9       22    10  23    6.62   481.1    6.3      43.740
2014    9       22    10  28    6.62   481.3    6.3      43.710
2014    9       22    10  33    6.61   481.4    6.3      43.680
2014    9       22    10  39    6.61   481.5    6.3      43.648
2014    9       22    10  44    6.60   481.6    6.3      43.616
2014    9       22    10  49    6.60   481.7    6.3      43.582
2014    9       22    10  55    6.59   481.8    6.2      43.548
2014    9       22    11   0    6.59   481.9    6.2      43.513
2014    9       22    11   5    6.58   482.0    6.2      43.476
2014    9       22    11  11    6.58   482.1    6.2      43.439
2014    9       22    11  16    6.57   482.2    6.2      43.401
2014    9       22    11  21    6.57   482.3    6.2      43.363
2014    9       22    11  27    6.56   482.4    6.2      43.324
2014    9       22    11  32    6.56   482.4    6.2      43.285
2014    9       22    11  37    6.55   482.5    6.2      43.245
2014    9       22    11  43    6.55   482.6    6.1      43.206
2014    9       22    11  48    6.54   482.6    6.1      43.166
2014    9       22    11  54    6.54   482.7    6.1      43.128
2014    9       22    11  59    6.53   482.8    6.1      43.091
2014    9       22    12   4    6.53   482.8    6.1      43.055
2014    9       22    12  10    6.52   482.9    6.1      43.020
2014    9       22    12  15    6.51   483.0    6.1      42.986
2014    9       22    12  20    6.51   483.0    6.1      42.952
2014    9       22    12  26    6.50   483.1    6.1      42.919
2014    9       22    12  31    6.50   483.1    6.1      42.886
2014    9       22    12  36    6.50   483.2    6.0      42.854
2014    9       22    12  42    6.49   483.3    6.0      42.822
2014    9       22    12  47    6.49   483.3    6.0      42.790
2014    9       22    12  52    6.48   483.4    6.0      42.758
2014    9       22    12  58    6.48   483.4    6.0      42.725
2014    9       22    13   3    6.47   483.4    6.0      42.692
2014    9       22    13   8    6.47   483.5    6.0      42.658
2014    9       22    13  14    6.46   483.5    6.0      42.624
2014    9       22    13  19    6.46   483.5    6.0      42.590
2014    9       22    13  24    6.45   483.6    6.0      42.555
2014    9       22    13  30    6.45   483.6    6.0      42.519
2014    9       22    13  35    6.44   483.6    5.9      42.483
2014    9       22    13  41    6.44   483.7    5.9      42.446
2014    9       22    13  46    6.44   483.7    5.9      42.409
2014    9       22    13  51    6.43   483.7    5.9      42.372
2014    9       22    13  57    6.43   483.7    5.9      42.335
2014    9       22    14   2    6.42   483.7    5.9      42.297
2014    9       22    14   7    6.42   483.8    5.9      42.260
2014    9       22    14  13    6.42   483.8    5.9      42.222
2014    9       22    14  18    6.41   483.8    5.9      42.184
2014    9       22    14  23    6.41   483.8    5.9      42.146
2014    9       22    14  29    6.40   483.8    5.9      42.109
2014    9       22    14  34    6.40   483.8    5.9      42.071
2014    9       22    14  39    6.40   483.8    5.8      42.034
2014    9       22    14  45    6.39   483.8    5.8      41.996
2014    9       22    14  50    6.39   483.8    5.8      41.959
2014    9       22    14  55    6.39   483.8    5.8      41.923
2014    9       22    15   1    6.38   483.8    5.8      41.886
2014    9       22    15   6    6.38   483.8    5.8      41.850
2014    9       22    15  11    6.37   483.8    5.8      41.813
2014    9       22    15  17    6.37   483.8    5.8      41.777
2014    9       22    15  22    6.37   483.8    5.8      41.742
2014    9       22    15  28    6.36   483.8    5.8      41.706
2014    9       22    15  33    6.36   483.8    5.8      41.671
2014    9       22    15  38    6.36   483.8    5.8      41.636
2014    9       22    15  44    6.35   483.7    5.8      41.600
2014    9       22    15  49    6.35   483.7    5.7      41.565
2014    9       22    15  54    6.35   483.7    5.7      41.530
2014    9       22    16   0    6.34   483.7    5.7      41.495
2014    9       22    16   5    6.34   483.7    5.7      41.459
2014    9       22    16  10    6.34   483.7    5.7      41.424
2014    9       22    16  16    6.33   483.7    5.7      41.388
2014    9       22    16  21    6.33   483.7    5.7      41.352
2014    9       22    16  26    6.33   483.7    5.7      41.316
2014    9       22    16  32    6.32   483.7    5.7      41.279
2014    9       22    16  37    6.32   483.7    5.7      41.242
2014    9       22    16  42    6.32   483.7    5.7      41.205
2014    9       22    16  48    6.31   483.7    5.7      41.167
2014    9       22    16  53    6.31   483.7    5.7      41.129
2014    9       22    16  59    6.31   483.7    5.7      41.090
2014    9       22    17   4    6.30   483.7    5.7      41.051
2014    9       22    17   9    6.30   483.7    5.7      41.012
2014    9       22    17  15    6.29   483.7    5.6      40.973
2014    9       22    17  20    6.29   483.7    5.6      40.934
2014    9       22    17  25    6.29   483.6    5.6      40.894
2014    9       22    17  31    6.28   483.6    5.6      40.855
2014    9       22    17  36    6.28   483.6    5.6      40.816
2014    9       22    17  41    6.28   483.6    5.6      40.777
2014    9       22    17  47    6.27   483.6    5.6      40.738
2014    9       22    17  52    6.27   483.6    5.6      40.699
2014    9       22    17  57    6.27   483.5    5.6      40.660
2014    9       22    18   3    6.26   483.5    5.6      40.622
2014    9       22    18   8    6.26   483.5    5.6      40.584
2014    9       22    18  13    6.26   483.5    5.6      40.547
2014    9       22    18  19    6.25   483.4    5.6      40.510
2014    9       22    18  24    6.25   483.4    5.6      40.473
2014    9       22    18  30    6.24   483.3    5.6      40.437
2014    9       22    18  35    6.24   483.3    5.6      40.403
2014    9       22    18  40    6.24   483.3    5.6      40.369
2014    9       22    18  46    6.24   483.2    5.6      40.337
2014    9       22    18  51    6.23   483.1    5.6      40.305
2014    9       22    18  56    6.23   483.1    5.6      40.276
2014    9       22    19   2    6.23   483.0    5.6      40.247
2014    9       22    19   7    6.22   483.0    5.6      40.220
2014    9       22    19  12    6.22   482.9    5.6      40.195
2014    9       22    19  18    6.22   482.9    5.6      40.173
2014    9       22    19  23    6.21   482.8    5.6      40.152
2014    9       22    19  28    6.21   482.7    5.6      40.133
2014    9       22    19  34    6.21   482.7    5.6      40.116
2014    9       22    19  39    6.21   482.6    5.6      40.102
2014    9       22    19  44    6.20   482.6    5.6      40.088
2014    9       22    19  50    6.20   482.5    5.6      40.077
2014    9       22    19  55    6.20   482.5    5.6      40.067
2014    9       22    20   1    6.20   482.4    5.6      40.060
2014    9       22    20   6    6.19   482.4    5.6      40.054
2014    9       22    20  11    6.19   482.3    5.6      40.050
2014    9       22    20  17    6.19   482.3    5.6      40.046
2014    9       22    20  22    6.19   482.2    5.6      40.043
2014    9       22    20  27    6.19   482.2    5.6      40.040
2014    9       22    20  33    6.18   482.1    5.6      40.038
2014    9       22    20  38    6.18   482.1    5.6      40.034
2014    9       22    20  43    6.18   482.0    5.6      40.029
2014    9       22    20  49    6.18   482.0    5.6      40.022
2014    9       22    20  54    6.18   481.9    5.6      40.014
2014    9       22    20  59    6.18   481.9    5.6      40.006
2014    9       22    21   5    6.18   481.8    5.6      39.996
2014    9       22    21  10    6.17   481.8    5.6      39.986
2014    9       22    21  15    6.17   481.7    5.6      39.974
2014    9       22    21  21    6.17   481.7    5.6      39.962
2014    9       22    21  26    6.17   481.6    5.6      39.949
2014    9       22    21  31    6.17   481.6    5.6      39.935
2014    9       22    21  37    6.17   481.5    5.6      39.920
2014    9       22    21  42    6.17   481.5    5.6      39.905
2014    9       22    21  48    6.17   481.4    5.6      39.889
2014    9       22    21  53    6.16   481.4    5.6      39.872
2014    9       22    21  58    6.16   481.3    5.6      39.855
2014    9       22    22   4    6.16   481.3    5.6      39.837
2014    9       22    22   9    6.16   481.2    5.6      39.819
2014    9       22    22  14    6.16   481.2    5.6      39.801
2014    9       22    22  20    6.16   481.1    5.6      39.782
2014    9       22    22  25    6.16   481.1    5.6      39.763
2014    9       22    22  30    6.16   481.0    5.6      39.744
2014    9       22    22  36    6.15   481.0    5.6      39.724
2014    9       22    22  41    6.15   480.9    5.6      39.704
2014    9       22    22  46    6.15   480.9    5.6      39.684
2014    9       22    22  52    6.15   480.8    5.6      39.664
2014    9       22    22  57    6.15   480.8    5.5      39.643
2014    9       22    23   2    6.15   480.7    5.5      39.622
2014    9       22    23   8    6.15   480.6    5.5      39.601
2014    9       22    23  13    6.15   480.6    5.5      39.580
2014    9       22    23  18    6.15   480.5    5.5      39.559
2014    9       22    23  24    6.14   480.5    5.5      39.538
2014    9       22    23  29    6.14   480.4    5.5      39.516
2014    9       22    23  35    6.14   480.4    5.5      39.494
2014    9       22    23  40    6.14   480.3    5.5      39.473
2014    9       22    23  45    6.14   480.3    5.5      39.451
2014    9       22    23  51    6.14   480.2    5.5      39.429
2014    9       22    23  56    6.14   480.2    5.5      39.407
2014    9       23     0   1    6.14   480.1    5.5      39.385
2014    9       23     0   7    6.14   480.1    5.5      39.364
2014    9       23     0  12    6.13   480.0    5.5      39.342
2014    9       23     0  17    6.13   480.0    5.5      39.320
2014    9       23     0  23    6.13   479.9    5.5      39.298
2014    9       23     0  28    6.13   479.9    5.5      39.276
2014    9       23     0  33    6.13   479.8    5.5      39.255
2014    9       23     0  39    6.13   479.8    5.5      39.233
2014    9       23     0  44    6.13   479.7    5.5      39.212
2014    9       23     0  49    6.13   479.7    5.5      39.191
2014    9       23     0  55    6.13   479.6    5.5      39.170
2014    9       23     1   0    6.12   479.6    5.5      39.149
2014    9       23     1   6    6.12   479.5    5.5      39.128
2014    9       23     1  11    6.12   479.5    5.5      39.108
2014    9       23     1  16    6.12   479.4    5.5      39.087
2014    9       23     1  22    6.12   479.4    5.5      39.068
2014    9       23     1  27    6.12   479.3    5.5      39.048
2014    9       23     1  32    6.12   479.3    5.5      39.029
2014    9       23     1  38    6.12   479.2    5.5      39.010
2014    9       23     1  43    6.12   479.2    5.5      38.991
2014    9       23     1  48    6.12   479.1    5.5      38.973
2014    9       23     1  54    6.11   479.1    5.5      38.956
2014    9       23     1  59    6.11   479.0    5.5      38.939
2014    9       23     2   4    6.11   479.0    5.5      38.922
2014    9       23     2  10    6.11   478.9    5.5      38.907
2014    9       23     2  15    6.11   478.9    5.5      38.891
2014    9       23     2  20    6.11   478.8    5.5      38.876
2014    9       23     2  26    6.11   478.8    5.5      38.862
2014    9       23     2  31    6.11   478.7    5.5      38.849
2014    9       23     2  37    6.11   478.7    5.5      38.837
2014    9       23     2  42    6.11   478.6    5.5      38.825
2014    9       23     2  47    6.11   478.6    5.5      38.814
2014    9       23     2  53    6.11   478.5    5.5      38.803
2014    9       23     2  58    6.11   478.4    5.5      38.793
2014    9       23     3   3    6.10   478.4    5.5      38.784
2014    9       23     3   9    6.10   478.3    5.5      38.776
2014    9       23     3  14    6.10   478.3    5.5      38.768
2014    9       23     3  19    6.10   478.2    5.5      38.761
2014    9       23     3  25    6.10   478.2    5.5      38.755
2014    9       23     3  30    6.10   478.1    5.5      38.750
2014    9       23     3  35    6.10   478.1    5.5      38.745
2014    9       23     3  41    6.10   478.0    5.5      38.740
2014    9       23     3  46    6.10   478.0    5.5      38.736
2014    9       23     3  51    6.10   477.9    5.5      38.731
2014    9       23     3  57    6.10   477.9    5.5      38.727
2014    9       23     4   2    6.10   477.8    5.5      38.723
2014    9       23     4   7    6.10   477.7    5.5      38.718
2014    9       23     4  13    6.10   477.7    5.5      38.714
2014    9       23     4  18    6.10   477.6    5.5      38.710
2014    9       23     4  24    6.10   477.6    5.5      38.706
2014    9       23     4  29    6.10   477.5    5.5      38.701
2014    9       23     4  34    6.10   477.5    5.5      38.697
2014    9       23     4  40    6.10   477.4    5.5      38.692
2014    9       23     4  45    6.10   477.4    5.5      38.688
2014    9       23     4  50    6.10   477.3    5.5      38.684
2014    9       23     4  56    6.10   477.2    5.5      38.679
2014    9       23     5   1    6.10   477.2    5.5      38.675
2014    9       23     5   6    6.10   477.1    5.5      38.670
2014    9       23     5  12    6.10   477.1    5.5      38.665
2014    9       23     5  17    6.10   477.0    5.5      38.660
2014    9       23     5  22    6.10   477.0    5.5      38.654
2014    9       23     5  28    6.10   476.9    5.5      38.648
2014    9       23     5  33    6.10   476.8    5.5      38.642
2014    9       23     5  38    6.10   476.8    5.5      38.635
2014    9       23     5  44    6.10   476.7    5.5      38.627
2014    9       23     5  49    6.10   476.7    5.5      38.619
2014    9       23     5  54    6.10   476.6    5.5      38.611
2014    9       23     6   0    6.10   476.5    5.5      38.602
2014    9       23     6   5    6.10   476.5    5.5      38.593
2014    9       23     6  11    6.10   476.4    5.5      38.584
2014    9       23     6  16    6.10   476.4    5.5      38.574
2014    9       23     6  21    6.10   476.3    5.5      38.564
2014    9       23     6  27    6.10   476.3    5.5      38.554
2014    9       23     6  32    6.10   476.2    5.5      38.543
2014    9       23     6  37    6.10   476.1    5.5      38.532
2014    9       23     6  43    6.10   476.1    5.5      38.521
2014    9       23     6  48    6.10   476.0    5.5      38.510
2014    9       23     6  53    6.10   475.9    5.5      38.498
2014    9       23     6  59    6.10   475.9    5.5      38.486
2014    9       23     7   4    6.10   475.8    5.5      38.474
2014    9       23     7   9    6.10   475.8    5.5      38.461
2014    9       23     7  15    6.11   475.7    5.5      38.448
2014    9       23     7  20    6.11   475.6    5.5      38.435
2014    9       23     7  25    6.11   475.6    5.5      38.422
2014    9       23     7  31    6.11   475.5    5.5      38.409
2014    9       23     7  36    6.11   475.5    5.5      38.395
2014    9       23     7  42    6.11   475.4    5.5      38.382
2014    9       23     7  47    6.11   475.3    5.5      38.368
2014    9       23     7  52    6.11   475.3    5.5      38.354
2014    9       23     7  58    6.11   475.2    5.5      38.340
2014    9       23     8   3    6.11   475.2    5.5      38.325
2014    9       23     8   8    6.11   475.1    5.5      38.311
2014    9       23     8  14    6.11   475.0    5.5      38.296
2014    9       23     8  19    6.11   475.0    5.5      38.281
2014    9       23     8  24    6.11   474.9    5.5      38.267
2014    9       23     8  30    6.11   474.9    5.5      38.252
2014    9       23     8  35    6.11   474.8    5.5      38.237
2014    9       23     8  40    6.11   474.7    5.5      38.222
2014    9       23     8  46    6.12   474.7    5.5      38.206
2014    9       23     8  51    6.12   474.6    5.5      38.191
2014    9       23     8  56    6.12   474.5    5.5      38.176
2014    9       23     9   2    6.12   474.5    5.5      38.161
2014    9       23     9   7    6.12   474.4    5.5      38.146
2014    9       23     9  13    6.12   474.4    5.5      38.131
2014    9       23     9  18    6.12   474.3    5.5      38.116
2014    9       23     9  23    6.12   474.2    5.5      38.101
2014    9       23     9  29    6.12   474.2    5.5      38.087
2014    9       23     9  34    6.12   474.1    5.5      38.072
2014    9       23     9  39    6.12   474.0    5.5      38.058
2014    9       23     9  45    6.13   474.0    5.5      38.043
2014    9       23     9  50    6.13   473.9    5.5      38.029
2014    9       23     9  55    6.13   473.8    5.5      38.016
2014    9       23    10   1    6.13   473.8    5.5      38.002
2014    9       23    10   6    6.13   473.7    5.5      37.989
2014    9       23    10  11    6.13   473.6    5.5      37.977
2014    9       23    10  17    6.13   473.6    5.5      37.964
2014    9       23    10  22    6.13   473.5    5.5      37.952
2014    9       23    10  27    6.13   473.4    5.5      37.941
2014    9       23    10  33    6.14   473.3    5.5      37.930
2014    9       23    10  38    6.14   473.3    5.5      37.919
2014    9       23    10  43    6.14   473.2    5.5      37.910
2014    9       23    10  49    6.14   473.1    5.6      37.901
2014    9       23    10  54    6.14   473.1    5.6      37.892
2014    9       23    11   0    6.14   473.0    5.6      37.885
2014    9       23    11   5    6.14   472.9    5.6      37.878
2014    9       23    11  10    6.15   472.8    5.6      37.872
2014    9       23    11  16    6.15   472.8    5.6      37.867
2014    9       23    11  21    6.15   472.7    5.6      37.864
2014    9       23    11  26    6.15   472.6    5.6      37.861
2014    9       23    11  32    6.15   472.6    5.6      37.859
2014    9       23    11  37    6.15   472.5    5.6      37.859
2014    9       23    11  42    6.15   472.4    5.6      37.861
2014    9       23    11  48    6.16   472.3    5.6      37.864
2014    9       23    11  53    6.16   472.3    5.6      37.868
2014    9       23    11  58    6.16   472.2    5.6      37.874
2014    9       23    12   4    6.16   472.1    5.6      37.881
2014    9       23    12   9    6.16   472.1    5.6      37.890
2014    9       23    12  14    6.17   472.0    5.6      37.900
2014    9       23    12  20    6.17   472.0    5.6      37.911
2014    9       23    12  25    6.17   471.9    5.6      37.923
2014    9       23    12  31    6.17   471.9    5.6      37.937
2014    9       23    12  36    6.17   471.8    5.6      37.952
2014    9       23    12  41    6.18   471.8    5.7      37.968
2014    9       23    12  47    6.18   471.7    5.7      37.983
2014    9       23    12  52    6.18   471.6    5.7      37.999
2014    9       23    12  57    6.18   471.6    5.7      38.015
2014    9       23    13   3    6.18   471.5    5.7      38.030
2014    9       23    13   8    6.19   471.5    5.7      38.044
2014    9       23    13  13    6.19   471.4    5.7      38.058
2014    9       23    13  19    6.19   471.4    5.7      38.071
2014    9       23    13  24    6.19   471.3    5.7      38.083
2014    9       23    13  29    6.19   471.3    5.7      38.094
2014    9       23    13  35    6.20   471.2    5.7      38.105
2014    9       23    13  40    6.20   471.2    5.7      38.115
2014    9       23    13  45    6.20   471.1    5.7      38.125
2014    9       23    13  51    6.20   471.1    5.7      38.135
2014    9       23    13  56    6.21   471.0    5.7      38.143
2014    9       23    14   1    6.21   471.0    5.7      38.152
2014    9       23    14   7    6.21   470.9    5.7      38.160
2014    9       23    14  12    6.21   470.9    5.7      38.167
2014    9       23    14  18    6.22   470.8    5.7      38.174
2014    9       23    14  23    6.22   470.8    5.7      38.181
2014    9       23    14  28    6.22   470.7    5.7      38.187
2014    9       23    14  34    6.22   470.7    5.7      38.193
2014    9       23    14  39    6.22   470.6    5.7      38.199
2014    9       23    14  44    6.23   470.6    5.7      38.205
2014    9       23    14  50    6.23   470.5    5.7      38.210
2014    9       23    14  55    6.23   470.5    5.7      38.215
2014    9       23    15   0    6.23   470.5    5.7      38.220
2014    9       23    15   6    6.24   470.4    5.7      38.225
2014    9       23    15  11    6.24   470.4    5.7      38.230
2014    9       23    15  16    6.24   470.3    5.7      38.234
2014    9       23    15  22    6.25   470.3    5.7      38.239
2014    9       23    15  27    6.25   470.2    5.7      38.243
2014    9       23    15  32    6.25   470.2    5.7      38.248
2014    9       23    15  38    6.25   470.2    5.8      38.252
2014    9       23    15  43    6.26   470.1    5.8      38.257
2014    9       23    15  48    6.26   470.1    5.8      38.261
2014    9       23    15  54    6.26   470.0    5.8      38.266
2014    9       23    15  59    6.27   470.0    5.8      38.270
2014    9       23    16   5    6.27   470.0    5.8      38.276
2014    9       23    16  10    6.27   469.9    5.8      38.281
2014    9       23    16  15    6.28   469.9    5.8      38.286
2014    9       23    16  21    6.28   469.9    5.8      38.292
2014    9       23    16  26    6.28   469.8    5.8      38.297
2014    9       23    16  31    6.29   469.8    5.8      38.304
2014    9       23    16  37    6.29   469.8    5.8      38.310
2014    9       23    16  42    6.29   469.7    5.8      38.317
2014    9       23    16  47    6.30   469.7    5.8      38.325
2014    9       23    16  53    6.30   469.7    5.8      38.333
2014    9       23    16  58    6.30   469.7    5.8      38.341
2014    9       23    17   3    6.31   469.6    5.8      38.350
2014    9       23    17   9    6.31   469.6    5.8      38.359
2014    9       23    17  14    6.31   469.6    5.8      38.369
2014    9       23    17  19    6.32   469.6    5.8      38.380
2014    9       23    17  25    6.32   469.5    5.8      38.392
2014    9       23    17  30    6.33   469.5    5.8      38.404
2014    9       23    17  36    6.33   469.5    5.8      38.417
2014    9       23    17  41    6.33   469.5    5.8      38.431
2014    9       23    17  46    6.34   469.5    5.8      38.445
2014    9       23    17  52    6.34   469.5    5.9      38.461
2014    9       23    17  57    6.35   469.4    5.9      38.479
2014    9       23    18   2    6.35   469.4    5.9      38.498
2014    9       23    18   8    6.35   469.4    5.9      38.518
2014    9       23    18  13    6.36   469.4    5.9      38.539
2014    9       23    18  18    6.36   469.4    5.9      38.561
2014    9       23    18  24    6.37   469.4    5.9      38.585
2014    9       23    18  29    6.37   469.4    5.9      38.610
2014    9       23    18  34    6.37   469.4    5.9      38.636
2014    9       23    18  40    6.38   469.4    5.9      38.664
2014    9       23    18  45    6.38   469.5    5.9      38.694
2014    9       23    18  50    6.39   469.5    5.9      38.725
2014    9       23    18  56    6.39   469.5    5.9      38.757
2014    9       23    19   1    6.40   469.5    6.0      38.790
2014    9       23    19   7    6.40   469.5    6.0      38.823
2014    9       23    19  12    6.40   469.5    6.0      38.856
2014    9       23    19  17    6.41   469.5    6.0      38.890
2014    9       23    19  23    6.41   469.6    6.0      38.925
2014    9       23    19  28    6.42   469.6    6.0      38.961
2014    9       23    19  33    6.42   469.6    6.0      38.997
2014    9       23    19  39    6.42   469.6    6.0      39.035
2014    9       23    19  44    6.43   469.7    6.0      39.074
2014    9       23    19  49    6.43   469.7    6.0      39.113
2014    9       23    19  55    6.44   469.7    6.0      39.152
2014    9       23    20   0    6.44   469.7    6.0      39.191
2014    9       23    20   5    6.44   469.7    6.0      39.229
2014    9       23    20  11    6.45   469.8    6.0      39.266
2014    9       23    20  16    6.45   469.8    6.0      39.303
2014    9       23    20  21    6.46   469.8    6.1      39.339
2014    9       23    20  27    6.46   469.8    6.1      39.374
2014    9       23    20  32    6.47   469.8    6.1      39.408
2014    9       23    20  37    6.47   469.9    6.1      39.442
2014    9       23    20  43    6.47   469.9    6.1      39.476
2014    9       23    20  48    6.48   469.9    6.1      39.508
2014    9       23    20  54    6.48   469.9    6.1      39.541
2014    9       23    20  59    6.49   469.9    6.1      39.572
2014    9       23    21   4    6.49   469.9    6.1      39.603
2014    9       23    21  10    6.49   470.0    6.1      39.634
2014    9       23    21  15    6.50   470.0    6.1      39.664
2014    9       23    21  20    6.50   470.0    6.1      39.694
2014    9       23    21  26    6.51   470.0    6.1      39.724
2014    9       23    21  31    6.51   470.0    6.1      39.754
2014    9       23    21  36    6.52   470.0    6.1      39.783
2014    9       23    21  42    6.52   470.1    6.1      39.813
2014    9       23    21  47    6.52   470.1    6.1      39.843
2014    9       23    21  52    6.53   470.1    6.1      39.872
2014    9       23    21  58    6.53   470.1    6.1      39.902
2014    9       23    22   3    6.54   470.2    6.1      39.932
2014    9       23    22   8    6.54   470.2    6.1      39.962
2014    9       23    22  14    6.55   470.2    6.2      39.993
2014    9       23    22  19    6.55   470.2    6.2      40.025
2014    9       23    22  24    6.56   470.3    6.2      40.056
2014    9       23    22  30    6.56   470.3    6.2      40.088
2014    9       23    22  35    6.57   470.4    6.2      40.121
2014    9       23    22  41    6.57   470.4    6.2      40.154
2014    9       23    22  46    6.58   470.4    6.2      40.188
2014    9       23    22  51    6.58   470.5    6.2      40.222
2014    9       23    22  57    6.59   470.5    6.2      40.257
2014    9       23    23   2    6.59   470.6    6.2      40.291
2014    9       23    23   7    6.60   470.6    6.2      40.326
2014    9       23    23  13    6.60   470.7    6.2      40.362
2014    9       23    23  18    6.61   470.7    6.2      40.398
2014    9       23    23  23    6.61   470.8    6.2      40.435
2014    9       23    23  29    6.62   470.9    6.2      40.473
2014    9       23    23  34    6.62   470.9    6.2      40.511
2014    9       23    23  39    6.63   471.0    6.2      40.550
2014    9       23    23  45    6.63   471.1    6.2      40.590
2014    9       23    23  50    6.64   471.2    6.2      40.630
2014    9       23    23  55    6.64   471.2    6.2      40.670
2014    9       24     0   1    6.65   471.3    6.2      40.710
2014    9       24     0   6    6.65   471.4    6.2      40.750
2014    9       24     0  12    6.66   471.5    6.3      40.790
2014    9       24     0  17    6.66   471.6    6.3      40.830
2014    9       24     0  22    6.67   471.7    6.3      40.871
2014    9       24     0  28    6.67   471.8    6.3      40.911
2014    9       24     0  33    6.68   471.9    6.3      40.953
2014    9       24     0  38    6.68   472.0    6.3      40.994
2014    9       24     0  44    6.69   472.1    6.3      41.035
2014    9       24     0  49    6.69   472.2    6.3      41.077
2014    9       24     0  54    6.70   472.3    6.3      41.119
2014    9       24     1   0    6.70   472.4    6.3      41.161
2014    9       24     1   5    6.71   472.5    6.3      41.204
2014    9       24     1  10    6.71   472.6    6.3      41.248
2014    9       24     1  16    6.72   472.7    6.3      41.292
2014    9       24     1  21    6.72   472.8    6.3      41.337
2014    9       24     1  26    6.73   472.9    6.3      41.382
2014    9       24     1  32    6.73   473.0    6.3      41.428
2014    9       24     1  37    6.74   473.1    6.3      41.474
2014    9       24     1  43    6.75   473.3    6.3      41.520
2014    9       24     1  48    6.75   473.4    6.3      41.568
2014    9       24     1  53    6.75   473.5    6.4      41.615
2014    9       24     1  59    6.76   473.6    6.4      41.664
2014    9       24     2   4    6.76   473.8    6.4      41.713
2014    9       24     2   9    6.77   473.9    6.4      41.764
2014    9       24     2  15    6.77   474.0    6.4      41.814
2014    9       24     2  20    6.78   474.1    6.4      41.864
2014    9       24     2  25    6.78   474.3    6.4      41.915
2014    9       24     2  31    6.79   474.4    6.4      41.965
2014    9       24     2  36    6.79   474.5    6.4      42.015
2014    9       24     2  41    6.80   474.6    6.4      42.065
2014    9       24     2  47    6.80   474.8    6.4      42.115
2014    9       24     2  52    6.81   474.9    6.4      42.166
2014    9       24     2  57    6.81   475.0    6.4      42.216
2014    9       24     3   3    6.82   475.1    6.4      42.267
2014    9       24     3   8    6.82   475.3    6.4      42.319
2014    9       24     3  13    6.83   475.4    6.4      42.371
2014    9       24     3  19    6.83   475.5    6.4      42.425
2014    9       24     3  24    6.84   475.6    6.4      42.480
2014    9       24     3  30    6.84   475.7    6.4      42.535
2014    9       24     3  35    6.85   475.9    6.5      42.591
2014    9       24     3  40    6.85   476.0    6.5      42.648
2014    9       24     3  46    6.85   476.1    6.5      42.707
2014    9       24     3  51    6.86   476.2    6.5      42.767
2014    9       24     3  56    6.86   476.4    6.5      42.829
2014    9       24     4   2    6.87   476.5    6.5      42.892
2014    9       24     4   7    6.87   476.6    6.5      42.957
2014    9       24     4  12    6.88   476.8    6.5      43.024
2014    9       24     4  18    6.88   476.9    6.5      43.091
2014    9       24     4  23    6.89   477.0    6.5      43.157
2014    9       24     4  28    6.89   477.2    6.5      43.222
2014    9       24     4  34    6.90   477.3    6.5      43.286
2014    9       24     4  39    6.90   477.5    6.5      43.349
2014    9       24     4  44    6.91   477.6    6.5      43.410
2014    9       24     4  50    6.91   477.7    6.5      43.470
2014    9       24     4  55    6.92   477.9    6.5      43.529
2014    9       24     5   1    6.92   478.0    6.5      43.586
2014    9       24     5   6    6.92   478.2    6.5      43.642
2014    9       24     5  11    6.93   478.3    6.5      43.697
2014    9       24     5  17    6.93   478.4    6.5      43.751
2014    9       24     5  22    6.94   478.6    6.5      43.803
2014    9       24     5  27    6.94   478.7    6.5      43.855
2014    9       24     5  33    6.95   478.9    6.5      43.906
2014    9       24     5  38    6.95   479.0    6.5      43.956
2014    9       24     5  43    6.96   479.2    6.5      44.006
2014    9       24     5  49    6.96   479.3    6.5      44.054
2014    9       24     5  54    6.96   479.5    6.5      44.102
2014    9       24     5  59    6.97   479.6    6.5      44.150
2014    9       24     6   5    6.97   479.8    6.5      44.197
2014    9       24     6  10    6.98   479.9    6.5      44.243
2014    9       24     6  15    6.98   480.1    6.5      44.288
2014    9       24     6  21    6.99   480.2    6.5      44.333
2014    9       24     6  26    6.99   480.4    6.5      44.377
2014    9       24     6  31    7.00   480.5    6.5      44.422
2014    9       24     6  37    7.00   480.7    6.5      44.466
2014    9       24     6  42    7.00   480.8    6.5      44.510
2014    9       24     6  48    7.01   481.0    6.5      44.554
2014    9       24     6  53    7.01   481.2    6.5      44.598
2014    9       24     6  58    7.02   481.3    6.5      44.642
2014    9       24     7   4    7.02   481.5    6.5      44.685
2014    9       24     7   9    7.03   481.7    6.5      44.727
2014    9       24     7  14    7.03   481.8    6.5      44.769
2014    9       24     7  20    7.04   482.0    6.5      44.810
2014    9       24     7  25    7.04   482.2    6.5      44.851
2014    9       24     7  30    7.05   482.3    6.5      44.891
2014    9       24     7  36    7.05   482.5    6.5      44.931
2014    9       24     7  41    7.05   482.7    6.5      44.970
2014    9       24     7  46    7.06   482.9    6.5      45.009
2014    9       24     7  52    7.06   483.0    6.5      45.048
2014    9       24     7  57    7.07   483.2    6.5      45.086
2014    9       24     8   2    7.07   483.4    6.5      45.124
2014    9       24     8   8    7.08   483.6    6.5      45.162
2014    9       24     8  13    7.08   483.7    6.5      45.200
2014    9       24     8  19    7.08   483.9    6.5      45.237
2014    9       24     8  24    7.09   484.1    6.5      45.274
2014    9       24     8  29    7.09   484.2    6.5      45.311
2014    9       24     8  35    7.10   484.4    6.5      45.348
2014    9       24     8  40    7.10   484.6    6.5      45.385
2014    9       24     8  45    7.10   484.8    6.5      45.421
2014    9       24     8  51    7.11   484.9    6.5      45.458
2014    9       24     8  56    7.11   485.1    6.5      45.495
2014    9       24     9   1    7.12   485.3    6.5      45.532
2014    9       24     9   7    7.12   485.5    6.5      45.569
2014    9       24     9  12    7.12   485.6    6.5      45.607
2014    9       24     9  17    7.13   485.8    6.5      45.646
2014    9       24     9  23    7.13   486.0    6.5      45.684
2014    9       24     9  28    7.14   486.1    6.5      45.724
2014    9       24     9  33    7.14   486.3    6.5      45.765
2014    9       24     9  39    7.15   486.5    6.5      45.806
2014    9       24     9  44    7.15   486.7    6.5      45.848
2014    9       24     9  49    7.15   486.8    6.5      45.892
2014    9       24     9  55    7.16   487.0    6.5      45.937
2014    9       24    10   0    7.16   487.2    6.5      45.983
2014    9       24    10   6    7.17   487.3    6.5      46.031
2014    9       24    10  11    7.17   487.5    6.5      46.080
2014    9       24    10  16    7.17   487.7    6.5      46.130
2014    9       24    10  22    7.18   487.8    6.5      46.184
2014    9       24    10  27    7.18   488.0    6.5      46.239
2014    9       24    10  32    7.19   488.2    6.5      46.297
2014    9       24    10  38    7.19   488.3    6.5      46.358
2014    9       24    10  43    7.20   488.5    6.5      46.420
2014    9       24    10  48    7.20   488.7    6.5      46.486
2014    9       24    10  54    7.20   488.9    6.5      46.555
2014    9       24    10  59    7.21   489.0    6.5      46.629
2014    9       24    11   4    7.21   489.2    6.6      46.706
2014    9       24    11  10    7.22   489.4    6.6      46.785
2014    9       24    11  15    7.22   489.6    6.6      46.867
2014    9       24    11  20    7.23   489.8    6.6      46.954
2014    9       24    11  26    7.23   489.9    6.6      47.045
2014    9       24    11  31    7.24   490.1    6.6      47.139
2014    9       24    11  37    7.24   490.3    6.6      47.235
2014    9       24    11  42    7.25   490.5    6.6      47.330
2014    9       24    11  47    7.25   490.8    6.6      47.427
2014    9       24    11  53    7.25   491.0    6.6      47.523
2014    9       24    11  58    7.26   491.2    6.6      47.618
2014    9       24    12   3    7.26   491.4    6.6      47.709
2014    9       24    12   9    7.27   491.6    6.6      47.797
2014    9       24    12  14    7.27   491.8    6.6      47.882
2014    9       24    12  19    7.27   492.1    6.6      47.965
2014    9       24    12  25    7.28   492.3    6.6      48.044
2014    9       24    12  30    7.28   492.5    6.7      48.120
2014    9       24    12  35    7.29   492.7    6.7      48.194
2014    9       24    12  41    7.29   493.0    6.7      48.265
2014    9       24    12  46    7.29   493.2    6.7      48.333
2014    9       24    12  51    7.30   493.4    6.7      48.399
2014    9       24    12  57    7.30   493.6    6.7      48.462
2014    9       24    13   2    7.30   493.9    6.6      48.523
2014    9       24    13   7    7.31   494.1    6.6      48.582
2014    9       24    13  13    7.31   494.4    6.6      48.640
2014    9       24    13  18    7.32   494.6    6.6      48.695
2014    9       24    13  24    7.32   494.8    6.6      48.748
2014    9       24    13  29    7.32   495.1    6.6      48.800
2014    9       24    13  34    7.33   495.3    6.6      48.851
2014    9       24    13  40    7.33   495.5    6.6      48.900
2014    9       24    13  45    7.33   495.8    6.6      48.947
2014    9       24    13  50    7.34   496.0    6.6      48.994
2014    9       24    13  56    7.34   496.3    6.6      49.039
2014    9       24    14   1    7.34   496.5    6.6      49.084
2014    9       24    14   6    7.35   496.8    6.6      49.127
2014    9       24    14  12    7.35   497.0    6.6      49.170
2014    9       24    14  17    7.35   497.2    6.6      49.212
2014    9       24    14  22    7.36   497.5    6.6      49.253
2014    9       24    14  28    7.36   497.7    6.6      49.294
2014    9       24    14  33    7.36   498.0    6.6      49.334
2014    9       24    14  38    7.37   498.2    6.6      49.374
2014    9       24    14  44    7.37   498.5    6.6      49.414
2014    9       24    14  49    7.37   498.7    6.6      49.453
2014    9       24    14  55    7.38   499.0    6.6      49.492
2014    9       24    15   0    7.38   499.2    6.6      49.531
2014    9       24    15   5    7.39   499.4    6.6      49.569
2014    9       24    15  11    7.39   499.7    6.5      49.608
2014    9       24    15  16    7.39   499.9    6.5      49.647
2014    9       24    15  21    7.40   500.2    6.5      49.685
2014    9       24    15  27    7.40   500.4    6.5      49.724
2014    9       24    15  32    7.40   500.7    6.5      49.763
2014    9       24    15  37    7.41   500.9    6.5      49.802
2014    9       24    15  43    7.41   501.2    6.5      49.841
2014    9       24    15  48    7.41   501.4    6.5      49.881
2014    9       24    15  53    7.42   501.7    6.5      49.922
2014    9       24    15  59    7.42   501.9    6.5      49.963
2014    9       24    16   4    7.42   502.1    6.5      50.006
2014    9       24    16   9    7.43   502.4    6.5      50.049
2014    9       24    16  15    7.43   502.6    6.5      50.094
2014    9       24    16  20    7.43   502.9    6.5      50.139
2014    9       24    16  25    7.44   503.1    6.5      50.186
2014    9       24    16  31    7.44   503.4    6.5      50.235
2014    9       24    16  36    7.44   503.6    6.5      50.287
2014    9       24    16  42    7.45   503.9    6.5      50.341
2014    9       24    16  47    7.45   504.2    6.5      50.398
2014    9       24    16  52    7.45   504.4    6.5      50.458
2014    9       24    16  58    7.46   504.7    6.5      50.519
2014    9       24    17   3    7.46   504.9    6.5      50.584
2014    9       24    17   8    7.46   505.2    6.5      50.652
2014    9       24    17  14    7.47   505.5    6.5      50.724
2014    9       24    17  19    7.47   505.7    6.5      50.800
2014    9       24    17  24    7.47   506.0    6.5      50.879
2014    9       24    17  30    7.48   506.3    6.5      50.961
2014    9       24    17  35    7.48   506.6    6.5      51.047
2014    9       24    17  40    7.48   506.9    6.5      51.136
2014    9       24    17  46    7.49   507.2    6.5      51.223
2014    9       24    17  51    7.49   507.5    6.5      51.310
2014    9       24    17  56    7.49   507.7    6.5      51.397
2014    9       24    18   2    7.50   508.0    6.5      51.483
2014    9       24    18   7    7.50   508.3    6.5      51.570
2014    9       24    18  13    7.50   508.6    6.5      51.657
2014    9       24    18  18    7.51   508.9    6.5      51.743
2014    9       24    18  23    7.51   509.2    6.5      51.828
2014    9       24    18  29    7.51   509.4    6.5      51.913
2014    9       24    18  34    7.52   509.7    6.5      51.998
2014    9       24    18  39    7.52   510.0    6.5      52.084
2014    9       24    18  45    7.52   510.3    6.5      52.171
2014    9       24    18  50    7.53   510.6    6.5      52.257
2014    9       24    18  55    7.53   510.9    6.5      52.343
2014    9       24    19   1    7.53   511.2    6.5      52.429
2014    9       24    19   6    7.54   511.5    6.5      52.516
2014    9       24    19  11    7.54   511.8    6.5      52.599
2014    9       24    19  17    7.54   512.1    6.5      52.680
2014    9       24    19  22    7.55   512.4    6.5      52.758
2014    9       24    19  27    7.55   512.7    6.5      52.833
2014    9       24    19  33    7.55   513.0    6.5      52.906
2014    9       24    19  38    7.56   513.3    6.5      52.976
2014    9       24    19  43    7.56   513.6    6.5      53.044
2014    9       24    19  49    7.56   513.9    6.5      53.109
2014    9       24    19  54    7.56   514.2    6.5      53.173
2014    9       24    20   0    7.57   514.5    6.5      53.234
2014    9       24    20   5    7.57   514.8    6.5      53.294
2014    9       24    20  10    7.57   515.2    6.5      53.352
2014    9       24    20  16    7.57   515.5    6.5      53.408
2014    9       24    20  21    7.58   515.8    6.5      53.463
2014    9       24    20  26    7.58   516.1    6.5      53.517
2014    9       24    20  32    7.58   516.5    6.5      53.570
2014    9       24    20  37    7.58   516.8    6.5      53.622
2014    9       24    20  42    7.59   517.1    6.4      53.672
2014    9       24    20  48    7.59   517.5    6.4      53.723
2014    9       24    20  53    7.59   517.8    6.4      53.772
2014    9       24    20  58    7.59   518.1    6.4      53.821
2014    9       24    21   4    7.60   518.5    6.4      53.869
2014    9       24    21   9    7.60   518.8    6.4      53.917
2014    9       24    21  14    7.60   519.2    6.4      53.964
2014    9       24    21  20    7.60   519.5    6.4      54.011
2014    9       24    21  25    7.61   519.9    6.4      54.058
2014    9       24    21  31    7.61   520.2    6.4      54.105
2014    9       24    21  36    7.61   520.6    6.4      54.152
2014    9       24    21  41    7.61   520.9    6.4      54.199
2014    9       24    21  47    7.62   521.3    6.4      54.247
2014    9       24    21  52    7.62   521.6    6.3      54.295
2014    9       24    21  57    7.62   522.0    6.3      54.343
2014    9       24    22   3    7.62   522.3    6.3      54.392
2014    9       24    22   8    7.62   522.7    6.3      54.443
2014    9       24    22  13    7.63   523.0    6.3      54.496
2014    9       24    22  19    7.63   523.4    6.3      54.550
2014    9       24    22  24    7.63   523.8    6.3      54.605
2014    9       24    22  29    7.63   524.1    6.3      54.662
2014    9       24    22  35    7.64   524.5    6.3      54.721
2014    9       24    22  40    7.64   524.9    6.3      54.782
2014    9       24    22  45    7.64   525.3    6.3      54.846
2014    9       24    22  51    7.64   525.7    6.3      54.911
2014    9       24    22  56    7.64   526.1    6.3      54.978
2014    9       24    23   1    7.65   526.5    6.3      55.047
2014    9       24    23   7    7.65   526.9    6.3      55.114
2014    9       24    23  12    7.65   527.3    6.3      55.180
2014    9       24    23  18    7.65   527.7    6.3      55.245
2014    9       24    23  23    7.65   528.1    6.2      55.309
2014    9       24    23  28    7.66   528.5    6.2      55.372
2014    9       24    23  34    7.66   528.9    6.2      55.434
2014    9       24    23  39    7.66   529.2    6.2      55.496
2014    9       24    23  44    7.66   529.6    6.2      55.559
2014    9       24    23  50    7.66   530.0    6.2      55.623
2014    9       24    23  55    7.66   530.3    6.2      55.689
2014    9       25     0   0    7.66   530.7    6.2      55.757
2014    9       25     0   6    7.66   531.1    6.2      55.825
2014    9       25     0  11    7.66   531.4    6.2      55.896
2014    9       25     0  16    7.67   531.8    6.2      55.968
2014    9       25     0  22    7.67   532.2    6.2      56.045
2014    9       25     0  27    7.67   532.5    6.2      56.125
2014    9       25     0  32    7.67   532.9    6.2      56.207
2014    9       25     0  38    7.67   533.3    6.2      56.292
2014    9       25     0  43    7.67   533.7    6.2      56.380
2014    9       25     0  49    7.67   534.1    6.2      56.468
2014    9       25     0  54    7.67   534.5    6.2      56.557
2014    9       25     0  59    7.67   534.9    6.2      56.644
2014    9       25     1   5    7.67   535.3    6.2      56.728
2014    9       25     1  10    7.67   535.7    6.1      56.810
2014    9       25     1  15    7.67   536.1    6.1      56.890
2014    9       25     1  21    7.67   536.5    6.1      56.966
2014    9       25     1  26    7.67   536.9    6.1      57.041
2014    9       25     1  31    7.67   537.3    6.1      57.112
2014    9       25     1  37    7.67   537.7    6.1      57.181
2014    9       25     1  42    7.67   538.1    6.1      57.247
2014    9       25     1  47    7.67   538.5    6.1      57.310
2014    9       25     1  53    7.67   538.9    6.1      57.370
2014    9       25     1  58    7.67   539.3    6.1      57.428
2014    9       25     2   3    7.67   539.8    6.1      57.483
2014    9       25     2   9    7.67   540.2    6.0      57.535
2014    9       25     2  14    7.67   540.6    6.0      57.585
2014    9       25     2  19    7.67   541.0    6.0      57.632
2014    9       25     2  25    7.67   541.4    6.0      57.677
2014    9       25     2  30    7.67   541.9    6.0      57.720
2014    9       25     2  36    7.67   542.3    6.0      57.761
2014    9       25     2  41    7.67   542.8    6.0      57.801
2014    9       25     2  46    7.67   543.2    6.0      57.839
2014    9       25     2  52    7.67   543.7    5.9      57.874
2014    9       25     2  57    7.67   544.1    5.9      57.908
2014    9       25     3   2    7.67   544.6    5.9      57.940
2014    9       25     3   8    7.67   545.1    5.9      57.970
2014    9       25     3  13    7.66   545.6    5.9      58.000
2014    9       25     3  18    7.66   546.0    5.9      58.029
2014    9       25     3  24    7.66   546.5    5.9      58.053
2014    9       25     3  29    7.66   547.0    5.8      58.072
2014    9       25     3  34    7.66   547.4    5.8      58.086
2014    9       25     3  40    7.65   547.9    5.8      58.096
2014    9       25     3  45    7.65   548.3    5.8      58.103
2014    9       25     3  50    7.65   548.6    5.8      58.103
2014    9       25     3  56    7.65   549.0    5.8      58.101
2014    9       25     4   1    7.64   549.3    5.7      58.103
2014    9       25     4   6    7.64   549.6    5.7      58.106
2014    9       25     4  12    7.64   550.0    5.7      58.112
2014    9       25     4  17    7.64   550.3    5.7      58.119
2014    9       25     4  23    7.64   550.6    5.7      58.129
2014    9       25     4  28    7.63   550.9    5.7      58.141
2014    9       25     4  33    7.63   551.3    5.7      58.155
2014    9       25     4  39    7.63   551.6    5.7      58.172
2014    9       25     4  44    7.63   551.9    5.6      58.192
2014    9       25     4  49    7.63   552.2    5.6      58.217
2014    9       25     4  55    7.63   552.5    5.6      58.245
2014    9       25     5   0    7.62   552.9    5.6      58.279
2014    9       25     5   5    7.62   553.2    5.6      58.318
2014    9       25     5  11    7.62   553.6    5.6      58.363
2014    9       25     5  16    7.62   554.0    5.6      58.415
2014    9       25     5  21    7.62   554.4    5.6      58.474
2014    9       25     5  27    7.62   554.9    5.6      58.538
2014    9       25     5  32    7.62   555.3    5.6      58.606
2014    9       25     5  37    7.62   555.7    5.6      58.675
2014    9       25     5  43    7.62   556.2    5.6      58.746
2014    9       25     5  48    7.61   556.6    5.5      58.817
2014    9       25     5  54    7.61   557.1    5.5      58.885
2014    9       25     5  59    7.61   557.5    5.5      58.951
2014    9       25     6   4    7.61   557.9    5.5      59.017
2014    9       25     6  10    7.61   558.4    5.5      59.081
2014    9       25     6  15    7.60   558.8    5.5      59.143
2014    9       25     6  20    7.60   559.2    5.5      59.202
2014    9       25     6  26    7.60   559.7    5.5      59.257
2014    9       25     6  31    7.60   560.1    5.5      59.309
2014    9       25     6  36    7.59   560.5    5.5      59.358
2014    9       25     6  42    7.59   561.0    5.4      59.403
2014    9       25     6  47    7.59   561.4    5.4      59.445
2014    9       25     6  52    7.58   561.9    5.4      59.485
2014    9       25     6  58    7.58   562.3    5.4      59.523
2014    9       25     7   3    7.58   562.7    5.4      59.558
2014    9       25     7   8    7.57   563.1    5.4      59.590
2014    9       25     7  14    7.57   563.6    5.4      59.623
2014    9       25     7  19    7.56   564.0    5.4      59.655
2014    9       25     7  25    7.56   564.4    5.4      59.685
2014    9       25     7  30    7.55   564.8    5.3      59.713
2014    9       25     7  35    7.55   565.2    5.3      59.737
2014    9       25     7  41    7.54   565.6    5.3      59.759
2014    9       25     7  46    7.54   566.0    5.3      59.778
2014    9       25     7  51    7.53   566.3    5.3      59.795
2014    9       25     7  57    7.53   566.6    5.3      59.809
2014    9       25     8   2    7.52   567.0    5.3      59.822
2014    9       25     8   7    7.52   567.3    5.3      59.836
2014    9       25     8  13    7.52   567.6    5.2      59.850
2014    9       25     8  18    7.51   567.9    5.2      59.865
2014    9       25     8  23    7.51   568.2    5.2      59.880
2014    9       25     8  29    7.50   568.5    5.2      59.895
2014    9       25     8  34    7.50   568.8    5.2      59.910
2014    9       25     8  39    7.50   569.1    5.2      59.926
2014    9       25     8  45    7.49   569.5    5.2      59.944
2014    9       25     8  50    7.49   569.8    5.2      59.961
2014    9       25     8  55    7.48   570.1    5.1      59.980
2014    9       25     9   1    7.48   570.5    5.1      60.000
2014    9       25     9   6    7.48   570.8    5.1      60.019
2014    9       25     9  12    7.47   571.2    5.1      60.038
2014    9       25     9  17    7.47   571.6    5.1      60.054
2014    9       25     9  22    7.46   572.0    5.1      60.069
2014    9       25     9  28    7.46   572.4    5.1      60.082
2014    9       25     9  33    7.46   572.7    5.1      60.091
2014    9       25     9  38    7.45   573.1    5.1      60.097
2014    9       25     9  44    7.45   573.5    5.0      60.099
2014    9       25     9  49    7.44   573.9    5.0      60.100
2014    9       25     9  54    7.44   574.3    5.0      60.099
2014    9       25    10   0    7.43   574.7    5.0      60.097
2014    9       25    10   5    7.43   575.1    5.0      60.092
2014    9       25    10  10    7.42   575.5    5.0      60.085
2014    9       25    10  16    7.42   575.9    5.0      60.077
2014    9       25    10  21    7.41   576.4    5.0      60.069
2014    9       25    10  26    7.41   576.8    4.9      60.060
2014    9       25    10  32    7.40   577.2    4.9      60.050
2014    9       25    10  37    7.40   577.6    4.9      60.033
2014    9       25    10  42    7.39   578.0    4.9      60.011
2014    9       25    10  48    7.39   578.4    4.9      59.985
2014    9       25    10  53    7.38   578.8    4.9      59.955
2014    9       25    10  59    7.37   579.1    4.9      59.919
2014    9       25    11   4    7.37   579.3    4.8      59.879
2014    9       25    11   9    7.36   579.6    4.8      59.840
2014    9       25    11  15    7.36   579.8    4.8      59.805
2014    9       25    11  20    7.35   580.0    4.8      59.773
2014    9       25    11  25    7.35   580.2    4.8      59.745
2014    9       25    11  31    7.34   580.4    4.8      59.721
2014    9       25    11  36    7.34   580.6    4.8      59.700
2014    9       25    11  41    7.33   580.8    4.8      59.684
2014    9       25    11  47    7.33   581.0    4.8      59.672
2014    9       25    11  52    7.32   581.2    4.7      59.663
2014    9       25    11  57    7.32   581.4    4.7      59.660
2014    9       25    12   3    7.31   581.6    4.7      59.663
2014    9       25    12   8    7.31   581.8    4.7      59.673
2014    9       25    12  13    7.31   582.1    4.7      59.689
2014    9       25    12  19    7.30   582.3    4.7      59.710
2014    9       25    12  24    7.30   582.6    4.7      59.739
2014    9       25    12  30    7.29   582.9    4.7      59.776
2014    9       25    12  35    7.29   583.2    4.7      59.816
2014    9       25    12  40    7.29   583.5    4.7      59.859
2014    9       25    12  46    7.28   583.9    4.7      59.902
2014    9       25    12  51    7.28   584.2    4.7      59.944
2014    9       25    12  56    7.27   584.5    4.7      59.984
2014    9       25    13   2    7.27   584.8    4.7      60.017
2014    9       25    13   7    7.26   585.1    4.7      60.045
2014    9       25    13  12    7.26   585.4    4.6      60.068
2014    9       25    13  18    7.25   585.7    4.6      60.088
2014    9       25    13  23    7.25   586.0    4.6      60.104
2014    9       25    13  28    7.24   586.2    4.6      60.118
2014    9       25    13  34    7.24   586.5    4.6      60.129
2014    9       25    13  39    7.23   586.8    4.6      60.139
2014    9       25    13  44    7.23   587.1    4.6      60.148
2014    9       25    13  50    7.22   587.4    4.6      60.154
2014    9       25    13  55    7.22   587.7    4.6      60.158
2014    9       25    14   1    7.21   588.0    4.6      60.162
2014    9       25    14   6    7.20   588.3    4.6      60.164
2014    9       25    14  11    7.20   588.6    4.6      60.164
2014    9       25    14  17    7.19   589.0    4.5      60.160
2014    9       25    14  22    7.19   589.3    4.5      60.157
2014    9       25    14  27    7.18   589.6    4.5      60.153
2014    9       25    14  33    7.17   590.0    4.5      60.148
2014    9       25    14  38    7.17   590.3    4.5      60.139
2014    9       25    14  43    7.16   590.6    4.5      60.127
2014    9       25    14  49    7.15   590.8    4.5      60.111
2014    9       25    14  54    7.15   591.1    4.5      60.094
2014    9       25    14  59    7.14   591.3    4.5      60.073
2014    9       25    15   5    7.13   591.6    4.4      60.049
2014    9       25    15  10    7.13   591.8    4.4      60.023
2014    9       25    15  15    7.12   592.0    4.4      59.998
2014    9       25    15  21    7.12   592.1    4.4      59.975
2014    9       25    15  26    7.11   592.3    4.4      59.953
2014    9       25    15  31    7.11   592.5    4.4      59.933
2014    9       25    15  37    7.10   592.7    4.4      59.914
2014    9       25    15  42    7.09   592.8    4.4      59.896
2014    9       25    15  47    7.09   593.0    4.4      59.881
2014    9       25    15  53    7.08   593.2    4.4      59.868
2014    9       25    15  58    7.08   593.4    4.4      59.858
2014    9       25    16   4    7.07   593.6    4.4      59.851
2014    9       25    16   9    7.07   593.8    4.4      59.846
2014    9       25    16  14    7.06   594.0    4.3      59.844
2014    9       25    16  20    7.06   594.3    4.3      59.843
2014    9       25    16  25    7.05   594.5    4.3      59.842
2014    9       25    16  30    7.05   594.8    4.3      59.840
2014    9       25    16  36    7.04   595.0    4.3      59.837
2014    9       25    16  41    7.04   595.2    4.3      59.833
2014    9       25    16  46    7.03   595.5    4.3      59.825
2014    9       25    16  52    7.03   595.7    4.3      59.815
2014    9       25    16  57    7.02   595.9    4.3      59.804
2014    9       25    17   2    7.02   596.1    4.3      59.791
2014    9       25    17   8    7.01   596.3    4.3      59.777
2014    9       25    17  13    7.01   596.5    4.3      59.763
2014    9       25    17  18    7.00   596.7    4.3      59.748
2014    9       25    17  24    7.00   596.9    4.3      59.732
2014    9       25    17  29    6.99   597.1    4.3      59.717
2014    9       25    17  35    6.99   597.3    4.2      59.700
2014    9       25    17  40    6.98   597.5    4.2      59.684
2014    9       25    17  45    6.98   597.7    4.2      59.668
2014    9       25    17  51    6.97   597.8    4.2      59.651
2014    9       25    17  56    6.97   598.0    4.2      59.636
2014    9       25    18   1    6.96   598.2    4.2      59.620
2014    9       25    18   7    6.96   598.4    4.2      59.606
2014    9       25    18  12    6.95   598.5    4.2      59.593
2014    9       25    18  17    6.95   598.7    4.2      59.580
2014    9       25    18  23    6.94   598.9    4.2      59.569
2014    9       25    18  28    6.94   599.0    4.2      59.560
2014    9       25    18  33    6.94   599.2    4.2      59.552
2014    9       25    18  39    6.93   599.4    4.2      59.546
2014    9       25    18  44    6.93   599.5    4.2      59.542
2014    9       25    18  49    6.92   599.7    4.2      59.539
2014    9       25    18  55    6.92   599.8    4.2      59.539
2014    9       25    19   0    6.92   600.0    4.2      59.541
2014    9       25    19   5    6.91   600.2    4.1      59.544
2014    9       25    19  11    6.91   600.3    4.1      59.550
2014    9       25    19  16    6.90   600.5    4.1      59.557
2014    9       25    19  22    6.90   600.7    4.1      59.566
2014    9       25    19  27    6.90   600.9    4.1      59.577
2014    9       25    19  32    6.89   601.0    4.1      59.588
2014    9       25    19  38    6.89   601.2    4.1      59.599
2014    9       25    19  43    6.88   601.4    4.1      59.611
2014    9       25    19  48    6.88   601.6    4.1      59.623
2014    9       25    19  54    6.88   601.8    4.1      59.633
2014    9       25    19  59    6.87   602.0    4.1      59.642
2014    9       25    20   4    6.87   602.1    4.1      59.650
2014    9       25    20  10    6.86   602.3    4.1      59.657
2014    9       25    20  15    6.86   602.5    4.1      59.663
2014    9       25    20  20    6.85   602.7    4.1      59.669
2014    9       25    20  26    6.85   602.9    4.1      59.673
2014    9       25    20  31    6.85   603.1    4.1      59.677
2014    9       25    20  36    6.84   603.3    4.1      59.680
2014    9       25    20  42    6.84   603.4    4.1      59.682
2014    9       25    20  47    6.83   603.6    4.1      59.684
2014    9       25    20  53    6.83   603.8    4.1      59.685
2014    9       25    20  58    6.82   604.0    4.1      59.685
2014    9       25    21   3    6.82   604.2    4.1      59.686
2014    9       25    21   9    6.81   604.4    4.0      59.685
2014    9       25    21  14    6.81   604.5    4.0      59.685
2014    9       25    21  19    6.81   604.7    4.0      59.684
2014    9       25    21  25    6.80   604.9    4.0      59.683
2014    9       25    21  30    6.80   605.1    4.0      59.681
2014    9       25    21  35    6.79   605.3    4.0      59.679
2014    9       25    21  41    6.79   605.4    4.0      59.677
2014    9       25    21  46    6.78   605.6    4.0      59.675
2014    9       25    21  51    6.78   605.8    4.0      59.672
2014    9       25    21  57    6.77   606.0    4.0      59.669
2014    9       25    22   2    6.77   606.1    4.0      59.666
2014    9       25    22   7    6.77   606.3    4.0      59.663
2014    9       25    22  13    6.76   606.5    4.0      59.660
2014    9       25    22  18    6.76   606.7    4.0      59.657
2014    9       25    22  23    6.75   606.8    4.0      59.653
2014    9       25    22  29    6.75   607.0    4.0      59.650
2014    9       25    22  34    6.74   607.2    4.0      59.647
2014    9       25    22  40    6.74   607.3    4.0      59.643
2014    9       25    22  45    6.74   607.5    4.0      59.640
2014    9       25    22  50    6.73   607.6    4.0      59.637
2014    9       25    22  56    6.73   607.8    4.0      59.634
2014    9       25    23   1    6.72   608.0    3.9      59.632
2014    9       25    23   6    6.72   608.1    3.9      59.629
2014    9       25    23  12    6.72   608.3    3.9      59.627
2014    9       25    23  17    6.71   608.4    3.9      59.625
2014    9       25    23  22    6.71   608.6    3.9      59.623
2014    9       25    23  28    6.70   608.7    3.9      59.622
2014    9       25    23  33    6.70   608.9    3.9      59.621
2014    9       25    23  38    6.70   609.0    3.9      59.620
2014    9       25    23  44    6.69   609.2    3.9      59.619
2014    9       25    23  49    6.69   609.3    3.9      59.619
2014    9       25    23  54    6.69   609.5    3.9      59.618
2014    9       26     0   0    6.68   609.6    3.9      59.618
