year    month   day   hour  minute  B_enl V_enl   n_enl       T_enl
[year] [month] [day] [hour][minute] [nT]  [km/s]  [cm-3]      [kK]
2014    9       25     0   3    5.94   614.5    3.6      63.137
2014    9       25     0   8    5.93   614.6    3.6      63.112
2014    9       25     0  14    5.93   614.7    3.6      63.088
2014    9       25     0  19    5.92   614.7    3.6      63.065
2014    9       25     0  25    5.92   614.8    3.6      63.042
2014    9       25     0  30    5.91   614.9    3.6      63.019
2014    9       25     0  36    5.90   615.0    3.6      62.997
2014    9       25     0  42    5.90   615.1    3.6      62.976
2014    9       25     0  47    5.89   615.2    3.6      62.955
2014    9       25     0  53    5.89   615.2    3.6      62.934
2014    9       25     0  58    5.88   615.3    3.6      62.915
2014    9       25     1   4    5.88   615.4    3.6      62.895
2014    9       25     1   9    5.87   615.5    3.6      62.876
2014    9       25     1  15    5.87   615.5    3.6      62.858
2014    9       25     1  20    5.86   615.6    3.6      62.839
2014    9       25     1  26    5.86   615.7    3.6      62.821
2014    9       25     1  32    5.85   615.8    3.6      62.803
2014    9       25     1  37    5.85   615.8    3.6      62.784
2014    9       25     1  43    5.84   615.9    3.6      62.766
2014    9       25     1  48    5.84   616.0    3.6      62.748
2014    9       25     1  54    5.83   616.0    3.6      62.729
2014    9       25     1  59    5.83   616.1    3.6      62.710
2014    9       25     2   5    5.82   616.2    3.6      62.691
2014    9       25     2  10    5.82   616.2    3.6      62.671
2014    9       25     2  16    5.81   616.3    3.6      62.651
2014    9       25     2  22    5.81   616.4    3.5      62.630
2014    9       25     2  27    5.80   616.4    3.5      62.608
2014    9       25     2  33    5.80   616.5    3.5      62.586
2014    9       25     2  38    5.79   616.5    3.5      62.563
2014    9       25     2  44    5.79   616.6    3.5      62.540
2014    9       25     2  49    5.78   616.6    3.5      62.517
2014    9       25     2  55    5.78   616.7    3.5      62.493
2014    9       25     3   0    5.77   616.8    3.5      62.468
2014    9       25     3   6    5.77   616.8    3.5      62.443
2014    9       25     3  12    5.76   616.9    3.5      62.417
2014    9       25     3  17    5.76   616.9    3.5      62.391
2014    9       25     3  23    5.75   617.0    3.5      62.364
2014    9       25     3  28    5.75   617.0    3.5      62.337
2014    9       25     3  34    5.74   617.1    3.5      62.310
2014    9       25     3  39    5.74   617.1    3.5      62.282
2014    9       25     3  45    5.73   617.2    3.5      62.253
2014    9       25     3  50    5.73   617.2    3.5      62.224
2014    9       25     3  56    5.72   617.3    3.5      62.195
2014    9       25     4   2    5.72   617.3    3.5      62.165
2014    9       25     4   7    5.71   617.4    3.5      62.135
2014    9       25     4  13    5.71   617.4    3.5      62.105
2014    9       25     4  18    5.70   617.5    3.5      62.074
2014    9       25     4  24    5.70   617.5    3.5      62.044
2014    9       25     4  29    5.70   617.5    3.5      62.013
2014    9       25     4  35    5.69   617.6    3.5      61.982
2014    9       25     4  40    5.69   617.6    3.5      61.951
2014    9       25     4  46    5.68   617.7    3.5      61.920
2014    9       25     4  52    5.68   617.7    3.4      61.888
2014    9       25     4  57    5.67   617.7    3.4      61.857
2014    9       25     5   3    5.67   617.8    3.4      61.826
2014    9       25     5   8    5.66   617.8    3.4      61.795
2014    9       25     5  14    5.66   617.8    3.4      61.765
2014    9       25     5  19    5.65   617.9    3.4      61.734
2014    9       25     5  25    5.65   617.9    3.4      61.704
2014    9       25     5  31    5.64   617.9    3.4      61.674
2014    9       25     5  36    5.64   618.0    3.4      61.644
2014    9       25     5  42    5.64   618.0    3.4      61.615
2014    9       25     5  47    5.63   618.0    3.4      61.586
2014    9       25     5  53    5.63   618.1    3.4      61.557
2014    9       25     5  58    5.62   618.1    3.4      61.528
2014    9       25     6   4    5.62   618.1    3.4      61.500
2014    9       25     6   9    5.61   618.2    3.4      61.473
2014    9       25     6  15    5.61   618.2    3.4      61.446
2014    9       25     6  21    5.60   618.2    3.4      61.419
2014    9       25     6  26    5.60   618.2    3.4      61.392
2014    9       25     6  32    5.60   618.3    3.4      61.366
2014    9       25     6  37    5.59   618.3    3.4      61.341
2014    9       25     6  43    5.59   618.3    3.4      61.316
2014    9       25     6  48    5.58   618.3    3.4      61.291
2014    9       25     6  54    5.58   618.4    3.4      61.267
2014    9       25     6  59    5.57   618.4    3.4      61.243
2014    9       25     7   5    5.57   618.4    3.4      61.219
2014    9       25     7  11    5.56   618.4    3.4      61.196
2014    9       25     7  16    5.56   618.4    3.4      61.173
2014    9       25     7  22    5.56   618.5    3.4      61.151
2014    9       25     7  27    5.55   618.5    3.4      61.129
2014    9       25     7  33    5.55   618.5    3.4      61.107
2014    9       25     7  38    5.54   618.5    3.4      61.086
2014    9       25     7  44    5.54   618.5    3.4      61.064
2014    9       25     7  49    5.53   618.6    3.4      61.044
2014    9       25     7  55    5.53   618.6    3.3      61.023
2014    9       25     8   1    5.53   618.6    3.3      61.003
2014    9       25     8   6    5.52   618.6    3.3      60.983
2014    9       25     8  12    5.52   618.6    3.3      60.963
2014    9       25     8  17    5.51   618.6    3.3      60.944
2014    9       25     8  23    5.51   618.6    3.3      60.924
2014    9       25     8  28    5.51   618.7    3.3      60.905
2014    9       25     8  34    5.50   618.7    3.3      60.885
2014    9       25     8  39    5.50   618.7    3.3      60.866
2014    9       25     8  45    5.49   618.7    3.3      60.846
2014    9       25     8  51    5.49   618.7    3.3      60.826
2014    9       25     8  56    5.49   618.7    3.3      60.806
2014    9       25     9   2    5.48   618.7    3.3      60.786
2014    9       25     9   7    5.48   618.7    3.3      60.765
2014    9       25     9  13    5.47   618.7    3.3      60.744
2014    9       25     9  18    5.47   618.7    3.3      60.723
2014    9       25     9  24    5.47   618.7    3.3      60.701
2014    9       25     9  30    5.46   618.7    3.3      60.679
2014    9       25     9  35    5.46   618.7    3.3      60.657
2014    9       25     9  41    5.45   618.7    3.3      60.634
2014    9       25     9  46    5.45   618.7    3.3      60.611
2014    9       25     9  52    5.45   618.7    3.3      60.588
2014    9       25     9  57    5.44   618.7    3.3      60.565
2014    9       25    10   3    5.44   618.7    3.3      60.541
2014    9       25    10   8    5.43   618.7    3.3      60.517
2014    9       25    10  14    5.43   618.7    3.3      60.493
2014    9       25    10  20    5.43   618.7    3.3      60.468
2014    9       25    10  25    5.42   618.7    3.3      60.444
2014    9       25    10  31    5.42   618.7    3.3      60.419
2014    9       25    10  36    5.42   618.7    3.3      60.394
2014    9       25    10  42    5.41   618.7    3.3      60.368
2014    9       25    10  47    5.41   618.7    3.3      60.343
2014    9       25    10  53    5.41   618.7    3.3      60.317
2014    9       25    10  58    5.40   618.7    3.3      60.291
2014    9       25    11   4    5.40   618.7    3.3      60.265
2014    9       25    11  10    5.39   618.7    3.3      60.239
2014    9       25    11  15    5.39   618.7    3.3      60.212
2014    9       25    11  21    5.39   618.7    3.3      60.186
2014    9       25    11  26    5.38   618.6    3.3      60.159
2014    9       25    11  32    5.38   618.6    3.3      60.132
2014    9       25    11  37    5.38   618.6    3.3      60.105
2014    9       25    11  43    5.37   618.6    3.3      60.078
2014    9       25    11  48    5.37   618.6    3.3      60.051
2014    9       25    11  54    5.37   618.6    3.3      60.024
2014    9       25    12   0    5.36   618.5    3.3      59.997
2014    9       25    12   5    5.36   618.5    3.3      59.970
2014    9       25    12  11    5.36   618.5    3.2      59.943
2014    9       25    12  16    5.35   618.5    3.2      59.916
2014    9       25    12  22    5.35   618.5    3.2      59.888
2014    9       25    12  27    5.34   618.4    3.2      59.861
2014    9       25    12  33    5.34   618.4    3.2      59.834
2014    9       25    12  38    5.34   618.4    3.2      59.807
2014    9       25    12  44    5.33   618.4    3.2      59.780
2014    9       25    12  50    5.33   618.3    3.2      59.753
2014    9       25    12  55    5.33   618.3    3.2      59.726
2014    9       25    13   1    5.32   618.3    3.2      59.699
2014    9       25    13   6    5.32   618.3    3.2      59.672
2014    9       25    13  12    5.32   618.2    3.2      59.645
2014    9       25    13  17    5.31   618.2    3.2      59.619
2014    9       25    13  23    5.31   618.2    3.2      59.592
2014    9       25    13  28    5.31   618.2    3.2      59.566
2014    9       25    13  34    5.30   618.1    3.2      59.539
2014    9       25    13  40    5.30   618.1    3.2      59.512
2014    9       25    13  45    5.30   618.1    3.2      59.486
2014    9       25    13  51    5.29   618.0    3.2      59.459
2014    9       25    13  56    5.29   618.0    3.2      59.433
2014    9       25    14   2    5.29   618.0    3.2      59.406
2014    9       25    14   7    5.28   618.0    3.2      59.380
2014    9       25    14  13    5.28   617.9    3.2      59.353
2014    9       25    14  19    5.28   617.9    3.2      59.326
2014    9       25    14  24    5.27   617.9    3.2      59.299
2014    9       25    14  30    5.27   617.8    3.2      59.272
2014    9       25    14  35    5.27   617.8    3.2      59.245
2014    9       25    14  41    5.26   617.8    3.2      59.218
2014    9       25    14  46    5.26   617.7    3.2      59.190
2014    9       25    14  52    5.26   617.7    3.2      59.162
2014    9       25    14  57    5.25   617.6    3.2      59.135
2014    9       25    15   3    5.25   617.6    3.2      59.106
2014    9       25    15   9    5.25   617.6    3.2      59.078
2014    9       25    15  14    5.24   617.5    3.2      59.050
2014    9       25    15  20    5.24   617.5    3.2      59.021
2014    9       25    15  25    5.24   617.4    3.2      58.992
2014    9       25    15  31    5.23   617.4    3.2      58.963
2014    9       25    15  36    5.23   617.4    3.2      58.934
2014    9       25    15  42    5.23   617.3    3.2      58.905
2014    9       25    15  47    5.22   617.3    3.2      58.876
2014    9       25    15  53    5.22   617.2    3.2      58.847
2014    9       25    15  59    5.22   617.2    3.2      58.818
2014    9       25    16   4    5.22   617.1    3.2      58.789
2014    9       25    16  10    5.21   617.1    3.2      58.761
2014    9       25    16  15    5.21   617.0    3.2      58.733
2014    9       25    16  21    5.21   617.0    3.2      58.705
2014    9       25    16  26    5.20   616.9    3.2      58.678
2014    9       25    16  32    5.20   616.9    3.2      58.651
2014    9       25    16  37    5.20   616.8    3.2      58.626
2014    9       25    16  43    5.19   616.8    3.2      58.601
2014    9       25    16  49    5.19   616.7    3.2      58.576
2014    9       25    16  54    5.19   616.7    3.1      58.553
2014    9       25    17   0    5.19   616.6    3.1      58.531
2014    9       25    17   5    5.18   616.6    3.1      58.509
2014    9       25    17  11    5.18   616.5    3.1      58.489
2014    9       25    17  16    5.18   616.5    3.1      58.469
2014    9       25    17  22    5.17   616.4    3.1      58.450
2014    9       25    17  27    5.17   616.4    3.1      58.432
2014    9       25    17  33    5.17   616.3    3.1      58.414
2014    9       25    17  39    5.17   616.3    3.1      58.398
2014    9       25    17  44    5.16   616.2    3.1      58.382
2014    9       25    17  50    5.16   616.2    3.1      58.367
2014    9       25    17  55    5.16   616.2    3.1      58.353
2014    9       25    18   1    5.16   616.1    3.1      58.339
2014    9       25    18   6    5.15   616.1    3.1      58.326
2014    9       25    18  12    5.15   616.0    3.1      58.313
2014    9       25    18  17    5.15   616.0    3.1      58.300
2014    9       25    18  23    5.15   616.0    3.1      58.288
2014    9       25    18  29    5.14   615.9    3.1      58.276
2014    9       25    18  34    5.14   615.9    3.1      58.264
2014    9       25    18  40    5.14   615.8    3.1      58.253
2014    9       25    18  45    5.14   615.8    3.1      58.241
2014    9       25    18  51    5.13   615.7    3.1      58.229
2014    9       25    18  56    5.13   615.7    3.1      58.216
2014    9       25    19   2    5.13   615.7    3.1      58.203
2014    9       25    19   7    5.13   615.6    3.1      58.190
2014    9       25    19  13    5.12   615.6    3.1      58.176
2014    9       25    19  19    5.12   615.5    3.1      58.162
2014    9       25    19  24    5.12   615.5    3.1      58.148
2014    9       25    19  30    5.12   615.4    3.1      58.133
2014    9       25    19  35    5.11   615.4    3.1      58.117
2014    9       25    19  41    5.11   615.3    3.1      58.101
2014    9       25    19  46    5.11   615.3    3.1      58.085
2014    9       25    19  52    5.11   615.3    3.1      58.068
2014    9       25    19  58    5.10   615.2    3.1      58.050
2014    9       25    20   3    5.10   615.2    3.1      58.032
2014    9       25    20   9    5.10   615.1    3.1      58.013
2014    9       25    20  14    5.09   615.1    3.1      57.994
2014    9       25    20  20    5.09   615.0    3.1      57.974
2014    9       25    20  25    5.09   615.0    3.1      57.954
2014    9       25    20  31    5.09   614.9    3.1      57.933
2014    9       25    20  36    5.08   614.9    3.1      57.912
2014    9       25    20  42    5.08   614.8    3.1      57.890
2014    9       25    20  48    5.08   614.8    3.1      57.868
2014    9       25    20  53    5.08   614.7    3.1      57.846
2014    9       25    20  59    5.07   614.6    3.1      57.822
2014    9       25    21   4    5.07   614.6    3.1      57.799
2014    9       25    21  10    5.07   614.5    3.1      57.775
2014    9       25    21  15    5.07   614.5    3.1      57.750
2014    9       25    21  21    5.06   614.4    3.1      57.725
2014    9       25    21  26    5.06   614.4    3.1      57.699
2014    9       25    21  32    5.06   614.3    3.1      57.673
2014    9       25    21  38    5.06   614.2    3.1      57.647
2014    9       25    21  43    5.05   614.2    3.1      57.620
2014    9       25    21  49    5.05   614.1    3.1      57.593
2014    9       25    21  54    5.05   614.0    3.1      57.565
2014    9       25    22   0    5.05   614.0    3.1      57.536
2014    9       25    22   5    5.04   613.9    3.1      57.507
2014    9       25    22  11    5.04   613.8    3.1      57.478
2014    9       25    22  16    5.04   613.8    3.1      57.448
2014    9       25    22  22    5.04   613.7    3.1      57.418
2014    9       25    22  28    5.03   613.6    3.1      57.387
2014    9       25    22  33    5.03   613.6    3.1      57.356
2014    9       25    22  39    5.03   613.5    3.1      57.324
2014    9       25    22  44    5.03   613.4    3.1      57.292
2014    9       25    22  50    5.03   613.3    3.1      57.259
2014    9       25    22  55    5.02   613.2    3.1      57.226
2014    9       25    23   1    5.02   613.2    3.1      57.193
2014    9       25    23   6    5.02   613.1    3.1      57.160
2014    9       25    23  12    5.02   613.0    3.1      57.127
2014    9       25    23  18    5.01   612.9    3.1      57.093
2014    9       25    23  23    5.01   612.8    3.1      57.061
2014    9       25    23  29    5.01   612.7    3.1      57.029
2014    9       25    23  34    5.01   612.6    3.1      56.997
2014    9       25    23  40    5.00   612.6    3.1      56.966
2014    9       25    23  45    5.00   612.5    3.1      56.937
2014    9       25    23  51    5.00   612.4    3.1      56.908
2014    9       25    23  57    5.00   612.3    3.1      56.881
2014    9       26     0   2    5.00   612.2    3.1      56.855
2014    9       26     0   8    4.99   612.1    3.1      56.830
2014    9       26     0  13    4.99   612.0    3.1      56.807
2014    9       26     0  19    4.99   612.0    3.1      56.786
2014    9       26     0  24    4.99   611.9    3.1      56.766
2014    9       26     0  30    4.99   611.8    3.1      56.748
2014    9       26     0  35    4.98   611.7    3.1      56.731
2014    9       26     0  41    4.98   611.7    3.1      56.715
2014    9       26     0  47    4.98   611.6    3.1      56.701
2014    9       26     0  52    4.98   611.5    3.1      56.688
2014    9       26     0  58    4.98   611.5    3.1      56.675
2014    9       26     1   3    4.98   611.4    3.1      56.664
2014    9       26     1   9    4.97   611.3    3.1      56.653
2014    9       26     1  14    4.97   611.3    3.1      56.642
2014    9       26     1  20    4.97   611.2    3.1      56.631
2014    9       26     1  25    4.97   611.2    3.1      56.620
2014    9       26     1  31    4.97   611.1    3.1      56.608
2014    9       26     1  37    4.97   611.0    3.1      56.597
2014    9       26     1  42    4.96   611.0    3.1      56.585
2014    9       26     1  48    4.96   610.9    3.1      56.573
2014    9       26     1  53    4.96   610.9    3.1      56.561
2014    9       26     1  59    4.96   610.8    3.1      56.549
2014    9       26     2   4    4.96   610.7    3.1      56.536
2014    9       26     2  10    4.95   610.7    3.1      56.522
2014    9       26     2  15    4.95   610.6    3.1      56.507
2014    9       26     2  21    4.95   610.5    3.1      56.492
2014    9       26     2  27    4.95   610.5    3.1      56.477
2014    9       26     2  32    4.95   610.4    3.1      56.461
2014    9       26     2  38    4.94   610.3    3.1      56.444
2014    9       26     2  43    4.94   610.3    3.1      56.427
2014    9       26     2  49    4.94   610.2    3.1      56.409
2014    9       26     2  54    4.94   610.2    3.1      56.391
2014    9       26     3   0    4.94   610.1    3.1      56.372
2014    9       26     3   5    4.93   610.0    3.1      56.353
2014    9       26     3  11    4.93   610.0    3.1      56.334
2014    9       26     3  17    4.93   609.9    3.1      56.314
2014    9       26     3  22    4.93   609.8    3.1      56.294
2014    9       26     3  28    4.93   609.8    3.1      56.274
2014    9       26     3  33    4.92   609.7    3.1      56.254
2014    9       26     3  39    4.92   609.6    3.1      56.234
2014    9       26     3  44    4.92   609.6    3.1      56.214
2014    9       26     3  50    4.92   609.5    3.1      56.193
2014    9       26     3  55    4.92   609.4    3.1      56.173
2014    9       26     4   1    4.92   609.4    3.1      56.153
2014    9       26     4   7    4.91   609.3    3.1      56.133
2014    9       26     4  12    4.91   609.2    3.1      56.114
2014    9       26     4  18    4.91   609.2    3.1      56.095
2014    9       26     4  23    4.91   609.1    3.1      56.076
2014    9       26     4  29    4.91   609.0    3.1      56.057
2014    9       26     4  34    4.90   609.0    3.1      56.039
2014    9       26     4  40    4.90   608.9    3.1      56.021
2014    9       26     4  45    4.90   608.8    3.1      56.004
2014    9       26     4  51    4.90   608.8    3.1      55.988
2014    9       26     4  57    4.90   608.7    3.1      55.972
2014    9       26     5   2    4.90   608.6    3.1      55.956
2014    9       26     5   8    4.90   608.6    3.1      55.942
2014    9       26     5  13    4.89   608.5    3.1      55.928
2014    9       26     5  19    4.89   608.4    3.1      55.915
2014    9       26     5  24    4.89   608.4    3.1      55.904
2014    9       26     5  30    4.89   608.3    3.1      55.893
2014    9       26     5  36    4.89   608.2    3.1      55.883
2014    9       26     5  41    4.89   608.2    3.1      55.875
2014    9       26     5  47    4.88   608.1    3.1      55.867
2014    9       26     5  52    4.88   608.1    3.1      55.861
2014    9       26     5  58    4.88   608.0    3.1      55.855
2014    9       26     6   3    4.88   607.9    3.1      55.850
2014    9       26     6   9    4.88   607.9    3.1      55.845
2014    9       26     6  14    4.88   607.8    3.1      55.839
2014    9       26     6  20    4.87   607.8    3.1      55.831
2014    9       26     6  26    4.87   607.7    3.1      55.822
2014    9       26     6  31    4.87   607.6    3.1      55.811
2014    9       26     6  37    4.87   607.6    3.1      55.800
2014    9       26     6  42    4.87   607.5    3.1      55.787
2014    9       26     6  48    4.87   607.5    3.1      55.774
2014    9       26     6  53    4.86   607.4    3.1      55.759
2014    9       26     6  59    4.86   607.3    3.1      55.744
2014    9       26     7   4    4.86   607.2    3.1      55.728
2014    9       26     7  10    4.86   607.2    3.1      55.712
2014    9       26     7  16    4.86   607.1    3.1      55.696
2014    9       26     7  21    4.86   607.0    3.1      55.679
2014    9       26     7  27    4.85   607.0    3.1      55.662
2014    9       26     7  32    4.85   606.9    3.1      55.646
2014    9       26     7  38    4.85   606.8    3.1      55.629
2014    9       26     7  43    4.85   606.7    3.1      55.612
2014    9       26     7  49    4.85   606.7    3.1      55.595
2014    9       26     7  54    4.85   606.6    3.1      55.579
2014    9       26     8   0    4.85   606.5    3.1      55.562
2014    9       26     8   6    4.84   606.5    3.1      55.544
2014    9       26     8  11    4.84   606.4    3.1      55.527
2014    9       26     8  17    4.84   606.3    3.1      55.509
2014    9       26     8  22    4.84   606.2    3.1      55.490
2014    9       26     8  28    4.84   606.2    3.1      55.470
2014    9       26     8  33    4.84   606.1    3.1      55.449
2014    9       26     8  39    4.83   606.0    3.1      55.428
2014    9       26     8  44    4.83   606.0    3.1      55.406
2014    9       26     8  50    4.83   605.9    3.1      55.383
2014    9       26     8  55    4.83   605.8    3.1      55.360
2014    9       26     9   1    4.83   605.7    3.1      55.337
2014    9       26     9   6    4.83   605.6    3.1      55.313
2014    9       26     9  11    4.82   605.6    3.1      55.288
2014    9       26     9  17    4.82   605.5    3.1      55.263
2014    9       26     9  22    4.82   605.4    3.1      55.238
2014    9       26     9  27    4.82   605.3    3.1      55.212
2014    9       26     9  33    4.82   605.3    3.1      55.186
2014    9       26     9  38    4.82   605.2    3.1      55.160
2014    9       26     9  43    4.82   605.1    3.0      55.133
2014    9       26     9  49    4.81   605.0    3.0      55.106
2014    9       26     9  54    4.81   604.9    3.0      55.078
2014    9       26     9  59    4.81   604.9    3.0      55.051
2014    9       26    10   4    4.81   604.8    3.0      55.023
2014    9       26    10  10    4.81   604.7    3.0      54.995
2014    9       26    10  15    4.81   604.6    3.0      54.967
2014    9       26    10  20    4.81   604.5    3.0      54.939
2014    9       26    10  25    4.80   604.4    3.0      54.910
2014    9       26    10  30    4.80   604.4    3.0      54.882
2014    9       26    10  36    4.80   604.3    3.0      54.853
2014    9       26    10  41    4.80   604.2    3.0      54.825
2014    9       26    10  46    4.80   604.1    3.0      54.797
2014    9       26    10  51    4.80   604.0    3.0      54.769
2014    9       26    10  57    4.80   604.0    3.0      54.742
2014    9       26    11   2    4.80   603.9    3.0      54.714
2014    9       26    11   7    4.79   603.8    3.0      54.688
2014    9       26    11  12    4.79   603.7    3.0      54.661
2014    9       26    11  17    4.79   603.6    3.0      54.635
2014    9       26    11  23    4.79   603.6    3.0      54.610
2014    9       26    11  28    4.79   603.5    3.0      54.586
2014    9       26    11  33    4.79   603.4    3.0      54.563
2014    9       26    11  38    4.79   603.3    3.0      54.540
2014    9       26    11  43    4.79   603.2    3.0      54.518
2014    9       26    11  48    4.78   603.1    3.0      54.497
2014    9       26    11  54    4.78   603.1    3.0      54.477
2014    9       26    11  59    4.78   603.0    3.0      54.459
2014    9       26    12   4    4.78   602.9    3.0      54.442
2014    9       26    12   9    4.78   602.8    3.0      54.426
2014    9       26    12  14    4.78   602.8    3.0      54.411
2014    9       26    12  20    4.78   602.7    3.0      54.398
2014    9       26    12  25    4.78   602.6    3.0      54.387
2014    9       26    12  30    4.78   602.5    3.0      54.378
2014    9       26    12  35    4.78   602.5    3.0      54.371
2014    9       26    12  40    4.77   602.4    3.0      54.365
2014    9       26    12  45    4.77   602.3    3.0      54.361
2014    9       26    12  51    4.77   602.3    3.0      54.359
2014    9       26    12  56    4.77   602.2    3.0      54.360
2014    9       26    13   1    4.77   602.1    3.0      54.362
2014    9       26    13   6    4.77   602.1    3.0      54.365
2014    9       26    13  11    4.77   602.0    3.0      54.371
2014    9       26    13  17    4.77   602.0    3.0      54.377
2014    9       26    13  22    4.77   601.9    3.0      54.385
2014    9       26    13  27    4.77   601.9    3.0      54.391
2014    9       26    13  32    4.76   601.8    3.0      54.398
2014    9       26    13  37    4.76   601.8    3.0      54.404
2014    9       26    13  43    4.76   601.7    3.1      54.409
2014    9       26    13  48    4.76   601.7    3.1      54.413
2014    9       26    13  53    4.76   601.6    3.1      54.416
2014    9       26    13  58    4.76   601.6    3.1      54.418
2014    9       26    14   4    4.76   601.5    3.1      54.419
2014    9       26    14   9    4.75   601.4    3.1      54.419
2014    9       26    14  14    4.75   601.4    3.1      54.417
2014    9       26    14  19    4.75   601.3    3.1      54.415
2014    9       26    14  25    4.75   601.2    3.1      54.412
2014    9       26    14  30    4.75   601.1    3.1      54.408
2014    9       26    14  35    4.75   601.1    3.1      54.402
2014    9       26    14  40    4.75   601.0    3.1      54.396
2014    9       26    14  46    4.74   600.9    3.1      54.389
2014    9       26    14  51    4.74   600.8    3.1      54.380
2014    9       26    14  56    4.74   600.8    3.1      54.371
2014    9       26    15   2    4.74   600.7    3.1      54.361
2014    9       26    15   7    4.74   600.6    3.1      54.351
2014    9       26    15  12    4.74   600.5    3.1      54.339
2014    9       26    15  17    4.74   600.4    3.1      54.327
2014    9       26    15  23    4.73   600.4    3.1      54.314
2014    9       26    15  28    4.73   600.3    3.1      54.300
2014    9       26    15  33    4.73   600.2    3.1      54.286
2014    9       26    15  38    4.73   600.1    3.1      54.271
2014    9       26    15  44    4.73   600.0    3.1      54.255
2014    9       26    15  49    4.73   599.9    3.1      54.239
2014    9       26    15  54    4.73   599.8    3.1      54.223
2014    9       26    16   0    4.73   599.7    3.1      54.206
2014    9       26    16   5    4.72   599.7    3.1      54.188
2014    9       26    16  10    4.72   599.6    3.1      54.170
2014    9       26    16  16    4.72   599.5    3.1      54.151
2014    9       26    16  21    4.72   599.4    3.1      54.132
2014    9       26    16  27    4.72   599.3    3.1      54.114
2014    9       26    16  32    4.72   599.2    3.1      54.095
2014    9       26    16  38    4.72   599.1    3.1      54.076
2014    9       26    16  43    4.72   599.0    3.1      54.057
2014    9       26    16  49    4.72   598.9    3.1      54.039
2014    9       26    16  54    4.71   598.9    3.1      54.021
2014    9       26    17   0    4.71   598.8    3.1      54.004
2014    9       26    17   5    4.71   598.7    3.1      53.987
2014    9       26    17  11    4.71   598.6    3.1      53.970
2014    9       26    17  16    4.71   598.5    3.1      53.954
2014    9       26    17  22    4.71   598.4    3.1      53.936
2014    9       26    17  27    4.71   598.4    3.1      53.918
2014    9       26    17  33    4.71   598.3    3.1      53.899
2014    9       26    17  39    4.71   598.2    3.1      53.880
2014    9       26    17  44    4.70   598.1    3.1      53.860
2014    9       26    17  50    4.70   598.0    3.1      53.839
2014    9       26    17  55    4.70   597.9    3.1      53.817
2014    9       26    18   1    4.70   597.8    3.1      53.795
2014    9       26    18   6    4.70   597.8    3.1      53.773
2014    9       26    18  12    4.70   597.7    3.1      53.749
2014    9       26    18  17    4.70   597.6    3.1      53.726
2014    9       26    18  23    4.70   597.5    3.1      53.701
2014    9       26    18  28    4.69   597.4    3.0      53.677
2014    9       26    18  34    4.69   597.3    3.0      53.652
2014    9       26    18  39    4.69   597.2    3.0      53.627
2014    9       26    18  45    4.69   597.1    3.0      53.601
2014    9       26    18  51    4.69   597.0    3.0      53.576
2014    9       26    18  56    4.69   596.9    3.0      53.550
2014    9       26    19   2    4.69   596.8    3.0      53.524
2014    9       26    19   7    4.69   596.7    3.0      53.498
2014    9       26    19  13    4.68   596.6    3.0      53.473
2014    9       26    19  18    4.68   596.5    3.0      53.447
2014    9       26    19  24    4.68   596.5    3.0      53.422
2014    9       26    19  29    4.68   596.4    3.0      53.397
2014    9       26    19  35    4.68   596.3    3.0      53.372
2014    9       26    19  40    4.68   596.2    3.0      53.348
2014    9       26    19  46    4.68   596.1    3.0      53.324
2014    9       26    19  52    4.68   596.0    3.0      53.301
2014    9       26    19  57    4.68   595.9    3.0      53.279
2014    9       26    20   3    4.67   595.8    3.0      53.257
2014    9       26    20   8    4.67   595.7    3.0      53.235
2014    9       26    20  14    4.67   595.6    3.0      53.215
2014    9       26    20  19    4.67   595.5    3.0      53.194
2014    9       26    20  25    4.67   595.4    3.0      53.175
2014    9       26    20  30    4.67   595.3    3.0      53.155
2014    9       26    20  36    4.67   595.2    3.0      53.137
2014    9       26    20  41    4.67   595.1    3.0      53.118
2014    9       26    20  47    4.66   595.0    3.0      53.100
2014    9       26    20  53    4.66   594.9    3.0      53.082
2014    9       26    20  58    4.66   594.8    3.0      53.064
2014    9       26    21   4    4.66   594.7    3.0      53.046
2014    9       26    21   9    4.66   594.6    3.0      53.028
2014    9       26    21  15    4.66   594.5    3.0      53.010
2014    9       26    21  20    4.66   594.3    3.0      52.992
2014    9       26    21  26    4.66   594.2    3.0      52.974
2014    9       26    21  31    4.65   594.1    3.0      52.956
2014    9       26    21  37    4.65   594.0    3.0      52.938
2014    9       26    21  43    4.65   593.9    3.0      52.920
2014    9       26    21  48    4.65   593.7    3.0      52.902
2014    9       26    21  54    4.65   593.6    3.0      52.884
2014    9       26    21  59    4.65   593.5    3.0      52.867
2014    9       26    22   5    4.65   593.4    3.0      52.849
2014    9       26    22  10    4.65   593.3    3.0      52.832
2014    9       26    22  16    4.64   593.1    3.0      52.815
2014    9       26    22  21    4.64   593.0    3.0      52.798
2014    9       26    22  27    4.64   592.9    3.0      52.781
2014    9       26    22  32    4.64   592.8    3.0      52.764
2014    9       26    22  38    4.64   592.6    3.0      52.748
2014    9       26    22  44    4.64   592.5    3.0      52.733
2014    9       26    22  49    4.64   592.4    3.1      52.718
2014    9       26    22  55    4.64   592.3    3.1      52.703
2014    9       26    23   0    4.64   592.1    3.1      52.689
2014    9       26    23   6    4.63   592.0    3.1      52.675
2014    9       26    23  11    4.63   591.9    3.1      52.662
2014    9       26    23  17    4.63   591.8    3.1      52.650
2014    9       26    23  22    4.63   591.7    3.1      52.638
2014    9       26    23  28    4.63   591.5    3.1      52.627
2014    9       26    23  33    4.63   591.4    3.1      52.617
2014    9       26    23  39    4.63   591.3    3.1      52.608
2014    9       26    23  45    4.63   591.2    3.1      52.600
2014    9       26    23  50    4.63   591.1    3.1      52.593
2014    9       26    23  56    4.63   591.0    3.1      52.586
2014    9       27     0   1    4.63   590.9    3.1      52.581
2014    9       27     0   7    4.63   590.8    3.1      52.577
2014    9       27     0  12    4.63   590.7    3.1      52.574
2014    9       27     0  18    4.63   590.6    3.1      52.572
2014    9       27     0  23    4.63   590.5    3.1      52.570
2014    9       27     0  29    4.62   590.4    3.1      52.569
2014    9       27     0  34    4.62   590.3    3.1      52.568
2014    9       27     0  40    4.62   590.2    3.1      52.567
2014    9       27     0  45    4.62   590.1    3.1      52.566
2014    9       27     0  51    4.62   590.0    3.1      52.564
2014    9       27     0  57    4.62   589.9    3.1      52.562
2014    9       27     1   2    4.62   589.8    3.1      52.560
2014    9       27     1   8    4.62   589.7    3.1      52.558
2014    9       27     1  13    4.62   589.6    3.1      52.556
2014    9       27     1  19    4.62   589.5    3.1      52.553
2014    9       27     1  24    4.62   589.4    3.1      52.549
2014    9       27     1  30    4.62   589.2    3.1      52.544
2014    9       27     1  35    4.61   589.1    3.1      52.539
2014    9       27     1  41    4.61   589.0    3.1      52.533
2014    9       27     1  47    4.61   588.9    3.1      52.526
2014    9       27     1  52    4.61   588.8    3.1      52.518
2014    9       27     1  58    4.61   588.7    3.1      52.509
2014    9       27     2   3    4.61   588.6    3.1      52.499
2014    9       27     2   9    4.61   588.5    3.1      52.489
2014    9       27     2  14    4.61   588.4    3.1      52.477
2014    9       27     2  20    4.61   588.3    3.1      52.465
2014    9       27     2  25    4.61   588.1    3.1      52.453
2014    9       27     2  31    4.60   588.0    3.1      52.439
2014    9       27     2  37    4.60   587.9    3.1      52.425
2014    9       27     2  42    4.60   587.8    3.1      52.410
2014    9       27     2  48    4.60   587.7    3.1      52.395
2014    9       27     2  53    4.60   587.6    3.1      52.378
2014    9       27     2  59    4.60   587.4    3.1      52.361
2014    9       27     3   4    4.60   587.3    3.1      52.344
2014    9       27     3  10    4.60   587.2    3.1      52.326
2014    9       27     3  15    4.60   587.1    3.1      52.307
2014    9       27     3  21    4.60   587.0    3.1      52.287
2014    9       27     3  27    4.59   586.8    3.1      52.267
2014    9       27     3  32    4.59   586.7    3.1      52.247
2014    9       27     3  38    4.59   586.6    3.1      52.226
2014    9       27     3  43    4.59   586.5    3.1      52.205
2014    9       27     3  49    4.59   586.3    3.1      52.183
2014    9       27     3  54    4.59   586.2    3.1      52.160
2014    9       27     4   0    4.59   586.1    3.1      52.138
2014    9       27     4   5    4.59   586.0    3.1      52.114
2014    9       27     4  11    4.59   585.8    3.1      52.091
2014    9       27     4  17    4.59   585.7    3.1      52.067
2014    9       27     4  22    4.59   585.6    3.1      52.043
2014    9       27     4  28    4.58   585.4    3.1      52.019
2014    9       27     4  33    4.58   585.3    3.1      51.995
2014    9       27     4  39    4.58   585.2    3.1      51.971
2014    9       27     4  44    4.58   585.0    3.1      51.946
2014    9       27     4  50    4.58   584.9    3.1      51.922
2014    9       27     4  55    4.58   584.8    3.1      51.898
2014    9       27     5   1    4.58   584.6    3.1      51.874
2014    9       27     5   7    4.58   584.5    3.1      51.850
2014    9       27     5  12    4.58   584.4    3.1      51.826
2014    9       27     5  18    4.58   584.2    3.1      51.802
2014    9       27     5  23    4.58   584.1    3.1      51.779
2014    9       27     5  29    4.57   583.9    3.1      51.756
2014    9       27     5  34    4.57   583.8    3.1      51.733
2014    9       27     5  40    4.57   583.7    3.1      51.711
2014    9       27     5  45    4.57   583.5    3.1      51.689
2014    9       27     5  51    4.57   583.4    3.1      51.668
2014    9       27     5  57    4.57   583.2    3.1      51.647
2014    9       27     6   2    4.57   583.1    3.1      51.626
2014    9       27     6   8    4.57   582.9    3.1      51.607
2014    9       27     6  13    4.57   582.8    3.1      51.587
2014    9       27     6  19    4.57   582.6    3.1      51.569
2014    9       27     6  24    4.57   582.5    3.1      51.551
2014    9       27     6  30    4.57   582.4    3.1      51.535
2014    9       27     6  35    4.57   582.2    3.1      51.518
2014    9       27     6  41    4.56   582.1    3.1      51.503
2014    9       27     6  47    4.56   581.9    3.1      51.488
2014    9       27     6  52    4.56   581.8    3.1      51.475
2014    9       27     6  58    4.56   581.6    3.1      51.462
2014    9       27     7   3    4.56   581.5    3.1      51.450
2014    9       27     7   9    4.56   581.4    3.1      51.439
2014    9       27     7  14    4.56   581.2    3.1      51.429
2014    9       27     7  20    4.56   581.1    3.1      51.419
2014    9       27     7  25    4.56   580.9    3.1      51.411
2014    9       27     7  31    4.56   580.8    3.1      51.403
2014    9       27     7  36    4.56   580.6    3.1      51.396
2014    9       27     7  42    4.56   580.5    3.1      51.389
2014    9       27     7  48    4.56   580.4    3.1      51.383
2014    9       27     7  53    4.56   580.2    3.1      51.377
2014    9       27     7  59    4.56   580.1    3.1      51.372
2014    9       27     8   4    4.56   580.0    3.1      51.367
2014    9       27     8  10    4.56   579.8    3.1      51.363
2014    9       27     8  15    4.56   579.7    3.1      51.359
2014    9       27     8  21    4.56   579.5    3.1      51.355
2014    9       27     8  26    4.56   579.4    3.1      51.352
2014    9       27     8  32    4.55   579.2    3.1      51.349
2014    9       27     8  38    4.55   579.1    3.1      51.346
2014    9       27     8  43    4.55   579.0    3.1      51.344
2014    9       27     8  49    4.55   578.8    3.1      51.342
2014    9       27     8  54    4.55   578.7    3.1      51.340
2014    9       27     9   0    4.55   578.5    3.2      51.338
2014    9       27     9   5    4.55   578.4    3.2      51.336
2014    9       27     9  11    4.55   578.2    3.2      51.334
2014    9       27     9  16    4.55   578.1    3.2      51.332
2014    9       27     9  22    4.55   578.0    3.2      51.330
2014    9       27     9  27    4.55   577.8    3.2      51.328
2014    9       27     9  33    4.55   577.7    3.2      51.325
2014    9       27     9  39    4.55   577.5    3.2      51.323
2014    9       27     9  44    4.55   577.4    3.2      51.320
2014    9       27     9  50    4.55   577.2    3.2      51.317
2014    9       27     9  55    4.55   577.1    3.2      51.313
2014    9       27    10   1    4.55   577.0    3.2      51.310
2014    9       27    10   6    4.55   576.8    3.2      51.306
2014    9       27    10  12    4.55   576.7    3.2      51.302
2014    9       27    10  18    4.55   576.6    3.2      51.298
2014    9       27    10  23    4.55   576.4    3.2      51.294
2014    9       27    10  29    4.55   576.3    3.2      51.289
2014    9       27    10  34    4.55   576.1    3.2      51.283
2014    9       27    10  40    4.55   576.0    3.2      51.278
2014    9       27    10  45    4.54   575.9    3.2      51.272
2014    9       27    10  51    4.54   575.7    3.2      51.266
2014    9       27    10  56    4.54   575.6    3.2      51.259
2014    9       27    11   2    4.54   575.5    3.2      51.252
2014    9       27    11   8    4.54   575.3    3.2      51.244
2014    9       27    11  13    4.54   575.2    3.2      51.236
2014    9       27    11  19    4.54   575.0    3.2      51.228
2014    9       27    11  24    4.54   574.9    3.2      51.219
2014    9       27    11  30    4.54   574.8    3.2      51.210
2014    9       27    11  35    4.54   574.6    3.2      51.200
2014    9       27    11  41    4.54   574.5    3.2      51.190
2014    9       27    11  47    4.54   574.4    3.2      51.179
2014    9       27    11  52    4.54   574.2    3.2      51.168
2014    9       27    11  58    4.54   574.1    3.2      51.157
2014    9       27    12   3    4.54   573.9    3.2      51.145
2014    9       27    12   9    4.54   573.8    3.2      51.133
2014    9       27    12  14    4.54   573.7    3.2      51.121
2014    9       27    12  20    4.54   573.5    3.2      51.108
2014    9       27    12  25    4.54   573.4    3.2      51.095
2014    9       27    12  31    4.54   573.2    3.2      51.081
2014    9       27    12  37    4.54   573.1    3.2      51.068
2014    9       27    12  42    4.54   573.0    3.2      51.054
2014    9       27    12  48    4.54   572.8    3.2      51.039
2014    9       27    12  53    4.54   572.7    3.2      51.025
2014    9       27    12  59    4.54   572.5    3.2      51.010
2014    9       27    13   4    4.53   572.4    3.2      50.996
2014    9       27    13  10    4.53   572.2    3.2      50.981
2014    9       27    13  15    4.53   572.1    3.2      50.966
2014    9       27    13  21    4.53   572.0    3.2      50.951
2014    9       27    13  27    4.53   571.8    3.2      50.937
2014    9       27    13  32    4.53   571.7    3.2      50.922
2014    9       27    13  38    4.53   571.5    3.2      50.908
2014    9       27    13  43    4.53   571.4    3.2      50.894
2014    9       27    13  49    4.53   571.2    3.2      50.880
2014    9       27    13  54    4.53   571.1    3.2      50.866
2014    9       27    14   0    4.53   570.9    3.2      50.853
2014    9       27    14   5    4.53   570.8    3.2      50.840
2014    9       27    14  11    4.53   570.6    3.2      50.827
2014    9       27    14  16    4.53   570.5    3.2      50.815
2014    9       27    14  22    4.53   570.3    3.2      50.803
2014    9       27    14  28    4.53   570.2    3.2      50.791
2014    9       27    14  33    4.53   570.0    3.2      50.780
2014    9       27    14  39    4.53   569.9    3.2      50.769
2014    9       27    14  44    4.53   569.7    3.2      50.758
2014    9       27    14  50    4.53   569.6    3.2      50.747
2014    9       27    14  55    4.53   569.4    3.2      50.737
2014    9       27    15   1    4.53   569.3    3.2      50.727
2014    9       27    15   6    4.53   569.1    3.2      50.717
2014    9       27    15  12    4.53   569.0    3.2      50.708
2014    9       27    15  18    4.53   568.8    3.2      50.698
2014    9       27    15  23    4.53   568.7    3.3      50.689
2014    9       27    15  29    4.53   568.5    3.3      50.680
2014    9       27    15  34    4.53   568.4    3.3      50.671
2014    9       27    15  40    4.53   568.2    3.3      50.663
2014    9       27    15  45    4.53   568.0    3.3      50.654
2014    9       27    15  51    4.53   567.9    3.3      50.646
2014    9       27    15  56    4.53   567.7    3.3      50.638
2014    9       27    16   2    4.53   567.6    3.3      50.630
2014    9       27    16   8    4.53   567.4    3.3      50.623
2014    9       27    16  13    4.52   567.3    3.3      50.615
2014    9       27    16  19    4.52   567.1    3.3      50.608
2014    9       27    16  24    4.52   567.0    3.3      50.602
2014    9       27    16  30    4.52   566.8    3.3      50.596
2014    9       27    16  35    4.52   566.6    3.3      50.590
2014    9       27    16  41    4.52   566.5    3.3      50.584
2014    9       27    16  46    4.52   566.3    3.3      50.579
2014    9       27    16  52    4.52   566.2    3.3      50.574
2014    9       27    16  58    4.52   566.0    3.3      50.570
2014    9       27    17   3    4.52   565.9    3.3      50.566
2014    9       27    17   9    4.52   565.7    3.3      50.562
2014    9       27    17  14    4.52   565.6    3.3      50.559
2014    9       27    17  20    4.52   565.4    3.3      50.556
2014    9       27    17  25    4.52   565.3    3.3      50.554
2014    9       27    17  31    4.52   565.1    3.3      50.552
2014    9       27    17  36    4.52   565.0    3.3      50.551
2014    9       27    17  42    4.52   564.9    3.3      50.549
2014    9       27    17  48    4.52   564.7    3.3      50.548
2014    9       27    17  53    4.52   564.6    3.3      50.547
2014    9       27    17  59    4.52   564.4    3.3      50.546
2014    9       27    18   4    4.52   564.3    3.3      50.545
2014    9       27    18  10    4.52   564.2    3.3      50.545
2014    9       27    18  15    4.52   564.0    3.3      50.544
2014    9       27    18  21    4.52   563.9    3.3      50.543
2014    9       27    18  27    4.52   563.7    3.3      50.542
2014    9       27    18  32    4.52   563.6    3.3      50.541
2014    9       27    18  38    4.52   563.5    3.3      50.540
2014    9       27    18  43    4.52   563.3    3.3      50.539
2014    9       27    18  49    4.52   563.2    3.3      50.537
2014    9       27    18  54    4.52   563.0    3.3      50.535
2014    9       27    19   0    4.52   562.9    3.3      50.533
2014    9       27    19   5    4.52   562.7    3.3      50.531
2014    9       27    19  11    4.52   562.6    3.3      50.528
2014    9       27    19  17    4.52   562.5    3.3      50.525
2014    9       27    19  22    4.52   562.3    3.3      50.521
2014    9       27    19  28    4.52   562.2    3.3      50.517
2014    9       27    19  33    4.52   562.0    3.4      50.513
2014    9       27    19  39    4.52   561.9    3.4      50.508
2014    9       27    19  44    4.52   561.8    3.4      50.503
2014    9       27    19  50    4.52   561.6    3.4      50.498
2014    9       27    19  56    4.52   561.5    3.4      50.492
2014    9       27    20   1    4.52   561.3    3.4      50.487
2014    9       27    20   7    4.52   561.2    3.4      50.480
2014    9       27    20  12    4.52   561.1    3.4      50.474
2014    9       27    20  18    4.52   560.9    3.4      50.467
2014    9       27    20  23    4.52   560.8    3.4      50.460
2014    9       27    20  29    4.52   560.6    3.4      50.453
2014    9       27    20  34    4.52   560.5    3.4      50.446
2014    9       27    20  40    4.52   560.4    3.4      50.438
2014    9       27    20  46    4.52   560.2    3.4      50.430
2014    9       27    20  51    4.52   560.1    3.4      50.422
2014    9       27    20  57    4.52   559.9    3.4      50.414
2014    9       27    21   2    4.52   559.8    3.4      50.406
2014    9       27    21   8    4.52   559.7    3.4      50.398
2014    9       27    21  13    4.52   559.5    3.4      50.389
2014    9       27    21  19    4.52   559.4    3.4      50.381
2014    9       27    21  24    4.52   559.2    3.4      50.373
2014    9       27    21  30    4.52   559.1    3.4      50.364
2014    9       27    21  35    4.52   558.9    3.4      50.356
2014    9       27    21  41    4.52   558.8    3.4      50.348
2014    9       27    21  47    4.52   558.6    3.4      50.340
2014    9       27    21  52    4.52   558.5    3.4      50.332
2014    9       27    21  58    4.52   558.4    3.4      50.324
2014    9       27    22   3    4.52   558.2    3.4      50.317
2014    9       27    22   9    4.52   558.1    3.4      50.309
2014    9       27    22  14    4.52   557.9    3.4      50.302
2014    9       27    22  20    4.52   557.8    3.4      50.295
2014    9       27    22  25    4.52   557.6    3.4      50.288
2014    9       27    22  31    4.52   557.5    3.4      50.281
2014    9       27    22  37    4.52   557.3    3.4      50.274
2014    9       27    22  42    4.52   557.2    3.4      50.268
2014    9       27    22  48    4.52   557.0    3.4      50.262
2014    9       27    22  53    4.52   556.9    3.4      50.256
2014    9       27    22  59    4.52   556.7    3.4      50.250
2014    9       27    23   4    4.52   556.6    3.4      50.244
2014    9       27    23  10    4.51   556.4    3.4      50.239
2014    9       27    23  15    4.51   556.3    3.4      50.233
2014    9       27    23  21    4.51   556.1    3.4      50.228
2014    9       27    23  27    4.51   556.0    3.4      50.222
2014    9       27    23  32    4.51   555.9    3.4      50.218
2014    9       27    23  38    4.51   555.7    3.4      50.213
2014    9       27    23  43    4.51   555.6    3.4      50.208
2014    9       27    23  49    4.51   555.4    3.4      50.203
2014    9       27    23  54    4.51   555.3    3.4      50.199
2014    9       28     0   0    4.51   555.1    3.4      50.194
2014    9       28     0   5    4.51   555.0    3.4      50.190
2014    9       28     0  11    4.51   554.8    3.4      50.185
2014    9       28     0  17    4.51   554.7    3.4      50.181
2014    9       28     0  22    4.51   554.5    3.4      50.177
2014    9       28     0  28    4.51   554.4    3.4      50.173
2014    9       28     0  33    4.51   554.2    3.5      50.169
2014    9       28     0  39    4.51   554.1    3.5      50.165
2014    9       28     0  44    4.51   553.9    3.5      50.161
2014    9       28     0  50    4.51   553.8    3.5      50.157
2014    9       28     0  55    4.51   553.6    3.5      50.153
2014    9       28     1   1    4.51   553.5    3.5      50.150
2014    9       28     1   7    4.51   553.4    3.5      50.146
2014    9       28     1  12    4.51   553.2    3.5      50.142
2014    9       28     1  18    4.51   553.1    3.5      50.139
2014    9       28     1  23    4.51   552.9    3.5      50.135
2014    9       28     1  29    4.51   552.8    3.5      50.132
2014    9       28     1  34    4.51   552.6    3.5      50.128
2014    9       28     1  40    4.51   552.5    3.5      50.124
2014    9       28     1  46    4.51   552.3    3.5      50.121
2014    9       28     1  51    4.51   552.2    3.5      50.117
2014    9       28     1  57    4.51   552.1    3.5      50.113
2014    9       28     2   2    4.51   551.9    3.5      50.109
2014    9       28     2   8    4.51   551.8    3.5      50.105
2014    9       28     2  13    4.51   551.6    3.5      50.101
2014    9       28     2  19    4.51   551.5    3.5      50.096
2014    9       28     2  24    4.51   551.4    3.5      50.092
2014    9       28     2  30    4.51   551.2    3.5      50.087
2014    9       28     2  36    4.51   551.1    3.5      50.082
2014    9       28     2  41    4.51   550.9    3.5      50.077
2014    9       28     2  47    4.51   550.8    3.5      50.071
2014    9       28     2  52    4.51   550.6    3.5      50.066
2014    9       28     2  58    4.51   550.5    3.5      50.060
2014    9       28     3   3    4.51   550.4    3.5      50.054
2014    9       28     3   9    4.51   550.2    3.5      50.047
2014    9       28     3  14    4.51   550.1    3.5      50.041
2014    9       28     3  20    4.51   549.9    3.5      50.034
2014    9       28     3  26    4.51   549.8    3.5      50.028
2014    9       28     3  31    4.51   549.7    3.5      50.021
2014    9       28     3  37    4.51   549.5    3.5      50.014
2014    9       28     3  42    4.51   549.4    3.5      50.006
2014    9       28     3  48    4.51   549.2    3.5      49.999
2014    9       28     3  53    4.50   549.1    3.5      49.992
2014    9       28     3  59    4.50   548.9    3.5      49.984
2014    9       28     4   4    4.50   548.8    3.5      49.976
2014    9       28     4  10    4.50   548.7    3.5      49.969
2014    9       28     4  16    4.50   548.5    3.5      49.961
2014    9       28     4  21    4.50   548.4    3.5      49.954
2014    9       28     4  27    4.50   548.2    3.5      49.946
2014    9       28     4  32    4.50   548.1    3.5      49.939
2014    9       28     4  38    4.50   547.9    3.5      49.931
2014    9       28     4  43    4.50   547.8    3.5      49.924
2014    9       28     4  49    4.50   547.6    3.5      49.917
2014    9       28     4  54    4.50   547.5    3.5      49.910
2014    9       28     5   0    4.50   547.4    3.5      49.903
2014    9       28     5   6    4.50   547.2    3.5      49.897
2014    9       28     5  11    4.50   547.1    3.5      49.890
2014    9       28     5  17    4.50   546.9    3.5      49.884
2014    9       28     5  22    4.50   546.8    3.5      49.878
2014    9       28     5  28    4.50   546.6    3.5      49.872
2014    9       28     5  33    4.50   546.5    3.6      49.867
2014    9       28     5  39    4.50   546.3    3.6      49.861
2014    9       28     5  44    4.50   546.2    3.6      49.856
2014    9       28     5  50    4.50   546.0    3.6      49.851
2014    9       28     5  56    4.50   545.9    3.6      49.846
2014    9       28     6   1    4.50   545.8    3.6      49.842
2014    9       28     6   7    4.50   545.6    3.6      49.837
2014    9       28     6  12    4.50   545.5    3.6      49.833
2014    9       28     6  18    4.50   545.3    3.6      49.829
2014    9       28     6  23    4.50   545.2    3.6      49.825
2014    9       28     6  29    4.50   545.0    3.6      49.821
2014    9       28     6  34    4.50   544.9    3.6      49.817
2014    9       28     6  40    4.49   544.7    3.6      49.814
2014    9       28     6  46    4.49   544.6    3.6      49.810
2014    9       28     6  51    4.49   544.4    3.6      49.806
2014    9       28     6  57    4.49   544.3    3.6      49.803
2014    9       28     7   2    4.49   544.2    3.6      49.799
2014    9       28     7   8    4.49   544.0    3.6      49.796
2014    9       28     7  13    4.49   543.9    3.6      49.792
2014    9       28     7  19    4.49   543.7    3.6      49.788
2014    9       28     7  24    4.49   543.6    3.6      49.785
2014    9       28     7  30    4.49   543.4    3.6      49.781
2014    9       28     7  36    4.49   543.3    3.6      49.777
2014    9       28     7  41    4.49   543.1    3.6      49.772
2014    9       28     7  47    4.49   543.0    3.6      49.768
2014    9       28     7  52    4.49   542.9    3.6      49.763
2014    9       28     7  58    4.49   542.7    3.6      49.759
2014    9       28     8   3    4.49   542.6    3.6      49.754
2014    9       28     8   9    4.49   542.4    3.6      49.748
2014    9       28     8  14    4.49   542.3    3.6      49.743
2014    9       28     8  20    4.49   542.1    3.6      49.737
2014    9       28     8  26    4.49   542.0    3.6      49.731
2014    9       28     8  31    4.49   541.8    3.6      49.725
2014    9       28     8  37    4.49   541.7    3.6      49.718
2014    9       28     8  42    4.49   541.5    3.6      49.711
2014    9       28     8  48    4.49   541.4    3.6      49.704
2014    9       28     8  53    4.49   541.2    3.6      49.697
2014    9       28     8  59    4.49   541.1    3.6      49.689
2014    9       28     9   4    4.48   541.0    3.6      49.681
2014    9       28     9  10    4.48   540.8    3.6      49.673
2014    9       28     9  16    4.48   540.7    3.6      49.665
2014    9       28     9  21    4.48   540.5    3.6      49.656
2014    9       28     9  27    4.48   540.4    3.6      49.648
2014    9       28     9  32    4.48   540.2    3.6      49.638
2014    9       28     9  38    4.48   540.1    3.6      49.629
2014    9       28     9  43    4.48   539.9    3.6      49.620
2014    9       28     9  49    4.48   539.8    3.6      49.610
2014    9       28     9  55    4.48   539.6    3.6      49.600
2014    9       28    10   0    4.48   539.5    3.6      49.590
2014    9       28    10   6    4.48   539.3    3.6      49.580
2014    9       28    10  11    4.48   539.2    3.6      49.569
2014    9       28    10  17    4.48   539.0    3.6      49.558
2014    9       28    10  22    4.48   538.9    3.6      49.548
2014    9       28    10  28    4.48   538.7    3.6      49.537
2014    9       28    10  33    4.48   538.6    3.6      49.526
2014    9       28    10  39    4.48   538.4    3.6      49.515
2014    9       28    10  45    4.48   538.3    3.6      49.504
2014    9       28    10  50    4.47   538.1    3.6      49.493
2014    9       28    10  56    4.47   538.0    3.6      49.482
2014    9       28    11   1    4.47   537.8    3.6      49.471
2014    9       28    11   7    4.47   537.7    3.7      49.460
2014    9       28    11  12    4.47   537.5    3.7      49.449
2014    9       28    11  18    4.47   537.4    3.7      49.437
2014    9       28    11  23    4.47   537.2    3.7      49.426
2014    9       28    11  29    4.47   537.1    3.7      49.415
2014    9       28    11  34    4.47   536.9    3.7      49.404
2014    9       28    11  40    4.47   536.8    3.7      49.393
2014    9       28    11  46    4.47   536.6    3.7      49.382
2014    9       28    11  51    4.47   536.5    3.7      49.371
2014    9       28    11  57    4.47   536.3    3.7      49.361
2014    9       28    12   2    4.47   536.2    3.7      49.350
2014    9       28    12   8    4.47   536.0    3.7      49.339
2014    9       28    12  13    4.47   535.9    3.7      49.329
2014    9       28    12  19    4.47   535.7    3.7      49.318
2014    9       28    12  24    4.47   535.6    3.7      49.308
2014    9       28    12  30    4.46   535.4    3.7      49.297
2014    9       28    12  36    4.46   535.3    3.7      49.287
2014    9       28    12  41    4.46   535.1    3.7      49.277
2014    9       28    12  47    4.46   535.0    3.7      49.267
2014    9       28    12  52    4.46   534.8    3.7      49.257
2014    9       28    12  58    4.46   534.7    3.7      49.247
2014    9       28    13   3    4.46   534.5    3.7      49.238
2014    9       28    13   9    4.46   534.4    3.7      49.228
2014    9       28    13  14    4.46   534.2    3.7      49.219
2014    9       28    13  20    4.46   534.1    3.7      49.210
2014    9       28    13  26    4.46   533.9    3.7      49.201
2014    9       28    13  31    4.46   533.8    3.7      49.192
2014    9       28    13  37    4.46   533.6    3.7      49.183
2014    9       28    13  42    4.46   533.5    3.7      49.174
2014    9       28    13  48    4.46   533.3    3.7      49.166
2014    9       28    13  53    4.46   533.2    3.7      49.158
2014    9       28    13  59    4.46   533.0    3.7      49.150
2014    9       28    14   4    4.46   532.9    3.7      49.142
2014    9       28    14  10    4.46   532.7    3.7      49.134
2014    9       28    14  16    4.45   532.6    3.7      49.127
2014    9       28    14  21    4.45   532.4    3.7      49.119
2014    9       28    14  27    4.45   532.3    3.7      49.112
2014    9       28    14  32    4.45   532.1    3.7      49.105
2014    9       28    14  38    4.45   532.0    3.7      49.097
2014    9       28    14  43    4.45   531.8    3.7      49.090
2014    9       28    14  49    4.45   531.7    3.7      49.083
2014    9       28    14  54    4.45   531.5    3.7      49.077
2014    9       28    15   0    4.45   531.4    3.7      49.070
2014    9       28    15   6    4.45   531.2    3.7      49.063
2014    9       28    15  11    4.45   531.1    3.7      49.056
2014    9       28    15  17    4.45   530.9    3.7      49.050
2014    9       28    15  22    4.45   530.8    3.7      49.043
2014    9       28    15  28    4.45   530.6    3.7      49.036
2014    9       28    15  33    4.45   530.5    3.7      49.030
2014    9       28    15  39    4.45   530.3    3.7      49.023
2014    9       28    15  44    4.45   530.2    3.7      49.016
2014    9       28    15  50    4.45   530.0    3.7      49.010
2014    9       28    15  56    4.45   529.9    3.7      49.003
2014    9       28    16   1    4.44   529.7    3.7      48.996
2014    9       28    16   7    4.44   529.6    3.7      48.989
2014    9       28    16  12    4.44   529.4    3.7      48.982
2014    9       28    16  18    4.44   529.3    3.7      48.975
2014    9       28    16  23    4.44   529.1    3.7      48.968
2014    9       28    16  29    4.44   529.0    3.7      48.961
2014    9       28    16  34    4.44   528.8    3.7      48.953
2014    9       28    16  40    4.44   528.7    3.7      48.946
2014    9       28    16  46    4.44   528.5    3.7      48.938
2014    9       28    16  51    4.44   528.3    3.8      48.930
2014    9       28    16  57    4.44   528.2    3.8      48.922
2014    9       28    17   2    4.44   528.0    3.8      48.913
2014    9       28    17   8    4.44   527.9    3.8      48.904
2014    9       28    17  13    4.44   527.7    3.8      48.896
2014    9       28    17  19    4.44   527.6    3.8      48.886
2014    9       28    17  24    4.44   527.4    3.8      48.877
2014    9       28    17  30    4.43   527.3    3.8      48.868
2014    9       28    17  36    4.43   527.1    3.8      48.858
2014    9       28    17  41    4.43   527.0    3.8      48.848
2014    9       28    17  47    4.43   526.8    3.8      48.838
2014    9       28    17  52    4.43   526.7    3.8      48.827
2014    9       28    17  58    4.43   526.5    3.8      48.817
2014    9       28    18   3    4.43   526.4    3.8      48.806
2014    9       28    18   9    4.43   526.2    3.8      48.795
2014    9       28    18  14    4.43   526.0    3.8      48.784
2014    9       28    18  20    4.43   525.9    3.8      48.773
2014    9       28    18  26    4.43   525.7    3.8      48.762
2014    9       28    18  31    4.43   525.6    3.8      48.750
2014    9       28    18  37    4.43   525.4    3.8      48.738
2014    9       28    18  42    4.43   525.3    3.8      48.726
2014    9       28    18  48    4.43   525.1    3.8      48.714
2014    9       28    18  53    4.43   525.0    3.8      48.702
2014    9       28    18  59    4.42   524.8    3.8      48.690
2014    9       28    19   4    4.42   524.7    3.8      48.677
2014    9       28    19  10    4.42   524.5    3.8      48.665
2014    9       28    19  16    4.42   524.3    3.8      48.652
2014    9       28    19  21    4.42   524.2    3.8      48.639
2014    9       28    19  27    4.42   524.0    3.8      48.626
2014    9       28    19  32    4.42   523.9    3.8      48.612
2014    9       28    19  38    4.42   523.7    3.8      48.599
2014    9       28    19  43    4.42   523.6    3.8      48.585
2014    9       28    19  49    4.42   523.4    3.8      48.572
2014    9       28    19  54    4.42   523.3    3.8      48.558
2014    9       28    20   0    4.42   523.1    3.8      48.544
2014    9       28    20   5    4.42   523.0    3.8      48.530
2014    9       28    20  11    4.42   522.8    3.8      48.516
2014    9       28    20  17    4.41   522.6    3.8      48.501
2014    9       28    20  22    4.41   522.5    3.8      48.487
2014    9       28    20  28    4.41   522.3    3.8      48.472
2014    9       28    20  33    4.41   522.2    3.8      48.458
2014    9       28    20  39    4.41   522.0    3.8      48.443
2014    9       28    20  44    4.41   521.9    3.8      48.428
2014    9       28    20  50    4.41   521.7    3.8      48.413
2014    9       28    20  55    4.41   521.5    3.8      48.399
2014    9       28    21   1    4.41   521.4    3.8      48.384
2014    9       28    21   7    4.41   521.2    3.8      48.369
2014    9       28    21  12    4.41   521.1    3.8      48.354
2014    9       28    21  18    4.41   520.9    3.8      48.339
2014    9       28    21  23    4.41   520.8    3.8      48.325
2014    9       28    21  29    4.41   520.6    3.8      48.310
2014    9       28    21  34    4.40   520.5    3.8      48.295
2014    9       28    21  40    4.40   520.3    3.8      48.280
2014    9       28    21  45    4.40   520.1    3.8      48.266
2014    9       28    21  51    4.40   520.0    3.8      48.252
2014    9       28    21  57    4.40   519.8    3.8      48.237
2014    9       28    22   2    4.40   519.7    3.8      48.223
2014    9       28    22   8    4.40   519.5    3.8      48.209
2014    9       28    22  13    4.40   519.4    3.8      48.195
2014    9       28    22  19    4.40   519.2    3.8      48.181
2014    9       28    22  24    4.40   519.0    3.8      48.168
2014    9       28    22  30    4.40   518.9    3.8      48.154
2014    9       28    22  35    4.40   518.7    3.8      48.141
2014    9       28    22  41    4.40   518.6    3.8      48.128
2014    9       28    22  47    4.40   518.4    3.8      48.115
2014    9       28    22  52    4.40   518.3    3.8      48.103
2014    9       28    22  58    4.39   518.1    3.8      48.090
2014    9       28    23   3    4.39   518.0    3.8      48.078
2014    9       28    23   9    4.39   517.8    3.8      48.066
2014    9       28    23  14    4.39   517.6    3.8      48.055
2014    9       28    23  20    4.39   517.5    3.8      48.043
2014    9       28    23  25    4.39   517.3    3.8      48.032
2014    9       28    23  31    4.39   517.2    3.8      48.020
2014    9       28    23  37    4.39   517.0    3.8      48.009
2014    9       28    23  42    4.39   516.9    3.8      47.998
2014    9       28    23  48    4.39   516.7    3.8      47.987
2014    9       28    23  53    4.39   516.6    3.8      47.976
2014    9       28    23  59    4.39   516.4    3.8      47.965
2014    9       29     0   4    4.39   516.3    3.8      47.955
2014    9       29     0  10    4.39   516.1    3.8      47.944
2014    9       29     0  15    4.39   515.9    3.8      47.933
2014    9       29     0  21    4.38   515.8    3.9      47.922
2014    9       29     0  27    4.38   515.6    3.9      47.912
2014    9       29     0  32    4.38   515.5    3.9      47.901
2014    9       29     0  38    4.38   515.3    3.9      47.891
2014    9       29     0  43    4.38   515.2    3.9      47.880
2014    9       29     0  49    4.38   515.0    3.9      47.870
2014    9       29     0  54    4.38   514.8    3.9      47.859
2014    9       29     1   0    4.38   514.7    3.9      47.849
2014    9       29     1   5    4.38   514.5    3.9      47.839
2014    9       29     1  11    4.38   514.4    3.9      47.828
2014    9       29     1  17    4.38   514.2    3.9      47.818
2014    9       29     1  22    4.38   514.0    3.9      47.808
2014    9       29     1  28    4.38   513.9    3.9      47.797
2014    9       29     1  33    4.38   513.7    3.9      47.787
2014    9       29     1  39    4.38   513.6    3.9      47.776
2014    9       29     1  44    4.37   513.4    3.9      47.766
2014    9       29     1  50    4.37   513.2    3.9      47.755
2014    9       29     1  55    4.37   513.1    3.9      47.745
2014    9       29     2   1    4.37   512.9    3.9      47.734
2014    9       29     2   6    4.37   512.8    3.9      47.723
2014    9       29     2  12    4.37   512.6    3.9      47.712
2014    9       29     2  18    4.37   512.4    3.9      47.701
2014    9       29     2  23    4.37   512.3    3.9      47.690
2014    9       29     2  29    4.37   512.1    3.9      47.679
2014    9       29     2  34    4.37   512.0    3.9      47.667
2014    9       29     2  40    4.37   511.8    3.9      47.656
2014    9       29     2  45    4.37   511.6    3.9      47.644
2014    9       29     2  51    4.36   511.5    3.9      47.632
2014    9       29     2  56    4.36   511.3    3.9      47.620
2014    9       29     3   2    4.36   511.2    3.9      47.607
2014    9       29     3   8    4.36   511.0    3.9      47.594
2014    9       29     3  13    4.36   510.8    3.9      47.581
2014    9       29     3  19    4.36   510.7    3.9      47.568
2014    9       29     3  24    4.36   510.5    3.9      47.555
2014    9       29     3  30    4.36   510.4    3.9      47.541
2014    9       29     3  35    4.36   510.2    3.9      47.527
2014    9       29     3  41    4.36   510.0    3.9      47.513
2014    9       29     3  46    4.36   509.9    3.9      47.499
2014    9       29     3  52    4.36   509.7    3.9      47.485
2014    9       29     3  58    4.36   509.5    3.9      47.470
2014    9       29     4   3    4.35   509.4    3.9      47.456
2014    9       29     4   9    4.35   509.2    3.9      47.441
2014    9       29     4  14    4.35   509.1    3.9      47.426
2014    9       29     4  20    4.35   508.9    3.9      47.411
2014    9       29     4  25    4.35   508.7    3.9      47.396
2014    9       29     4  31    4.35   508.6    3.9      47.380
2014    9       29     4  36    4.35   508.4    3.9      47.365
2014    9       29     4  42    4.35   508.2    3.9      47.349
2014    9       29     4  48    4.35   508.1    3.9      47.334
2014    9       29     4  53    4.35   507.9    3.9      47.318
2014    9       29     4  59    4.35   507.8    3.9      47.302
2014    9       29     5   4    4.35   507.6    3.9      47.286
2014    9       29     5  10    4.35   507.4    3.9      47.270
2014    9       29     5  15    4.34   507.3    3.9      47.254
2014    9       29     5  21    4.34   507.1    3.9      47.238
2014    9       29     5  26    4.34   507.0    3.9      47.221
2014    9       29     5  32    4.34   506.8    3.9      47.205
2014    9       29     5  37    4.34   506.6    3.9      47.189
2014    9       29     5  43    4.34   506.5    3.9      47.172
2014    9       29     5  49    4.34   506.3    3.9      47.156
2014    9       29     5  54    4.34   506.1    3.9      47.139
2014    9       29     6   0    4.34   506.0    3.9      47.123
2014    9       29     6   5    4.34   505.8    3.9      47.106
2014    9       29     6  11    4.34   505.7    3.9      47.089
2014    9       29     6  16    4.34   505.5    3.9      47.073
2014    9       29     6  22    4.34   505.4    3.9      47.056
2014    9       29     6  27    4.34   505.2    3.9      47.039
2014    9       29     6  33    4.34   505.0    3.9      47.023
2014    9       29     6  39    4.34   504.9    3.9      47.006
2014    9       29     6  44    4.34   504.7    3.9      46.990
2014    9       29     6  50    4.34   504.6    3.9      46.973
2014    9       29     6  55    4.33   504.4    3.9      46.957
2014    9       29     7   1    4.33   504.2    3.9      46.940
2014    9       29     7   6    4.33   504.1    3.9      46.924
2014    9       29     7  12    4.33   503.9    3.9      46.908
2014    9       29     7  17    4.33   503.8    3.9      46.892
2014    9       29     7  23    4.33   503.6    3.9      46.876
2014    9       29     7  29    4.33   503.4    3.9      46.860
2014    9       29     7  34    4.33   503.3    3.9      46.844
2014    9       29     7  40    4.33   503.1    3.9      46.829
2014    9       29     7  45    4.33   503.0    3.9      46.814
2014    9       29     7  51    4.33   502.8    3.9      46.798
2014    9       29     7  56    4.33   502.7    3.9      46.783
2014    9       29     8   2    4.33   502.5    4.0      46.769
2014    9       29     8   7    4.33   502.3    4.0      46.754
2014    9       29     8  13    4.33   502.2    4.0      46.740
2014    9       29     8  19    4.33   502.0    4.0      46.725
2014    9       29     8  24    4.33   501.9    4.0      46.711
2014    9       29     8  30    4.33   501.7    4.0      46.697
2014    9       29     8  35    4.33   501.6    4.0      46.684
2014    9       29     8  41    4.33   501.4    4.0      46.670
2014    9       29     8  46    4.33   501.3    4.0      46.657
2014    9       29     8  52    4.33   501.1    4.0      46.644
2014    9       29     8  57    4.33   500.9    4.0      46.631
2014    9       29     9   3    4.33   500.8    4.0      46.618
2014    9       29     9   9    4.33   500.6    4.0      46.605
2014    9       29     9  14    4.33   500.5    4.0      46.592
2014    9       29     9  20    4.33   500.3    4.0      46.580
2014    9       29     9  25    4.33   500.2    4.0      46.567
2014    9       29     9  31    4.33   500.0    4.0      46.555
2014    9       29     9  36    4.33   499.9    4.0      46.542
2014    9       29     9  42    4.33   499.7    4.0      46.530
2014    9       29     9  47    4.33   499.6    4.0      46.517
2014    9       29     9  53    4.33   499.4    4.0      46.505
2014    9       29     9  58    4.33   499.2    4.0      46.492
2014    9       29    10   4    4.33   499.1    4.0      46.479
2014    9       29    10  10    4.33   498.9    4.0      46.466
2014    9       29    10  15    4.33   498.8    4.0      46.453
2014    9       29    10  21    4.33   498.6    4.0      46.440
2014    9       29    10  26    4.33   498.5    4.0      46.427
2014    9       29    10  32    4.33   498.3    4.0      46.414
2014    9       29    10  37    4.33   498.2    4.0      46.401
2014    9       29    10  43    4.33   498.0    4.0      46.387
2014    9       29    10  48    4.33   497.8    4.0      46.374
2014    9       29    10  54    4.33   497.7    4.0      46.360
2014    9       29    11   0    4.33   497.5    4.0      46.346
2014    9       29    11   5    4.33   497.4    4.0      46.333
2014    9       29    11  11    4.33   497.2    4.0      46.319
2014    9       29    11  16    4.33   497.1    4.0      46.305
2014    9       29    11  22    4.33   496.9    4.0      46.291
2014    9       29    11  27    4.33   496.7    4.0      46.277
2014    9       29    11  33    4.33   496.6    4.0      46.263
2014    9       29    11  38    4.33   496.4    4.0      46.249
2014    9       29    11  44    4.33   496.3    4.0      46.236
2014    9       29    11  50    4.33   496.1    4.0      46.221
2014    9       29    11  55    4.33   495.9    4.0      46.208
2014    9       29    12   1    4.33   495.8    4.0      46.193
2014    9       29    12   6    4.34   495.6    4.0      46.179
2014    9       29    12  12    4.34   495.5    4.0      46.165
2014    9       29    12  17    4.34   495.3    4.0      46.151
2014    9       29    12  23    4.34   495.2    4.0      46.136
2014    9       29    12  28    4.34   495.0    4.1      46.122
2014    9       29    12  34    4.34   494.8    4.1      46.108
2014    9       29    12  40    4.34   494.7    4.1      46.093
2014    9       29    12  45    4.34   494.5    4.1      46.078
2014    9       29    12  51    4.34   494.4    4.1      46.063
2014    9       29    12  56    4.34   494.2    4.1      46.048
2014    9       29    13   2    4.34   494.1    4.1      46.033
2014    9       29    13   7    4.34   493.9    4.1      46.018
2014    9       29    13  13    4.34   493.7    4.1      46.003
2014    9       29    13  18    4.34   493.6    4.1      45.987
2014    9       29    13  24    4.34   493.4    4.1      45.971
2014    9       29    13  29    4.34   493.3    4.1      45.956
2014    9       29    13  35    4.34   493.1    4.1      45.939
2014    9       29    13  41    4.34   492.9    4.1      45.923
2014    9       29    13  46    4.34   492.8    4.1      45.907
2014    9       29    13  52    4.34   492.6    4.1      45.890
2014    9       29    13  57    4.34   492.5    4.1      45.873
2014    9       29    14   3    4.34   492.3    4.1      45.856
2014    9       29    14   8    4.34   492.1    4.1      45.839
2014    9       29    14  14    4.34   492.0    4.1      45.822
2014    9       29    14  19    4.34   491.8    4.1      45.804
2014    9       29    14  25    4.34   491.7    4.1      45.787
2014    9       29    14  31    4.34   491.5    4.1      45.769
2014    9       29    14  36    4.34   491.3    4.1      45.751
2014    9       29    14  42    4.34   491.2    4.1      45.733
2014    9       29    14  47    4.34   491.0    4.1      45.714
2014    9       29    14  53    4.34   490.9    4.1      45.696
2014    9       29    14  58    4.35   490.7    4.1      45.677
2014    9       29    15   4    4.35   490.5    4.1      45.658
2014    9       29    15   9    4.35   490.4    4.1      45.639
2014    9       29    15  15    4.35   490.2    4.1      45.620
2014    9       29    15  21    4.35   490.1    4.1      45.601
2014    9       29    15  26    4.35   489.9    4.1      45.581
2014    9       29    15  32    4.35   489.7    4.1      45.562
2014    9       29    15  37    4.35   489.6    4.1      45.542
2014    9       29    15  43    4.35   489.4    4.1      45.522
2014    9       29    15  48    4.35   489.3    4.1      45.502
2014    9       29    15  54    4.35   489.1    4.1      45.481
2014    9       29    15  59    4.35   488.9    4.1      45.461
2014    9       29    16   5    4.35   488.8    4.1      45.440
2014    9       29    16  11    4.35   488.6    4.1      45.419
2014    9       29    16  16    4.35   488.5    4.1      45.398
2014    9       29    16  22    4.35   488.3    4.1      45.377
2014    9       29    16  27    4.35   488.1    4.1      45.355
2014    9       29    16  33    4.35   488.0    4.1      45.333
2014    9       29    16  38    4.35   487.8    4.1      45.311
2014    9       29    16  44    4.35   487.7    4.1      45.289
2014    9       29    16  49    4.35   487.5    4.1      45.267
2014    9       29    16  55    4.35   487.3    4.1      45.244
2014    9       29    17   1    4.35   487.2    4.1      45.222
2014    9       29    17   6    4.35   487.0    4.1      45.199
2014    9       29    17  12    4.35   486.9    4.1      45.176
2014    9       29    17  17    4.35   486.7    4.1      45.153
2014    9       29    17  23    4.35   486.5    4.1      45.130
2014    9       29    17  28    4.35   486.4    4.2      45.107
2014    9       29    17  34    4.35   486.2    4.2      45.083
2014    9       29    17  39    4.35   486.1    4.2      45.060
2014    9       29    17  45    4.35   485.9    4.2      45.037
2014    9       29    17  50    4.35   485.7    4.2      45.013
2014    9       29    17  56    4.35   485.6    4.2      44.990
2014    9       29    18   2    4.35   485.4    4.2      44.966
2014    9       29    18   7    4.35   485.2    4.2      44.943
2014    9       29    18  13    4.35   485.1    4.2      44.919
2014    9       29    18  18    4.35   484.9    4.2      44.896
2014    9       29    18  24    4.35   484.8    4.2      44.872
2014    9       29    18  29    4.35   484.6    4.2      44.849
2014    9       29    18  35    4.35   484.4    4.2      44.825
2014    9       29    18  40    4.35   484.3    4.2      44.802
2014    9       29    18  46    4.35   484.1    4.2      44.778
2014    9       29    18  52    4.35   483.9    4.2      44.754
2014    9       29    18  57    4.35   483.8    4.2      44.731
2014    9       29    19   3    4.35   483.6    4.2      44.707
2014    9       29    19   8    4.35   483.5    4.2      44.683
2014    9       29    19  14    4.35   483.3    4.2      44.660
2014    9       29    19  19    4.35   483.1    4.2      44.636
2014    9       29    19  25    4.35   483.0    4.2      44.612
2014    9       29    19  30    4.35   482.8    4.2      44.588
2014    9       29    19  36    4.35   482.6    4.2      44.564
2014    9       29    19  41    4.35   482.5    4.2      44.540
2014    9       29    19  47    4.35   482.3    4.2      44.516
2014    9       29    19  53    4.35   482.1    4.2      44.492
2014    9       29    19  58    4.35   482.0    4.2      44.468
2014    9       29    20   4    4.35   481.8    4.2      44.444
2014    9       29    20   9    4.35   481.6    4.2      44.419
2014    9       29    20  15    4.35   481.5    4.2      44.395
2014    9       29    20  20    4.35   481.3    4.2      44.370
2014    9       29    20  26    4.35   481.1    4.2      44.346
2014    9       29    20  31    4.35   481.0    4.2      44.322
2014    9       29    20  37    4.35   480.8    4.2      44.297
2014    9       29    20  43    4.35   480.6    4.2      44.272
2014    9       29    20  48    4.35   480.5    4.2      44.247
2014    9       29    20  54    4.35   480.3    4.2      44.223
2014    9       29    20  59    4.35   480.1    4.2      44.198
2014    9       29    21   5    4.35   480.0    4.2      44.173
2014    9       29    21  10    4.35   479.8    4.2      44.148
2014    9       29    21  16    4.35   479.6    4.2      44.123
2014    9       29    21  21    4.35   479.5    4.2      44.098
2014    9       29    21  27    4.34   479.3    4.2      44.072
2014    9       29    21  33    4.34   479.1    4.2      44.047
2014    9       29    21  38    4.34   478.9    4.2      44.022
2014    9       29    21  44    4.34   478.8    4.2      43.997
2014    9       29    21  49    4.34   478.6    4.2      43.972
2014    9       29    21  55    4.34   478.4    4.2      43.947
2014    9       29    22   0    4.34   478.3    4.3      43.922
2014    9       29    22   6    4.34   478.1    4.3      43.897
2014    9       29    22  11    4.34   477.9    4.3      43.871
2014    9       29    22  17    4.34   477.8    4.3      43.846
2014    9       29    22  23    4.34   477.6    4.3      43.822
2014    9       29    22  28    4.34   477.4    4.3      43.797
2014    9       29    22  34    4.34   477.3    4.3      43.772
2014    9       29    22  39    4.34   477.1    4.3      43.747
2014    9       29    22  45    4.34   476.9    4.3      43.723
2014    9       29    22  50    4.34   476.8    4.3      43.699
2014    9       29    22  56    4.34   476.6    4.3      43.674
2014    9       29    23   1    4.34   476.4    4.3      43.650
2014    9       29    23   7    4.34   476.2    4.3      43.626
2014    9       29    23  13    4.34   476.1    4.3      43.602
2014    9       29    23  18    4.34   475.9    4.3      43.578
2014    9       29    23  24    4.34   475.7    4.3      43.555
2014    9       29    23  29    4.34   475.6    4.3      43.532
2014    9       29    23  35    4.34   475.4    4.3      43.508
2014    9       29    23  40    4.34   475.2    4.3      43.485
2014    9       29    23  46    4.34   475.1    4.3      43.462
2014    9       29    23  51    4.34   474.9    4.3      43.439
2014    9       29    23  57    4.34   474.7    4.3      43.416
2014    9       30     0   2    4.34   474.6    4.3      43.394
2014    9       30     0   8    4.34   474.4    4.3      43.371
2014    9       30     0  14    4.34   474.2    4.3      43.349
2014    9       30     0  19    4.34   474.1    4.3      43.327
2014    9       30     0  25    4.33   473.9    4.3      43.304
2014    9       30     0  30    4.33   473.7    4.3      43.282
2014    9       30     0  36    4.33   473.6    4.3      43.260
2014    9       30     0  41    4.33   473.4    4.3      43.238
2014    9       30     0  47    4.33   473.2    4.3      43.216
2014    9       30     0  52    4.33   473.1    4.3      43.194
2014    9       30     0  58    4.33   472.9    4.3      43.173
2014    9       30     1   4    4.33   472.8    4.3      43.151
2014    9       30     1   9    4.33   472.6    4.3      43.129
2014    9       30     1  15    4.33   472.4    4.3      43.107
2014    9       30     1  20    4.33   472.3    4.3      43.085
2014    9       30     1  26    4.33   472.1    4.3      43.063
2014    9       30     1  31    4.33   471.9    4.3      43.042
2014    9       30     1  37    4.33   471.8    4.3      43.020
2014    9       30     1  42    4.33   471.6    4.3      42.998
2014    9       30     1  48    4.33   471.4    4.3      42.975
2014    9       30     1  54    4.33   471.3    4.3      42.953
2014    9       30     1  59    4.33   471.1    4.3      42.931
2014    9       30     2   5    4.33   470.9    4.3      42.908
2014    9       30     2  10    4.33   470.8    4.3      42.886
2014    9       30     2  16    4.33   470.6    4.3      42.863
2014    9       30     2  21    4.33   470.5    4.3      42.840
2014    9       30     2  27    4.33   470.3    4.3      42.817
2014    9       30     2  32    4.33   470.1    4.3      42.794
2014    9       30     2  38    4.32   470.0    4.3      42.771
2014    9       30     2  43    4.32   469.8    4.3      42.748
2014    9       30     2  49    4.32   469.6    4.3      42.724
2014    9       30     2  55    4.32   469.5    4.3      42.700
2014    9       30     3   0    4.32   469.3    4.4      42.676
2014    9       30     3   6    4.32   469.1    4.4      42.652
2014    9       30     3  11    4.32   469.0    4.4      42.628
2014    9       30     3  17    4.32   468.8    4.4      42.604
2014    9       30     3  22    4.32   468.6    4.4      42.580
2014    9       30     3  28    4.32   468.5    4.4      42.555
2014    9       30     3  33    4.32   468.3    4.4      42.530
2014    9       30     3  39    4.32   468.1    4.4      42.505
2014    9       30     3  45    4.32   468.0    4.4      42.480
2014    9       30     3  50    4.32   467.8    4.4      42.456
2014    9       30     3  56    4.32   467.6    4.4      42.431
2014    9       30     4   1    4.32   467.4    4.4      42.405
2014    9       30     4   7    4.32   467.3    4.4      42.380
2014    9       30     4  12    4.31   467.1    4.4      42.355
2014    9       30     4  18    4.31   466.9    4.4      42.330
2014    9       30     4  23    4.31   466.8    4.4      42.304
2014    9       30     4  29    4.31   466.6    4.4      42.279
2014    9       30     4  35    4.31   466.4    4.4      42.254
2014    9       30     4  40    4.31   466.3    4.4      42.228
2014    9       30     4  46    4.31   466.1    4.4      42.203
2014    9       30     4  51    4.31   465.9    4.4      42.178
2014    9       30     4  57    4.31   465.8    4.4      42.153
2014    9       30     5   2    4.31   465.6    4.4      42.128
2014    9       30     5   8    4.31   465.4    4.4      42.103
2014    9       30     5  13    4.31   465.3    4.4      42.078
2014    9       30     5  19    4.31   465.1    4.4      42.053
2014    9       30     5  24    4.31   464.9    4.4      42.028
2014    9       30     5  30    4.31   464.8    4.4      42.003
2014    9       30     5  36    4.31   464.6    4.4      41.979
2014    9       30     5  41    4.31   464.4    4.4      41.954
2014    9       30     5  47    4.31   464.2    4.4      41.930
2014    9       30     5  52    4.30   464.1    4.4      41.905
2014    9       30     5  58    4.30   463.9    4.4      41.881
2014    9       30     6   3    4.30   463.7    4.4      41.857
2014    9       30     6   9    4.30   463.6    4.4      41.833
2014    9       30     6  14    4.30   463.4    4.4      41.809
2014    9       30     6  20    4.30   463.2    4.4      41.785
2014    9       30     6  26    4.30   463.1    4.4      41.761
2014    9       30     6  31    4.30   462.9    4.4      41.737
2014    9       30     6  37    4.30   462.7    4.4      41.713
2014    9       30     6  42    4.30   462.6    4.4      41.690
2014    9       30     6  48    4.30   462.4    4.4      41.666
2014    9       30     6  53    4.30   462.2    4.4      41.642
2014    9       30     6  59    4.30   462.1    4.4      41.618
2014    9       30     7   4    4.30   461.9    4.4      41.595
2014    9       30     7  10    4.30   461.7    4.4      41.571
2014    9       30     7  16    4.30   461.6    4.4      41.548
2014    9       30     7  21    4.30   461.4    4.4      41.524
2014    9       30     7  27    4.29   461.2    4.5      41.501
2014    9       30     7  32    4.29   461.1    4.5      41.477
2014    9       30     7  38    4.29   460.9    4.5      41.453
2014    9       30     7  43    4.29   460.7    4.5      41.430
2014    9       30     7  49    4.29   460.6    4.5      41.406
2014    9       30     7  54    4.29   460.4    4.5      41.383
2014    9       30     8   0    4.29   460.3    4.5      41.359
2014    9       30     8   6    4.29   460.1    4.5      41.336
2014    9       30     8  11    4.29   459.9    4.5      41.312
2014    9       30     8  17    4.29   459.8    4.5      41.288
2014    9       30     8  22    4.29   459.6    4.5      41.265
2014    9       30     8  28    4.29   459.4    4.5      41.241
2014    9       30     8  33    4.29   459.3    4.5      41.217
2014    9       30     8  39    4.29   459.1    4.5      41.194
2014    9       30     8  44    4.29   458.9    4.5      41.170
2014    9       30     8  50    4.28   458.7    4.5      41.146
2014    9       30     8  55    4.28   458.6    4.5      41.123
2014    9       30     9   1    4.28   458.4    4.5      41.099
2014    9       30     9   7    4.28   458.2    4.5      41.075
2014    9       30     9  12    4.28   458.1    4.5      41.051
2014    9       30     9  18    4.28   457.9    4.5      41.027
2014    9       30     9  23    4.28   457.7    4.5      41.004
2014    9       30     9  29    4.28   457.6    4.5      40.980
2014    9       30     9  34    4.28   457.4    4.5      40.956
2014    9       30     9  40    4.28   457.2    4.5      40.932
2014    9       30     9  45    4.28   457.1    4.5      40.908
2014    9       30     9  51    4.28   456.9    4.5      40.884
2014    9       30     9  57    4.28   456.7    4.5      40.860
2014    9       30    10   2    4.28   456.5    4.5      40.837
2014    9       30    10   8    4.27   456.4    4.5      40.813
2014    9       30    10  13    4.27   456.2    4.5      40.789
2014    9       30    10  19    4.27   456.0    4.5      40.765
2014    9       30    10  24    4.27   455.9    4.5      40.741
2014    9       30    10  30    4.27   455.7    4.5      40.717
2014    9       30    10  35    4.27   455.5    4.5      40.694
2014    9       30    10  41    4.27   455.3    4.5      40.670
2014    9       30    10  47    4.27   455.2    4.5      40.646
2014    9       30    10  52    4.27   455.0    4.5      40.623
2014    9       30    10  58    4.27   454.8    4.6      40.599
2014    9       30    11   3    4.27   454.7    4.6      40.575
2014    9       30    11   9    4.27   454.5    4.6      40.552
2014    9       30    11  14    4.27   454.3    4.6      40.529
2014    9       30    11  20    4.26   454.1    4.6      40.505
2014    9       30    11  25    4.26   454.0    4.6      40.482
2014    9       30    11  31    4.26   453.8    4.6      40.459
2014    9       30    11  36    4.26   453.6    4.6      40.436
2014    9       30    11  42    4.26   453.4    4.6      40.413
2014    9       30    11  48    4.26   453.3    4.6      40.391
2014    9       30    11  53    4.26   453.1    4.6      40.368
2014    9       30    11  59    4.26   452.9    4.6      40.346
2014    9       30    12   4    4.26   452.7    4.6      40.323
2014    9       30    12  10    4.26   452.6    4.6      40.301
2014    9       30    12  15    4.26   452.4    4.6      40.279
2014    9       30    12  21    4.26   452.2    4.6      40.257
2014    9       30    12  26    4.26   452.0    4.6      40.235
2014    9       30    12  32    4.26   451.9    4.6      40.214
2014    9       30    12  38    4.26   451.7    4.6      40.192
2014    9       30    12  43    4.26   451.5    4.6      40.171
2014    9       30    12  49    4.25   451.4    4.6      40.150
2014    9       30    12  54    4.25   451.2    4.6      40.129
2014    9       30    13   0    4.25   451.0    4.6      40.108
2014    9       30    13   5    4.25   450.8    4.6      40.087
2014    9       30    13  11    4.25   450.7    4.6      40.066
2014    9       30    13  16    4.25   450.5    4.6      40.045
2014    9       30    13  22    4.25   450.3    4.6      40.025
2014    9       30    13  28    4.25   450.1    4.6      40.005
2014    9       30    13  33    4.25   450.0    4.6      39.984
2014    9       30    13  39    4.25   449.8    4.6      39.964
2014    9       30    13  44    4.25   449.6    4.7      39.944
2014    9       30    13  50    4.25   449.5    4.7      39.923
2014    9       30    13  55    4.25   449.3    4.7      39.903
2014    9       30    14   1    4.25   449.1    4.7      39.883
2014    9       30    14   6    4.25   448.9    4.7      39.863
2014    9       30    14  12    4.25   448.8    4.7      39.843
2014    9       30    14  18    4.25   448.6    4.7      39.823
2014    9       30    14  23    4.25   448.4    4.7      39.803
2014    9       30    14  29    4.25   448.3    4.7      39.783
2014    9       30    14  34    4.25   448.1    4.7      39.763
2014    9       30    14  40    4.25   447.9    4.7      39.742
2014    9       30    14  45    4.25   447.8    4.7      39.722
2014    9       30    14  51    4.25   447.6    4.7      39.702
2014    9       30    14  56    4.24   447.4    4.7      39.681
2014    9       30    15   2    4.24   447.2    4.7      39.661
2014    9       30    15   7    4.24   447.1    4.7      39.640
2014    9       30    15  13    4.24   446.9    4.7      39.619
2014    9       30    15  19    4.24   446.7    4.7      39.599
2014    9       30    15  24    4.24   446.6    4.7      39.578
2014    9       30    15  30    4.24   446.4    4.7      39.556
2014    9       30    15  35    4.24   446.2    4.7      39.535
2014    9       30    15  41    4.24   446.0    4.7      39.514
2014    9       30    15  46    4.24   445.9    4.7      39.492
2014    9       30    15  52    4.24   445.7    4.7      39.470
2014    9       30    15  57    4.24   445.5    4.7      39.449
2014    9       30    16   3    4.24   445.4    4.8      39.426
2014    9       30    16   9    4.24   445.2    4.8      39.404
2014    9       30    16  14    4.24   445.0    4.8      39.382
2014    9       30    16  20    4.24   444.9    4.8      39.359
2014    9       30    16  25    4.24   444.7    4.8      39.337
2014    9       30    16  31    4.24   444.5    4.8      39.314
2014    9       30    16  36    4.24   444.3    4.8      39.291
2014    9       30    16  42    4.24   444.2    4.8      39.267
2014    9       30    16  47    4.24   444.0    4.8      39.244
2014    9       30    16  53    4.24   443.8    4.8      39.220
2014    9       30    16  58    4.24   443.6    4.8      39.197
2014    9       30    17   4    4.24   443.5    4.8      39.173
2014    9       30    17  10    4.23   443.3    4.8      39.148
2014    9       30    17  15    4.23   443.1    4.8      39.124
2014    9       30    17  21    4.23   443.0    4.8      39.100
2014    9       30    17  26    4.23   442.8    4.8      39.075
2014    9       30    17  32    4.23   442.6    4.8      39.050
2014    9       30    17  37    4.23   442.4    4.8      39.026
2014    9       30    17  43    4.23   442.3    4.8      39.000
2014    9       30    17  48    4.23   442.1    4.8      38.975
2014    9       30    17  54    4.23   441.9    4.8      38.950
2014    9       30    18   0    4.23   441.7    4.8      38.924
2014    9       30    18   5    4.23   441.6    4.8      38.898
2014    9       30    18  11    4.23   441.4    4.8      38.873
2014    9       30    18  16    4.23   441.2    4.8      38.847
2014    9       30    18  22    4.23   441.1    4.8      38.821
2014    9       30    18  27    4.23   440.9    4.8      38.794
2014    9       30    18  33    4.23   440.7    4.9      38.768
2014    9       30    18  38    4.23   440.5    4.9      38.742
2014    9       30    18  44    4.23   440.4    4.9      38.715
2014    9       30    18  50    4.23   440.2    4.9      38.689
2014    9       30    18  55    4.23   440.0    4.9      38.662
2014    9       30    19   1    4.23   439.8    4.9      38.636
2014    9       30    19   6    4.23   439.7    4.9      38.609
2014    9       30    19  12    4.23   439.5    4.9      38.582
2014    9       30    19  17    4.23   439.3    4.9      38.556
2014    9       30    19  23    4.23   439.1    4.9      38.529
2014    9       30    19  28    4.23   439.0    4.9      38.502
2014    9       30    19  34    4.23   438.8    4.9      38.475
2014    9       30    19  39    4.23   438.6    4.9      38.449
2014    9       30    19  45    4.22   438.4    4.9      38.422
2014    9       30    19  51    4.22   438.3    4.9      38.395
2014    9       30    19  56    4.22   438.1    4.9      38.368
2014    9       30    20   2    4.22   437.9    4.9      38.342
2014    9       30    20   7    4.22   437.7    4.9      38.315
2014    9       30    20  13    4.22   437.6    4.9      38.288
2014    9       30    20  18    4.22   437.4    4.9      38.262
2014    9       30    20  24    4.22   437.2    4.9      38.235
2014    9       30    20  29    4.22   437.0    4.9      38.209
2014    9       30    20  35    4.22   436.9    4.9      38.182
2014    9       30    20  41    4.22   436.7    4.9      38.156
2014    9       30    20  46    4.22   436.5    4.9      38.130
2014    9       30    20  52    4.22   436.3    4.9      38.103
2014    9       30    20  57    4.22   436.2    4.9      38.077
2014    9       30    21   3    4.22   436.0    5.0      38.051
2014    9       30    21   8    4.22   435.8    5.0      38.025
2014    9       30    21  14    4.22   435.6    5.0      37.999
2014    9       30    21  19    4.22   435.5    5.0      37.973
2014    9       30    21  25    4.22   435.3    5.0      37.947
2014    9       30    21  31    4.22   435.1    5.0      37.921
2014    9       30    21  36    4.22   434.9    5.0      37.895
2014    9       30    21  42    4.22   434.8    5.0      37.869
2014    9       30    21  47    4.22   434.6    5.0      37.843
2014    9       30    21  53    4.22   434.4    5.0      37.817
2014    9       30    21  58    4.22   434.2    5.0      37.791
2014    9       30    22   4    4.22   434.1    5.0      37.765
2014    9       30    22   9    4.22   433.9    5.0      37.739
2014    9       30    22  15    4.22   433.7    5.0      37.713
2014    9       30    22  21    4.22   433.5    5.0      37.687
2014    9       30    22  26    4.22   433.4    5.0      37.661
2014    9       30    22  32    4.22   433.2    5.0      37.635
2014    9       30    22  37    4.22   433.0    5.0      37.609
2014    9       30    22  43    4.22   432.8    5.0      37.582
2014    9       30    22  48    4.22   432.7    5.0      37.556
2014    9       30    22  54    4.22   432.5    5.0      37.529
2014    9       30    22  59    4.22   432.3    5.0      37.503
2014    9       30    23   5    4.22   432.1    5.0      37.477
2014    9       30    23  10    4.22   432.0    5.1      37.450
2014    9       30    23  16    4.22   431.8    5.1      37.423
2014    9       30    23  22    4.22   431.6    5.1      37.396
2014    9       30    23  27    4.22   431.4    5.1      37.369
2014    9       30    23  33    4.22   431.3    5.1      37.342
2014    9       30    23  38    4.22   431.1    5.1      37.315
2014    9       30    23  44    4.22   430.9    5.1      37.288
2014    9       30    23  49    4.22   430.7    5.1      37.261
2014    9       30    23  55    4.22   430.6    5.1      37.233
2014   10        1     0   0    4.22   430.4    5.1      37.206
2014   10        1     0   6    4.22   430.2    5.1      37.178
2014   10        1     0  12    4.22   430.0    5.1      37.151
2014   10        1     0  17    4.22   429.9    5.1      37.123
2014   10        1     0  23    4.22   429.7    5.1      37.095
2014   10        1     0  28    4.22   429.5    5.1      37.067
2014   10        1     0  34    4.22   429.3    5.1      37.039
2014   10        1     0  39    4.22   429.1    5.1      37.011
2014   10        1     0  45    4.22   429.0    5.1      36.983
2014   10        1     0  50    4.22   428.8    5.1      36.955
2014   10        1     0  56    4.23   428.6    5.1      36.927
2014   10        1     1   1    4.23   428.4    5.1      36.899
2014   10        1     1   7    4.23   428.2    5.1      36.871
2014   10        1     1  13    4.23   428.1    5.2      36.843
2014   10        1     1  18    4.23   427.9    5.2      36.814
2014   10        1     1  24    4.23   427.7    5.2      36.786
2014   10        1     1  29    4.23   427.5    5.2      36.758
2014   10        1     1  35    4.23   427.3    5.2      36.729
2014   10        1     1  40    4.23   427.2    5.2      36.701
2014   10        1     1  46    4.23   427.0    5.2      36.672
2014   10        1     1  51    4.23   426.8    5.2      36.644
2014   10        1     1  57    4.23   426.6    5.2      36.616
2014   10        1     2   3    4.23   426.4    5.2      36.587
2014   10        1     2   8    4.23   426.3    5.2      36.559
2014   10        1     2  14    4.23   426.1    5.2      36.531
2014   10        1     2  19    4.23   425.9    5.2      36.502
2014   10        1     2  25    4.23   425.7    5.2      36.474
2014   10        1     2  30    4.23   425.5    5.2      36.445
2014   10        1     2  36    4.23   425.4    5.2      36.417
2014   10        1     2  41    4.23   425.2    5.2      36.389
2014   10        1     2  47    4.23   425.0    5.2      36.360
2014   10        1     2  53    4.23   424.8    5.2      36.332
2014   10        1     2  58    4.23   424.6    5.2      36.304
2014   10        1     3   4    4.23   424.5    5.2      36.275
2014   10        1     3   9    4.23   424.3    5.3      36.247
2014   10        1     3  15    4.23   424.1    5.3      36.219
2014   10        1     3  20    4.23   423.9    5.3      36.190
2014   10        1     3  26    4.24   423.7    5.3      36.162
2014   10        1     3  31    4.24   423.6    5.3      36.134
2014   10        1     3  37    4.24   423.4    5.3      36.106
2014   10        1     3  43    4.24   423.2    5.3      36.077
2014   10        1     3  48    4.24   423.0    5.3      36.049
2014   10        1     3  54    4.24   422.8    5.3      36.021
2014   10        1     3  59    4.24   422.6    5.3      35.993
2014   10        1     4   5    4.24   422.5    5.3      35.964
2014   10        1     4  10    4.24   422.3    5.3      35.936
2014   10        1     4  16    4.24   422.1    5.3      35.908
2014   10        1     4  21    4.24   421.9    5.3      35.880
2014   10        1     4  27    4.24   421.7    5.3      35.852
2014   10        1     4  32    4.24   421.6    5.3      35.823
2014   10        1     4  38    4.24   421.4    5.3      35.795
2014   10        1     4  44    4.24   421.2    5.3      35.767
2014   10        1     4  49    4.25   421.0    5.3      35.739
2014   10        1     4  55    4.25   420.8    5.4      35.710
2014   10        1     5   0    4.25   420.7    5.4      35.682
2014   10        1     5   6    4.25   420.5    5.4      35.654
2014   10        1     5  11    4.25   420.3    5.4      35.626
2014   10        1     5  17    4.25   420.1    5.4      35.597
2014   10        1     5  22    4.25   419.9    5.4      35.569
2014   10        1     5  28    4.25   419.7    5.4      35.541
2014   10        1     5  34    4.25   419.6    5.4      35.513
2014   10        1     5  39    4.25   419.4    5.4      35.484
2014   10        1     5  45    4.25   419.2    5.4      35.456
2014   10        1     5  50    4.25   419.0    5.4      35.428
2014   10        1     5  56    4.26   418.8    5.4      35.400
2014   10        1     6   1    4.26   418.7    5.4      35.372
2014   10        1     6   7    4.26   418.5    5.4      35.343
2014   10        1     6  12    4.26   418.3    5.4      35.315
2014   10        1     6  18    4.26   418.1    5.4      35.287
2014   10        1     6  24    4.26   417.9    5.4      35.259
2014   10        1     6  29    4.26   417.7    5.4      35.231
2014   10        1     6  35    4.26   417.6    5.4      35.203
2014   10        1     6  40    4.26   417.4    5.5      35.176
2014   10        1     6  46    4.26   417.2    5.5      35.148
2014   10        1     6  51    4.27   417.0    5.5      35.120
2014   10        1     6  57    4.27   416.8    5.5      35.092
2014   10        1     7   2    4.27   416.7    5.5      35.065
2014   10        1     7   8    4.27   416.5    5.5      35.037
2014   10        1     7  13    4.27   416.3    5.5      35.010
2014   10        1     7  19    4.27   416.1    5.5      34.983
2014   10        1     7  25    4.27   415.9    5.5      34.955
2014   10        1     7  30    4.27   415.8    5.5      34.928
2014   10        1     7  36    4.27   415.6    5.5      34.901
2014   10        1     7  41    4.28   415.4    5.5      34.874
2014   10        1     7  47    4.28   415.2    5.5      34.848
2014   10        1     7  52    4.28   415.0    5.5      34.821
2014   10        1     7  58    4.28   414.8    5.5      34.794
2014   10        1     8   3    4.28   414.7    5.5      34.768
2014   10        1     8   9    4.28   414.5    5.6      34.742
2014   10        1     8  15    4.28   414.3    5.6      34.715
2014   10        1     8  20    4.29   414.1    5.6      34.689
2014   10        1     8  26    4.29   413.9    5.6      34.663
2014   10        1     8  31    4.29   413.8    5.6      34.638
2014   10        1     8  37    4.29   413.6    5.6      34.612
2014   10        1     8  42    4.29   413.4    5.6      34.586
2014   10        1     8  48    4.29   413.2    5.6      34.561
2014   10        1     8  53    4.29   413.0    5.6      34.536
2014   10        1     8  59    4.30   412.9    5.6      34.510
2014   10        1     9   5    4.30   412.7    5.6      34.485
2014   10        1     9  10    4.30   412.5    5.6      34.461
2014   10        1     9  16    4.30   412.3    5.6      34.436
2014   10        1     9  21    4.30   412.2    5.6      34.411
2014   10        1     9  27    4.30   412.0    5.6      34.386
2014   10        1     9  32    4.30   411.8    5.7      34.362
2014   10        1     9  38    4.31   411.6    5.7      34.338
2014   10        1     9  43    4.31   411.4    5.7      34.314
2014   10        1     9  49    4.31   411.3    5.7      34.290
2014   10        1     9  54    4.31   411.1    5.7      34.266
2014   10        1    10   0    4.31   410.9    5.7      34.242
2014   10        1    10   6    4.31   410.7    5.7      34.218
2014   10        1    10  11    4.32   410.6    5.7      34.195
2014   10        1    10  17    4.32   410.4    5.7      34.172
2014   10        1    10  22    4.32   410.2    5.7      34.148
2014   10        1    10  28    4.32   410.0    5.7      34.125
2014   10        1    10  33    4.32   409.9    5.7      34.102
2014   10        1    10  39    4.33   409.7    5.7      34.079
2014   10        1    10  44    4.33   409.5    5.7      34.057
2014   10        1    10  50    4.33   409.3    5.8      34.034
2014   10        1    10  56    4.33   409.2    5.8      34.011
2014   10        1    11   1    4.33   409.0    5.8      33.989
2014   10        1    11   7    4.33   408.8    5.8      33.967
2014   10        1    11  12    4.34   408.6    5.8      33.945
2014   10        1    11  18    4.34   408.5    5.8      33.923
2014   10        1    11  23    4.34   408.3    5.8      33.901
2014   10        1    11  29    4.34   408.1    5.8      33.879
2014   10        1    11  34    4.34   408.0    5.8      33.857
2014   10        1    11  40    4.35   407.8    5.8      33.836
2014   10        1    11  46    4.35   407.6    5.8      33.814
2014   10        1    11  51    4.35   407.4    5.8      33.793
2014   10        1    11  57    4.35   407.3    5.9      33.771
2014   10        1    12   2    4.35   407.1    5.9      33.750
2014   10        1    12   8    4.36   406.9    5.9      33.729
2014   10        1    12  13    4.36   406.8    5.9      33.708
2014   10        1    12  19    4.36   406.6    5.9      33.687
2014   10        1    12  24    4.36   406.4    5.9      33.666
2014   10        1    12  30    4.37   406.3    5.9      33.645
2014   10        1    12  36    4.37   406.1    5.9      33.625
2014   10        1    12  41    4.37   405.9    5.9      33.604
2014   10        1    12  47    4.37   405.8    5.9      33.584
2014   10        1    12  52    4.37   405.6    5.9      33.563
2014   10        1    12  58    4.38   405.4    5.9      33.543
2014   10        1    13   3    4.38   405.3    5.9      33.523
2014   10        1    13   9    4.38   405.1    6.0      33.503
2014   10        1    13  14    4.38   405.0    6.0      33.483
2014   10        1    13  20    4.39   404.8    6.0      33.463
2014   10        1    13  25    4.39   404.6    6.0      33.443
2014   10        1    13  31    4.39   404.5    6.0      33.423
2014   10        1    13  37    4.39   404.3    6.0      33.403
2014   10        1    13  42    4.39   404.1    6.0      33.384
2014   10        1    13  48    4.40   404.0    6.0      33.364
2014   10        1    13  53    4.40   403.8    6.0      33.345
2014   10        1    13  59    4.40   403.7    6.0      33.326
2014   10        1    14   4    4.40   403.5    6.0      33.307
2014   10        1    14  10    4.41   403.4    6.1      33.288
2014   10        1    14  15    4.41   403.2    6.1      33.270
2014   10        1    14  21    4.41   403.0    6.1      33.251
2014   10        1    14  27    4.41   402.9    6.1      33.233
2014   10        1    14  32    4.42   402.7    6.1      33.214
2014   10        1    14  38    4.42   402.6    6.1      33.196
2014   10        1    14  43    4.42   402.4    6.1      33.178
2014   10        1    14  49    4.42   402.3    6.1      33.161
2014   10        1    14  54    4.43   402.1    6.1      33.143
2014   10        1    15   0    4.43   401.9    6.1      33.126
2014   10        1    15   5    4.43   401.8    6.1      33.109
2014   10        1    15  11    4.43   401.6    6.1      33.092
2014   10        1    15  17    4.44   401.5    6.2      33.075
2014   10        1    15  22    4.44   401.3    6.2      33.059
2014   10        1    15  28    4.44   401.2    6.2      33.043
2014   10        1    15  33    4.45   401.0    6.2      33.027
2014   10        1    15  39    4.45   400.9    6.2      33.011
2014   10        1    15  44    4.45   400.7    6.2      32.995
2014   10        1    15  50    4.45   400.6    6.2      32.980
2014   10        1    15  55    4.46   400.4    6.2      32.965
2014   10        1    16   1    4.46   400.3    6.2      32.950
2014   10        1    16   7    4.46   400.1    6.2      32.935
2014   10        1    16  12    4.47   400.0    6.2      32.920
2014   10        1    16  18    4.47   399.8    6.3      32.906
2014   10        1    16  23    4.47   399.7    6.3      32.892
2014   10        1    16  29    4.47   399.5    6.3      32.878
2014   10        1    16  34    4.48   399.4    6.3      32.865
2014   10        1    16  40    4.48   399.2    6.3      32.851
2014   10        1    16  45    4.48   399.1    6.3      32.838
2014   10        1    16  51    4.49   399.0    6.3      32.825
2014   10        1    16  56    4.49   398.8    6.3      32.813
2014   10        1    17   2    4.49   398.7    6.3      32.800
2014   10        1    17   8    4.49   398.5    6.3      32.788
2014   10        1    17  13    4.50   398.4    6.3      32.776
2014   10        1    17  19    4.50   398.2    6.4      32.764
2014   10        1    17  24    4.50   398.1    6.4      32.752
2014   10        1    17  30    4.51   398.0    6.4      32.741
2014   10        1    17  35    4.51   397.8    6.4      32.730
2014   10        1    17  41    4.51   397.7    6.4      32.718
2014   10        1    17  46    4.52   397.5    6.4      32.708
2014   10        1    17  52    4.52   397.4    6.4      32.697
2014   10        1    17  58    4.52   397.3    6.4      32.687
2014   10        1    18   3    4.53   397.1    6.4      32.676
2014   10        1    18   9    4.53   397.0    6.4      32.666
2014   10        1    18  14    4.53   396.9    6.5      32.657
2014   10        1    18  20    4.54   396.7    6.5      32.647
2014   10        1    18  25    4.54   396.6    6.5      32.638
2014   10        1    18  31    4.54   396.5    6.5      32.628
2014   10        1    18  36    4.55   396.3    6.5      32.619
2014   10        1    18  42    4.55   396.2    6.5      32.610
2014   10        1    18  48    4.55   396.1    6.5      32.602
2014   10        1    18  53    4.56   395.9    6.5      32.593
2014   10        1    18  59    4.56   395.8    6.5      32.585
2014   10        1    19   4    4.56   395.7    6.5      32.577
2014   10        1    19  10    4.57   395.6    6.6      32.569
2014   10        1    19  15    4.57   395.4    6.6      32.561
2014   10        1    19  21    4.57   395.3    6.6      32.553
2014   10        1    19  26    4.58   395.2    6.6      32.545
2014   10        1    19  32    4.58   395.1    6.6      32.538
2014   10        1    19  38    4.59   394.9    6.6      32.531
2014   10        1    19  43    4.59   394.8    6.6      32.524
2014   10        1    19  49    4.59   394.7    6.6      32.517
2014   10        1    19  54    4.60   394.6    6.6      32.510
2014   10        1    20   0    4.60   394.4    6.6      32.503
2014   10        1    20   5    4.60   394.3    6.7      32.496
2014   10        1    20  11    4.61   394.2    6.7      32.490
2014   10        1    20  16    4.61   394.1    6.7      32.484
2014   10        1    20  22    4.61   394.0    6.7      32.477
2014   10        1    20  27    4.62   393.9    6.7      32.471
2014   10        1    20  33    4.62   393.7    6.7      32.465
2014   10        1    20  39    4.63   393.6    6.7      32.459
2014   10        1    20  44    4.63   393.5    6.7      32.453
2014   10        1    20  50    4.63   393.4    6.7      32.448
2014   10        1    20  55    4.64   393.3    6.8      32.442
2014   10        1    21   1    4.64   393.2    6.8      32.437
2014   10        1    21   6    4.64   393.1    6.8      32.431
2014   10        1    21  12    4.65   392.9    6.8      32.426
2014   10        1    21  17    4.65   392.8    6.8      32.421
2014   10        1    21  23    4.66   392.7    6.8      32.416
2014   10        1    21  29    4.66   392.6    6.8      32.411
2014   10        1    21  34    4.66   392.5    6.8      32.407
2014   10        1    21  40    4.67   392.4    6.8      32.402
2014   10        1    21  45    4.67   392.3    6.8      32.398
2014   10        1    21  51    4.68   392.2    6.9      32.393
2014   10        1    21  56    4.68   392.1    6.9      32.389
2014   10        1    22   2    4.68   392.0    6.9      32.385
2014   10        1    22   7    4.69   391.9    6.9      32.382
2014   10        1    22  13    4.69   391.8    6.9      32.378
2014   10        1    22  19    4.70   391.6    6.9      32.374
2014   10        1    22  24    4.70   391.5    6.9      32.371
2014   10        1    22  30    4.70   391.4    6.9      32.368
2014   10        1    22  35    4.71   391.3    6.9      32.365
2014   10        1    22  41    4.71   391.2    6.9      32.362
2014   10        1    22  46    4.72   391.1    7.0      32.359
2014   10        1    22  52    4.72   391.0    7.0      32.357
2014   10        1    22  57    4.72   390.9    7.0      32.355
2014   10        1    23   3    4.73   390.8    7.0      32.352
2014   10        1    23   8    4.73   390.7    7.0      32.350
2014   10        1    23  14    4.74   390.6    7.0      32.348
2014   10        1    23  20    4.74   390.5    7.0      32.347
2014   10        1    23  25    4.74   390.5    7.0      32.345
2014   10        1    23  31    4.75   390.4    7.0      32.343
2014   10        1    23  36    4.75   390.3    7.0      32.342
2014   10        1    23  42    4.76   390.2    7.0      32.341
2014   10        1    23  47    4.76   390.1    7.1      32.340
2014   10        1    23  53    4.77   390.0    7.1      32.339
2014   10        1    23  58    4.77   389.9    7.1      32.339
2014   10        2     0   4    4.77   389.8    7.1      32.338
2014   10        2     0  10    4.78   389.7    7.1      32.338
2014   10        2     0  15    4.78   389.6    7.1      32.338
2014   10        2     0  21    4.79   389.5    7.1      32.338
2014   10        2     0  26    4.79   389.4    7.1      32.338
2014   10        2     0  32    4.80   389.3    7.1      32.339
2014   10        2     0  37    4.80   389.3    7.1      32.340
2014   10        2     0  43    4.80   389.2    7.2      32.340
2014   10        2     0  48    4.81   389.1    7.2      32.341
2014   10        2     0  54    4.81   389.0    7.2      32.343
2014   10        2     1   0    4.82   388.9    7.2      32.344
2014   10        2     1   5    4.82   388.8    7.2      32.346
2014   10        2     1  11    4.83   388.7    7.2      32.347
2014   10        2     1  16    4.83   388.6    7.2      32.349
2014   10        2     1  22    4.84   388.6    7.2      32.351
2014   10        2     1  27    4.84   388.5    7.2      32.354
2014   10        2     1  33    4.84   388.4    7.2      32.356
2014   10        2     1  38    4.85   388.3    7.2      32.359
2014   10        2     1  44    4.85   388.2    7.3      32.362
2014   10        2     1  50    4.86   388.2    7.3      32.365
2014   10        2     1  55    4.86   388.1    7.3      32.368
2014   10        2     2   1    4.87   388.0    7.3      32.371
2014   10        2     2   6    4.87   387.9    7.3      32.375
2014   10        2     2  12    4.88   387.8    7.3      32.378
2014   10        2     2  17    4.88   387.8    7.3      32.382
2014   10        2     2  23    4.89   387.7    7.3      32.386
2014   10        2     2  28    4.89   387.6    7.3      32.391
2014   10        2     2  34    4.89   387.5    7.3      32.395
2014   10        2     2  40    4.90   387.5    7.4      32.399
2014   10        2     2  45    4.90   387.4    7.4      32.404
2014   10        2     2  51    4.91   387.3    7.4      32.409
2014   10        2     2  56    4.91   387.2    7.4      32.414
2014   10        2     3   2    4.92   387.2    7.4      32.419
2014   10        2     3   7    4.92   387.1    7.4      32.425
2014   10        2     3  13    4.93   387.0    7.4      32.430
2014   10        2     3  18    4.93   387.0    7.4      32.436
2014   10        2     3  24    4.94   386.9    7.4      32.442
2014   10        2     3  29    4.94   386.8    7.4      32.448
2014   10        2     3  35    4.95   386.8    7.4      32.454
2014   10        2     3  41    4.95   386.7    7.5      32.460
2014   10        2     3  46    4.96   386.6    7.5      32.467
2014   10        2     3  52    4.96   386.5    7.5      32.474
2014   10        2     3  57    4.97   386.5    7.5      32.481
2014   10        2     4   3    4.97   386.4    7.5      32.488
2014   10        2     4   8    4.98   386.3    7.5      32.495
2014   10        2     4  14    4.98   386.3    7.5      32.503
2014   10        2     4  19    4.99   386.2    7.5      32.510
2014   10        2     4  25    4.99   386.2    7.5      32.518
2014   10        2     4  31    4.99   386.1    7.5      32.526
2014   10        2     4  36    5.00   386.0    7.6      32.535
2014   10        2     4  42    5.00   386.0    7.6      32.543
2014   10        2     4  47    5.01   385.9    7.6      32.551
2014   10        2     4  53    5.01   385.8    7.6      32.560
2014   10        2     4  58    5.02   385.8    7.6      32.569
2014   10        2     5   4    5.02   385.7    7.6      32.578
2014   10        2     5   9    5.03   385.7    7.6      32.587
2014   10        2     5  15    5.03   385.6    7.6      32.597
2014   10        2     5  21    5.04   385.5    7.6      32.606
2014   10        2     5  26    5.04   385.5    7.6      32.616
2014   10        2     5  32    5.05   385.4    7.6      32.626
2014   10        2     5  37    5.05   385.4    7.7      32.636
2014   10        2     5  43    5.06   385.3    7.7      32.646
2014   10        2     5  48    5.06   385.3    7.7      32.656
2014   10        2     5  54    5.07   385.2    7.7      32.667
2014   10        2     5  59    5.08   385.2    7.7      32.677
2014   10        2     6   5    5.08   385.1    7.7      32.688
2014   10        2     6  10    5.09   385.0    7.7      32.699
2014   10        2     6  16    5.09   385.0    7.7      32.710
2014   10        2     6  22    5.10   384.9    7.7      32.721
2014   10        2     6  27    5.10   384.9    7.7      32.733
2014   10        2     6  33    5.11   384.8    7.8      32.745
2014   10        2     6  38    5.11   384.8    7.8      32.757
2014   10        2     6  44    5.12   384.7    7.8      32.769
2014   10        2     6  49    5.12   384.7    7.8      32.782
2014   10        2     6  55    5.13   384.7    7.8      32.795
2014   10        2     7   0    5.13   384.6    7.8      32.808
2014   10        2     7   6    5.14   384.6    7.8      32.821
2014   10        2     7  12    5.14   384.5    7.8      32.835
2014   10        2     7  17    5.15   384.5    7.8      32.849
2014   10        2     7  23    5.15   384.4    7.8      32.863
2014   10        2     7  28    5.16   384.4    7.8      32.878
2014   10        2     7  34    5.16   384.4    7.9      32.892
2014   10        2     7  39    5.17   384.3    7.9      32.907
2014   10        2     7  45    5.17   384.3    7.9      32.922
2014   10        2     7  50    5.18   384.2    7.9      32.937
2014   10        2     7  56    5.18   384.2    7.9      32.952
2014   10        2     8   2    5.19   384.1    7.9      32.967
2014   10        2     8   7    5.19   384.1    7.9      32.982
2014   10        2     8  13    5.20   384.1    7.9      32.997
2014   10        2     8  18    5.21   384.0    7.9      33.013
2014   10        2     8  24    5.21   384.0    7.9      33.028
2014   10        2     8  29    5.22   384.0    7.9      33.043
2014   10        2     8  35    5.22   383.9    7.9      33.058
2014   10        2     8  40    5.23   383.9    8.0      33.074
2014   10        2     8  46    5.23   383.8    8.0      33.089
2014   10        2     8  52    5.24   383.8    8.0      33.105
2014   10        2     8  57    5.24   383.8    8.0      33.120
2014   10        2     9   3    5.25   383.7    8.0      33.135
2014   10        2     9   8    5.25   383.7    8.0      33.151
2014   10        2     9  14    5.26   383.7    8.0      33.166
2014   10        2     9  19    5.26   383.6    8.0      33.181
2014   10        2     9  25    5.27   383.6    8.0      33.197
2014   10        2     9  30    5.27   383.6    8.0      33.212
2014   10        2     9  36    5.28   383.5    8.0      33.228
2014   10        2     9  42    5.28   383.5    8.0      33.243
2014   10        2     9  47    5.29   383.5    8.1      33.259
2014   10        2     9  53    5.29   383.4    8.1      33.275
2014   10        2     9  58    5.30   383.4    8.1      33.290
2014   10        2    10   4    5.30   383.4    8.1      33.306
2014   10        2    10   9    5.31   383.3    8.1      33.322
2014   10        2    10  15    5.32   383.3    8.1      33.338
2014   10        2    10  20    5.32   383.3    8.1      33.354
2014   10        2    10  26    5.33   383.3    8.1      33.370
2014   10        2    10  31    5.33   383.2    8.1      33.387
2014   10        2    10  37    5.34   383.2    8.1      33.403
2014   10        2    10  43    5.34   383.2    8.1      33.420
2014   10        2    10  48    5.35   383.1    8.1      33.436
2014   10        2    10  54    5.35   383.1    8.1      33.453
2014   10        2    10  59    5.36   383.1    8.2      33.470
2014   10        2    11   5    5.36   383.1    8.2      33.487
2014   10        2    11  10    5.37   383.0    8.2      33.505
2014   10        2    11  16    5.38   383.0    8.2      33.522
2014   10        2    11  21    5.38   383.0    8.2      33.540
2014   10        2    11  27    5.39   383.0    8.2      33.558
2014   10        2    11  33    5.39   382.9    8.2      33.576
2014   10        2    11  38    5.40   382.9    8.2      33.594
2014   10        2    11  44    5.40   382.9    8.2      33.613
2014   10        2    11  49    5.41   382.9    8.2      33.631
2014   10        2    11  55    5.41   382.9    8.2      33.650
2014   10        2    12   0    5.42   382.8    8.2      33.669
2014   10        2    12   6    5.43   382.8    8.2      33.689
2014   10        2    12  11    5.43   382.8    8.3      33.708
2014   10        2    12  17    5.44   382.8    8.3      33.728
2014   10        2    12  23    5.44   382.8    8.3      33.748
2014   10        2    12  28    5.45   382.7    8.3      33.769
2014   10        2    12  34    5.45   382.7    8.3      33.789
2014   10        2    12  39    5.46   382.7    8.3      33.810
2014   10        2    12  45    5.47   382.7    8.3      33.831
2014   10        2    12  50    5.47   382.7    8.3      33.853
2014   10        2    12  56    5.48   382.7    8.3      33.876
2014   10        2    13   1    5.48   382.7    8.3      33.898
2014   10        2    13   7    5.49   382.7    8.3      33.922
2014   10        2    13  13    5.49   382.6    8.4      33.946
2014   10        2    13  18    5.50   382.6    8.4      33.970
2014   10        2    13  24    5.51   382.6    8.4      33.996
2014   10        2    13  29    5.51   382.6    8.4      34.022
2014   10        2    13  35    5.52   382.6    8.4      34.049
2014   10        2    13  40    5.52   382.6    8.4      34.076
2014   10        2    13  46    5.53   382.6    8.4      34.105
2014   10        2    13  51    5.54   382.6    8.4      34.133
2014   10        2    13  57    5.54   382.6    8.4      34.163
2014   10        2    14   2    5.55   382.6    8.4      34.193
2014   10        2    14   8    5.55   382.6    8.4      34.223
2014   10        2    14  14    5.56   382.6    8.4      34.253
2014   10        2    14  19    5.56   382.6    8.5      34.284
2014   10        2    14  25    5.57   382.6    8.5      34.314
2014   10        2    14  30    5.57   382.6    8.5      34.345
2014   10        2    14  36    5.58   382.6    8.5      34.375
2014   10        2    14  41    5.59   382.6    8.5      34.406
2014   10        2    14  47    5.59   382.6    8.5      34.436
2014   10        2    14  52    5.60   382.6    8.5      34.467
2014   10        2    14  58    5.60   382.7    8.5      34.498
2014   10        2    15   4    5.61   382.7    8.5      34.528
2014   10        2    15   9    5.61   382.7    8.5      34.559
2014   10        2    15  15    5.62   382.7    8.5      34.590
2014   10        2    15  20    5.62   382.7    8.5      34.620
2014   10        2    15  26    5.63   382.7    8.5      34.651
2014   10        2    15  31    5.64   382.7    8.5      34.681
2014   10        2    15  37    5.64   382.7    8.5      34.712
2014   10        2    15  42    5.65   382.7    8.6      34.742
2014   10        2    15  48    5.65   382.7    8.6      34.772
2014   10        2    15  54    5.66   382.7    8.6      34.802
2014   10        2    15  59    5.66   382.7    8.6      34.832
2014   10        2    16   5    5.67   382.7    8.6      34.862
2014   10        2    16  10    5.67   382.8    8.6      34.892
2014   10        2    16  16    5.68   382.8    8.6      34.921
2014   10        2    16  21    5.68   382.8    8.6      34.951
2014   10        2    16  27    5.69   382.8    8.6      34.980
2014   10        2    16  32    5.70   382.8    8.6      35.009
2014   10        2    16  38    5.70   382.8    8.6      35.038
2014   10        2    16  44    5.71   382.8    8.6      35.066
2014   10        2    16  49    5.71   382.8    8.6      35.095
2014   10        2    16  55    5.72   382.8    8.6      35.123
2014   10        2    17   0    5.72   382.9    8.6      35.151
2014   10        2    17   6    5.73   382.9    8.6      35.179
2014   10        2    17  11    5.73   382.9    8.7      35.207
2014   10        2    17  17    5.74   382.9    8.7      35.235
2014   10        2    17  22    5.74   382.9    8.7      35.263
2014   10        2    17  28    5.75   382.9    8.7      35.291
2014   10        2    17  34    5.76   382.9    8.7      35.318
2014   10        2    17  39    5.76   382.9    8.7      35.346
2014   10        2    17  45    5.77   382.9    8.7      35.374
2014   10        2    17  50    5.77   383.0    8.7      35.402
2014   10        2    17  56    5.78   383.0    8.7      35.430
2014   10        2    18   1    5.78   383.0    8.7      35.458
2014   10        2    18   7    5.79   383.0    8.7      35.486
2014   10        2    18  12    5.79   383.0    8.7      35.514
2014   10        2    18  18    5.80   383.0    8.7      35.542
2014   10        2    18  23    5.81   383.1    8.7      35.571
2014   10        2    18  29    5.81   383.1    8.7      35.599
2014   10        2    18  35    5.82   383.1    8.7      35.628
2014   10        2    18  40    5.82   383.1    8.7      35.658
2014   10        2    18  46    5.83   383.1    8.8      35.687
2014   10        2    18  51    5.83   383.1    8.8      35.718
2014   10        2    18  57    5.84   383.2    8.8      35.748
2014   10        2    19   2    5.85   383.2    8.8      35.780
2014   10        2    19   8    5.85   383.2    8.8      35.812
2014   10        2    19  13    5.86   383.2    8.8      35.844
2014   10        2    19  19    5.86   383.3    8.8      35.877
2014   10        2    19  25    5.87   383.3    8.8      35.911
2014   10        2    19  30    5.88   383.3    8.8      35.946
2014   10        2    19  36    5.88   383.4    8.8      35.982
2014   10        2    19  41    5.89   383.4    8.8      36.020
2014   10        2    19  47    5.89   383.4    8.8      36.058
2014   10        2    19  52    5.90   383.5    8.8      36.097
2014   10        2    19  58    5.90   383.5    8.8      36.137
2014   10        2    20   3    5.91   383.6    8.8      36.178
2014   10        2    20   9    5.92   383.6    8.9      36.218
2014   10        2    20  15    5.92   383.6    8.9      36.260
2014   10        2    20  20    5.93   383.7    8.9      36.301
2014   10        2    20  26    5.93   383.7    8.9      36.343
2014   10        2    20  31    5.94   383.8    8.9      36.384
2014   10        2    20  37    5.94   383.8    8.9      36.426
2014   10        2    20  42    5.95   383.9    8.9      36.469
2014   10        2    20  48    5.95   383.9    8.9      36.511
2014   10        2    20  53    5.96   384.0    8.9      36.554
2014   10        2    20  59    5.96   384.0    8.9      36.598
2014   10        2    21   4    5.97   384.1    8.9      36.642
2014   10        2    21  10    5.98   384.1    8.9      36.686
2014   10        2    21  16    5.98   384.2    8.9      36.731
2014   10        2    21  21    5.99   384.2    8.9      36.776
2014   10        2    21  27    5.99   384.3    8.9      36.821
2014   10        2    21  32    6.00   384.3    8.9      36.866
2014   10        2    21  38    6.00   384.4    8.9      36.912
2014   10        2    21  43    6.01   384.4    8.9      36.957
2014   10        2    21  49    6.01   384.5    9.0      37.002
2014   10        2    21  54    6.02   384.5    9.0      37.046
2014   10        2    22   0    6.02   384.6    9.0      37.091
2014   10        2    22   6    6.03   384.6    9.0      37.135
2014   10        2    22  11    6.03   384.7    9.0      37.179
2014   10        2    22  17    6.04   384.7    9.0      37.222
2014   10        2    22  22    6.04   384.8    9.0      37.265
2014   10        2    22  28    6.05   384.8    9.0      37.308
2014   10        2    22  33    6.05   384.9    9.0      37.351
2014   10        2    22  39    6.06   385.0    9.0      37.393
2014   10        2    22  44    6.06   385.0    9.0      37.435
2014   10        2    22  50    6.07   385.1    9.0      37.477
2014   10        2    22  56    6.07   385.1    9.0      37.519
2014   10        2    23   1    6.08   385.2    9.0      37.560
2014   10        2    23   7    6.08   385.2    9.0      37.601
2014   10        2    23  12    6.09   385.3    9.0      37.642
2014   10        2    23  18    6.09   385.3    9.0      37.683
2014   10        2    23  23    6.10   385.4    9.0      37.723
2014   10        2    23  29    6.10   385.5    9.0      37.763
2014   10        2    23  34    6.11   385.5    9.0      37.803
2014   10        2    23  40    6.11   385.6    9.0      37.843
2014   10        2    23  46    6.12   385.6    9.0      37.883
2014   10        2    23  51    6.12   385.7    9.0      37.922
2014   10        2    23  57    6.13   385.8    9.0      37.961
2014   10        3     0   2    6.13   385.8    9.0      38.001
2014   10        3     0   8    6.14   385.9    9.0      38.040
2014   10        3     0  13    6.14   385.9    9.0      38.079
2014   10        3     0  19    6.15   386.0    9.0      38.118
2014   10        3     0  24    6.15   386.1    9.0      38.157
2014   10        3     0  30    6.16   386.1    9.0      38.197
2014   10        3     0  36    6.16   386.2    9.0      38.236
2014   10        3     0  41    6.17   386.2    9.0      38.275
2014   10        3     0  47    6.17   386.3    9.0      38.315
2014   10        3     0  52    6.18   386.4    9.0      38.354
2014   10        3     0  58    6.18   386.4    9.0      38.394
2014   10        3     1   3    6.19   386.5    9.1      38.434
2014   10        3     1   9    6.19   386.6    9.1      38.474
2014   10        3     1  14    6.20   386.6    9.1      38.514
2014   10        3     1  20    6.20   386.7    9.1      38.555
2014   10        3     1  26    6.21   386.8    9.1      38.595
2014   10        3     1  31    6.21   386.8    9.1      38.636
2014   10        3     1  37    6.22   386.9    9.1      38.677
2014   10        3     1  42    6.22   387.0    9.1      38.718
2014   10        3     1  48    6.23   387.0    9.1      38.759
2014   10        3     1  53    6.23   387.1    9.1      38.800
2014   10        3     1  59    6.24   387.2    9.1      38.842
2014   10        3     2   4    6.24   387.3    9.1      38.884
2014   10        3     2  10    6.25   387.3    9.1      38.926
2014   10        3     2  15    6.25   387.4    9.1      38.969
2014   10        3     2  21    6.26   387.5    9.1      39.012
2014   10        3     2  27    6.26   387.5    9.1      39.056
2014   10        3     2  32    6.27   387.6    9.1      39.100
2014   10        3     2  38    6.27   387.7    9.1      39.146
2014   10        3     2  43    6.28   387.8    9.1      39.192
2014   10        3     2  49    6.28   387.8    9.1      39.239
2014   10        3     2  54    6.28   387.9    9.1      39.287
2014   10        3     3   0    6.29   388.0    9.1      39.336
2014   10        3     3   5    6.29   388.1    9.1      39.387
2014   10        3     3  11    6.30   388.2    9.1      39.439
2014   10        3     3  17    6.30   388.3    9.1      39.492
2014   10        3     3  22    6.31   388.4    9.1      39.546
2014   10        3     3  28    6.31   388.4    9.1      39.600
2014   10        3     3  33    6.32   388.5    9.1      39.655
2014   10        3     3  39    6.32   388.6    9.1      39.711
2014   10        3     3  44    6.32   388.7    9.1      39.766
2014   10        3     3  50    6.33   388.8    9.2      39.821
2014   10        3     3  55    6.33   388.9    9.2      39.874
2014   10        3     4   1    6.34   389.0    9.2      39.928
2014   10        3     4   7    6.34   389.1    9.2      39.981
2014   10        3     4  12    6.35   389.2    9.2      40.033
2014   10        3     4  18    6.35   389.3    9.2      40.085
2014   10        3     4  23    6.35   389.4    9.2      40.136
2014   10        3     4  29    6.36   389.5    9.2      40.187
2014   10        3     4  34    6.36   389.5    9.2      40.238
2014   10        3     4  40    6.37   389.6    9.2      40.288
2014   10        3     4  45    6.37   389.7    9.2      40.337
2014   10        3     4  51    6.37   389.8    9.2      40.386
2014   10        3     4  57    6.38   389.9    9.2      40.434
2014   10        3     5   2    6.38   390.0    9.2      40.482
2014   10        3     5   8    6.39   390.1    9.2      40.530
2014   10        3     5  13    6.39   390.2    9.2      40.577
2014   10        3     5  19    6.39   390.3    9.2      40.624
2014   10        3     5  24    6.40   390.4    9.2      40.671
2014   10        3     5  30    6.40   390.5    9.2      40.718
2014   10        3     5  35    6.41   390.6    9.2      40.764
2014   10        3     5  41    6.41   390.7    9.2      40.809
2014   10        3     5  46    6.41   390.8    9.2      40.855
2014   10        3     5  52    6.42   390.9    9.2      40.900
2014   10        3     5  58    6.42   391.0    9.2      40.946
2014   10        3     6   3    6.43   391.1    9.2      40.990
2014   10        3     6   9    6.43   391.2    9.2      41.035
2014   10        3     6  14    6.43   391.3    9.2      41.080
2014   10        3     6  20    6.44   391.4    9.2      41.124
2014   10        3     6  25    6.44   391.5    9.2      41.169
2014   10        3     6  31    6.45   391.6    9.2      41.213
2014   10        3     6  36    6.45   391.7    9.2      41.257
2014   10        3     6  42    6.45   391.8    9.2      41.301
2014   10        3     6  48    6.46   391.9    9.2      41.345
2014   10        3     6  53    6.46   392.0    9.2      41.389
2014   10        3     6  59    6.47   392.1    9.2      41.433
2014   10        3     7   4    6.47   392.2    9.2      41.477
2014   10        3     7  10    6.47   392.3    9.2      41.521
2014   10        3     7  15    6.48   392.4    9.2      41.565
2014   10        3     7  21    6.48   392.5    9.2      41.610
2014   10        3     7  26    6.49   392.6    9.2      41.655
2014   10        3     7  32    6.49   392.7    9.2      41.700
2014   10        3     7  38    6.50   392.8    9.2      41.745
2014   10        3     7  43    6.50   392.9    9.2      41.791
2014   10        3     7  49    6.50   393.0    9.2      41.838
2014   10        3     7  54    6.51   393.1    9.2      41.885
2014   10        3     8   0    6.51   393.2    9.2      41.933
2014   10        3     8   5    6.52   393.3    9.2      41.981
2014   10        3     8  11    6.52   393.4    9.2      42.029
2014   10        3     8  16    6.52   393.5    9.2      42.078
2014   10        3     8  22    6.53   393.6    9.2      42.127
2014   10        3     8  28    6.53   393.8    9.2      42.178
2014   10        3     8  33    6.54   393.9    9.2      42.228
2014   10        3     8  39    6.54   394.0    9.2      42.279
2014   10        3     8  44    6.54   394.1    9.2      42.331
2014   10        3     8  50    6.55   394.2    9.2      42.383
2014   10        3     8  55    6.55   394.4    9.2      42.435
2014   10        3     9   1    6.55   394.5    9.2      42.488
2014   10        3     9   6    6.56   394.6    9.2      42.541
2014   10        3     9  12    6.56   394.7    9.2      42.593
2014   10        3     9  18    6.56   394.9    9.2      42.645
2014   10        3     9  23    6.57   395.0    9.2      42.696
2014   10        3     9  29    6.57   395.1    9.2      42.747
2014   10        3     9  34    6.57   395.2    9.2      42.797
2014   10        3     9  40    6.57   395.4    9.2      42.847
2014   10        3     9  45    6.58   395.5    9.2      42.897
2014   10        3     9  51    6.58   395.6    9.2      42.946
2014   10        3     9  56    6.58   395.8    9.2      42.995
2014   10        3    10   2    6.59   395.9    9.2      43.044
2014   10        3    10   8    6.59   396.0    9.2      43.093
2014   10        3    10  13    6.59   396.1    9.2      43.142
2014   10        3    10  19    6.59   396.2    9.2      43.190
2014   10        3    10  24    6.60   396.4    9.2      43.239
2014   10        3    10  30    6.60   396.5    9.2      43.288
2014   10        3    10  35    6.60   396.6    9.2      43.336
2014   10        3    10  41    6.61   396.7    9.2      43.386
2014   10        3    10  46    6.61   396.9    9.2      43.435
2014   10        3    10  52    6.61   397.0    9.2      43.484
2014   10        3    10  57    6.61   397.1    9.2      43.534
2014   10        3    11   3    6.62   397.3    9.2      43.584
2014   10        3    11   9    6.62   397.4    9.2      43.634
2014   10        3    11  14    6.62   397.5    9.2      43.684
2014   10        3    11  20    6.63   397.6    9.2      43.735
2014   10        3    11  25    6.63   397.8    9.2      43.786
2014   10        3    11  31    6.63   397.9    9.2      43.836
2014   10        3    11  36    6.63   398.0    9.2      43.886
2014   10        3    11  42    6.64   398.2    9.2      43.937
2014   10        3    11  47    6.64   398.3    9.2      43.987
2014   10        3    11  53    6.64   398.5    9.2      44.038
2014   10        3    11  59    6.65   398.6    9.2      44.089
2014   10        3    12   4    6.65   398.7    9.2      44.140
2014   10        3    12  10    6.65   398.9    9.2      44.192
2014   10        3    12  15    6.66   399.0    9.2      44.244
2014   10        3    12  21    6.66   399.2    9.2      44.296
2014   10        3    12  26    6.66   399.3    9.2      44.349
2014   10        3    12  32    6.66   399.5    9.2      44.402
2014   10        3    12  37    6.67   399.7    9.2      44.455
2014   10        3    12  43    6.67   399.8    9.2      44.507
2014   10        3    12  49    6.67   400.0    9.2      44.559
2014   10        3    12  54    6.68   400.1    9.2      44.610
2014   10        3    13   0    6.68   400.3    9.2      44.661
2014   10        3    13   5    6.68   400.4    9.2      44.712
2014   10        3    13  11    6.68   400.6    9.2      44.762
2014   10        3    13  16    6.69   400.8    9.2      44.812
2014   10        3    13  22    6.69   400.9    9.1      44.861
2014   10        3    13  27    6.69   401.1    9.1      44.911
2014   10        3    13  33    6.70   401.2    9.1      44.960
2014   10        3    13  39    6.70   401.4    9.1      45.009
2014   10        3    13  44    6.70   401.5    9.1      45.058
2014   10        3    13  50    6.70   401.7    9.1      45.107
2014   10        3    13  55    6.71   401.9    9.1      45.155
2014   10        3    14   1    6.71   402.0    9.1      45.204
2014   10        3    14   6    6.71   402.2    9.1      45.253
2014   10        3    14  12    6.71   402.3    9.1      45.302
2014   10        3    14  17    6.71   402.5    9.1      45.350
2014   10        3    14  23    6.72   402.7    9.1      45.399
2014   10        3    14  29    6.72   402.8    9.1      45.447
2014   10        3    14  34    6.72   403.0    9.1      45.495
2014   10        3    14  40    6.72   403.1    9.1      45.543
2014   10        3    14  45    6.73   403.3    9.1      45.591
2014   10        3    14  51    6.73   403.5    9.1      45.638
2014   10        3    14  56    6.73   403.6    9.1      45.686
2014   10        3    15   2    6.73   403.8    9.1      45.733
2014   10        3    15   7    6.73   403.9    9.1      45.780
2014   10        3    15  13    6.74   404.1    9.1      45.827
2014   10        3    15  19    6.74   404.3    9.1      45.874
2014   10        3    15  24    6.74   404.4    9.1      45.920
2014   10        3    15  30    6.74   404.6    9.1      45.967
2014   10        3    15  35    6.74   404.8    9.1      46.014
2014   10        3    15  41    6.75   404.9    9.1      46.060
2014   10        3    15  46    6.75   405.1    9.1      46.106
2014   10        3    15  52    6.75   405.3    9.1      46.152
2014   10        3    15  57    6.75   405.4    9.1      46.197
2014   10        3    16   3    6.75   405.6    9.1      46.243
2014   10        3    16   8    6.75   405.8    9.1      46.288
2014   10        3    16  14    6.75   406.0    9.1      46.334
2014   10        3    16  20    6.76   406.1    9.0      46.379
2014   10        3    16  25    6.76   406.3    9.0      46.425
2014   10        3    16  31    6.76   406.5    9.0      46.470
2014   10        3    16  36    6.76   406.7    9.0      46.514
2014   10        3    16  42    6.76   406.8    9.0      46.559
2014   10        3    16  47    6.76   407.0    9.0      46.603
2014   10        3    16  53    6.76   407.2    9.0      46.647
2014   10        3    16  58    6.76   407.4    9.0      46.690
2014   10        3    17   4    6.76   407.5    9.0      46.732
2014   10        3    17  10    6.76   407.7    9.0      46.773
2014   10        3    17  15    6.77   407.9    9.0      46.813
2014   10        3    17  21    6.77   408.0    9.0      46.853
2014   10        3    17  26    6.77   408.2    9.0      46.893
2014   10        3    17  32    6.77   408.4    9.0      46.931
2014   10        3    17  37    6.77   408.6    9.0      46.969
2014   10        3    17  43    6.77   408.7    9.0      47.007
2014   10        3    17  48    6.77   408.9    9.0      47.044
2014   10        3    17  54    6.77   409.1    9.0      47.080
2014   10        3    18   0    6.77   409.2    9.0      47.117
2014   10        3    18   5    6.77   409.4    8.9      47.153
2014   10        3    18  11    6.77   409.6    8.9      47.189
2014   10        3    18  16    6.77   409.7    8.9      47.224
2014   10        3    18  22    6.77   409.9    8.9      47.260
2014   10        3    18  27    6.77   410.1    8.9      47.295
2014   10        3    18  33    6.77   410.2    8.9      47.330
2014   10        3    18  38    6.77   410.4    8.9      47.366
2014   10        3    18  44    6.78   410.6    8.9      47.402
2014   10        3    18  49    6.78   410.8    8.9      47.438
2014   10        3    18  55    6.78   410.9    8.9      47.474
2014   10        3    19   1    6.78   411.1    8.9      47.511
2014   10        3    19   6    6.78   411.3    8.9      47.547
2014   10        3    19  12    6.78   411.5    8.9      47.584
2014   10        3    19  17    6.78   411.7    8.9      47.622
2014   10        3    19  23    6.78   411.9    8.9      47.658
2014   10        3    19  28    6.78   412.0    8.9      47.694
2014   10        3    19  34    6.78   412.2    8.9      47.730
2014   10        3    19  39    6.78   412.4    8.8      47.766
2014   10        3    19  45    6.78   412.6    8.8      47.800
2014   10        3    19  51    6.78   412.8    8.8      47.835
2014   10        3    19  56    6.78   413.0    8.8      47.869
2014   10        3    20   2    6.78   413.2    8.8      47.903
2014   10        3    20   7    6.78   413.3    8.8      47.936
2014   10        3    20  13    6.78   413.5    8.8      47.969
2014   10        3    20  18    6.78   413.7    8.8      48.002
2014   10        3    20  24    6.78   413.9    8.8      48.034
2014   10        3    20  29    6.78   414.1    8.8      48.066
2014   10        3    20  35    6.78   414.3    8.8      48.099
2014   10        3    20  41    6.78   414.5    8.8      48.131
2014   10        3    20  46    6.78   414.6    8.8      48.162
2014   10        3    20  52    6.78   414.8    8.8      48.194
2014   10        3    20  57    6.78   415.0    8.7      48.225
2014   10        3    21   3    6.78   415.2    8.7      48.257
2014   10        3    21   8    6.78   415.4    8.7      48.288
2014   10        3    21  14    6.78   415.6    8.7      48.319
2014   10        3    21  19    6.78   415.8    8.7      48.350
2014   10        3    21  25    6.78   416.0    8.7      48.381
2014   10        3    21  31    6.78   416.2    8.7      48.411
2014   10        3    21  36    6.78   416.3    8.7      48.441
2014   10        3    21  42    6.78   416.5    8.7      48.471
2014   10        3    21  47    6.78   416.7    8.7      48.500
2014   10        3    21  53    6.77   416.9    8.7      48.529
2014   10        3    21  58    6.77   417.1    8.7      48.558
2014   10        3    22   4    6.77   417.3    8.6      48.586
2014   10        3    22   9    6.77   417.5    8.6      48.613
2014   10        3    22  15    6.77   417.6    8.6      48.640
2014   10        3    22  21    6.77   417.8    8.6      48.667
2014   10        3    22  26    6.77   418.0    8.6      48.693
2014   10        3    22  32    6.77   418.2    8.6      48.719
2014   10        3    22  37    6.76   418.4    8.6      48.744
2014   10        3    22  43    6.76   418.5    8.6      48.769
2014   10        3    22  48    6.76   418.7    8.6      48.793
2014   10        3    22  54    6.76   418.9    8.6      48.816
2014   10        3    22  59    6.76   419.1    8.5      48.840
2014   10        3    23   5    6.76   419.3    8.5      48.862
2014   10        3    23  11    6.76   419.5    8.5      48.884
2014   10        3    23  16    6.75   419.6    8.5      48.905
2014   10        3    23  22    6.75   419.8    8.5      48.925
2014   10        3    23  27    6.75   420.0    8.5      48.945
2014   10        3    23  33    6.75   420.2    8.5      48.964
2014   10        3    23  38    6.75   420.4    8.5      48.983
2014   10        3    23  44    6.74   420.5    8.5      49.001
2014   10        3    23  49    6.74   420.7    8.5      49.018
2014   10        3    23  55    6.74   420.9    8.4      49.034
2014   10        4     0   0    6.74   421.1    8.4      49.050
2014   10        4     0   6    6.74   421.2    8.4      49.065
2014   10        4     0  12    6.73   421.4    8.4      49.079
2014   10        4     0  17    6.73   421.6    8.4      49.092
2014   10        4     0  23    6.73   421.8    8.4      49.105
2014   10        4     0  28    6.73   421.9    8.4      49.117
2014   10        4     0  34    6.72   422.1    8.4      49.128
2014   10        4     0  39    6.72   422.3    8.3      49.138
2014   10        4     0  45    6.72   422.4    8.3      49.147
2014   10        4     0  50    6.72   422.6    8.3      49.156
2014   10        4     0  56    6.71   422.8    8.3      49.164
2014   10        4     1   2    6.71   422.9    8.3      49.171
2014   10        4     1   7    6.71   423.1    8.3      49.178
2014   10        4     1  13    6.71   423.2    8.3      49.184
2014   10        4     1  18    6.70   423.4    8.3      49.190
2014   10        4     1  24    6.70   423.5    8.3      49.195
2014   10        4     1  29    6.70   423.7    8.2      49.200
2014   10        4     1  35    6.70   423.8    8.2      49.205
2014   10        4     1  40    6.69   424.0    8.2      49.210
2014   10        4     1  46    6.69   424.1    8.2      49.215
2014   10        4     1  52    6.69   424.3    8.2      49.219
2014   10        4     1  57    6.68   424.4    8.2      49.223
2014   10        4     2   3    6.68   424.6    8.2      49.227
2014   10        4     2   8    6.68   424.8    8.2      49.229
2014   10        4     2  14    6.68   424.9    8.2      49.231
2014   10        4     2  19    6.67   425.1    8.1      49.232
2014   10        4     2  25    6.67   425.3    8.1      49.232
2014   10        4     2  30    6.67   425.4    8.1      49.231
2014   10        4     2  36    6.66   425.6    8.1      49.229
2014   10        4     2  42    6.66   425.7    8.1      49.226
2014   10        4     2  47    6.66   425.9    8.1      49.222
2014   10        4     2  53    6.65   426.1    8.1      49.218
2014   10        4     2  58    6.65   426.2    8.1      49.214
2014   10        4     3   4    6.65   426.4    8.0      49.209
2014   10        4     3   9    6.64   426.5    8.0      49.203
2014   10        4     3  15    6.64   426.7    8.0      49.196
2014   10        4     3  20    6.64   426.8    8.0      49.190
2014   10        4     3  26    6.63   427.0    8.0      49.182
2014   10        4     3  32    6.63   427.1    8.0      49.175
2014   10        4     3  37    6.63   427.2    8.0      49.167
2014   10        4     3  43    6.62   427.4    8.0      49.158
2014   10        4     3  48    6.62   427.5    8.0      49.150
2014   10        4     3  54    6.62   427.7    7.9      49.140
2014   10        4     3  59    6.61   427.8    7.9      49.131
2014   10        4     4   5    6.61   427.9    7.9      49.121
2014   10        4     4  10    6.61   428.1    7.9      49.111
2014   10        4     4  16    6.60   428.2    7.9      49.100
2014   10        4     4  22    6.60   428.3    7.9      49.089
2014   10        4     4  27    6.59   428.5    7.9      49.078
2014   10        4     4  33    6.59   428.6    7.9      49.066
2014   10        4     4  38    6.59   428.7    7.9      49.055
2014   10        4     4  44    6.58   428.9    7.8      49.043
2014   10        4     4  49    6.58   429.0    7.8      49.031
2014   10        4     4  55    6.58   429.1    7.8      49.019
2014   10        4     5   0    6.57   429.2    7.8      49.006
2014   10        4     5   6    6.57   429.4    7.8      48.994
2014   10        4     5  11    6.56   429.5    7.8      48.981
2014   10        4     5  17    6.56   429.6    7.8      48.969
2014   10        4     5  23    6.56   429.7    7.8      48.956
2014   10        4     5  28    6.55   429.8    7.8      48.943
2014   10        4     5  34    6.55   429.9    7.7      48.930
2014   10        4     5  39    6.55   430.0    7.7      48.917
2014   10        4     5  45    6.54   430.2    7.7      48.904
2014   10        4     5  50    6.54   430.3    7.7      48.891
2014   10        4     5  56    6.53   430.4    7.7      48.879
2014   10        4     6   1    6.53   430.5    7.7      48.866
2014   10        4     6   7    6.53   430.6    7.7      48.853
2014   10        4     6  13    6.52   430.7    7.7      48.840
2014   10        4     6  18    6.52   430.8    7.7      48.827
2014   10        4     6  24    6.51   430.9    7.7      48.814
2014   10        4     6  29    6.51   431.0    7.7      48.801
2014   10        4     6  35    6.51   431.1    7.6      48.789
2014   10        4     6  40    6.50   431.2    7.6      48.776
2014   10        4     6  46    6.50   431.3    7.6      48.764
2014   10        4     6  51    6.49   431.4    7.6      48.753
2014   10        4     6  57    6.49   431.5    7.6      48.741
2014   10        4     7   3    6.49   431.6    7.6      48.730
2014   10        4     7   8    6.48   431.7    7.6      48.718
2014   10        4     7  14    6.48   431.8    7.6      48.707
2014   10        4     7  19    6.48   431.8    7.6      48.696
2014   10        4     7  25    6.47   431.9    7.6      48.686
2014   10        4     7  30    6.47   432.0    7.6      48.675
2014   10        4     7  36    6.46   432.1    7.6      48.665
2014   10        4     7  41    6.46   432.2    7.6      48.655
2014   10        4     7  47    6.46   432.3    7.5      48.645
2014   10        4     7  53    6.45   432.4    7.5      48.635
2014   10        4     7  58    6.45   432.5    7.5      48.626
2014   10        4     8   4    6.44   432.6    7.5      48.616
2014   10        4     8   9    6.44   432.6    7.5      48.605
2014   10        4     8  15    6.44   432.7    7.5      48.593
2014   10        4     8  20    6.43   432.8    7.5      48.581
2014   10        4     8  26    6.43   432.8    7.5      48.569
2014   10        4     8  31    6.43   432.9    7.5      48.557
2014   10        4     8  37    6.42   433.0    7.5      48.545
2014   10        4     8  42    6.42   433.1    7.5      48.533
2014   10        4     8  48    6.41   433.1    7.5      48.521
2014   10        4     8  54    6.41   433.2    7.5      48.509
2014   10        4     8  59    6.41   433.3    7.4      48.497
2014   10        4     9   5    6.40   433.3    7.4      48.485
2014   10        4     9  10    6.40   433.4    7.4      48.472
2014   10        4     9  16    6.40   433.5    7.4      48.460
2014   10        4     9  21    6.39   433.6    7.4      48.447
2014   10        4     9  27    6.39   433.7    7.4      48.434
2014   10        4     9  32    6.38   433.7    7.4      48.419
2014   10        4     9  38    6.38   433.8    7.4      48.405
2014   10        4     9  44    6.38   433.9    7.4      48.389
2014   10        4     9  49    6.37   434.0    7.4      48.372
2014   10        4     9  55    6.37   434.1    7.4      48.355
2014   10        4    10   0    6.36   434.1    7.4      48.337
2014   10        4    10   6    6.36   434.2    7.4      48.319
2014   10        4    10  11    6.36   434.3    7.4      48.300
2014   10        4    10  17    6.35   434.4    7.4      48.280
2014   10        4    10  22    6.35   434.4    7.3      48.260
2014   10        4    10  28    6.35   434.5    7.3      48.239
2014   10        4    10  34    6.34   434.6    7.3      48.218
2014   10        4    10  39    6.34   434.6    7.3      48.197
2014   10        4    10  45    6.33   434.7    7.3      48.175
2014   10        4    10  50    6.33   434.8    7.3      48.153
2014   10        4    10  56    6.33   434.8    7.3      48.130
2014   10        4    11   1    6.32   434.9    7.3      48.107
2014   10        4    11   7    6.32   435.0    7.3      48.084
2014   10        4    11  12    6.31   435.0    7.3      48.060
2014   10        4    11  18    6.31   435.1    7.3      48.037
2014   10        4    11  24    6.30   435.1    7.3      48.013
2014   10        4    11  29    6.30   435.2    7.3      47.988
2014   10        4    11  35    6.30   435.2    7.2      47.964
2014   10        4    11  40    6.29   435.3    7.2      47.939
2014   10        4    11  46    6.29   435.3    7.2      47.914
2014   10        4    11  51    6.29   435.4    7.2      47.889
2014   10        4    11  57    6.28   435.4    7.2      47.865
2014   10        4    12   2    6.28   435.5    7.2      47.840
2014   10        4    12   8    6.27   435.5    7.2      47.815
2014   10        4    12  14    6.27   435.6    7.2      47.791
2014   10        4    12  19    6.27   435.6    7.2      47.766
2014   10        4    12  25    6.26   435.7    7.2      47.742
2014   10        4    12  30    6.26   435.7    7.2      47.718
2014   10        4    12  36    6.26   435.8    7.2      47.694
2014   10        4    12  41    6.25   435.8    7.2      47.671
2014   10        4    12  47    6.25   435.8    7.2      47.647
2014   10        4    12  52    6.24   435.9    7.2      47.624
2014   10        4    12  58    6.24   435.9    7.2      47.601
2014   10        4    13   4    6.24   435.9    7.2      47.579
2014   10        4    13   9    6.23   436.0    7.1      47.557
2014   10        4    13  15    6.23   436.0    7.1      47.535
2014   10        4    13  20    6.23   436.0    7.1      47.514
2014   10        4    13  26    6.22   436.1    7.1      47.493
2014   10        4    13  31    6.22   436.1    7.1      47.473
2014   10        4    13  37    6.22   436.1    7.1      47.453
2014   10        4    13  42    6.21   436.1    7.1      47.435
2014   10        4    13  48    6.21   436.2    7.1      47.417
2014   10        4    13  54    6.21   436.2    7.1      47.399
2014   10        4    13  59    6.20   436.2    7.1      47.383
2014   10        4    14   5    6.20   436.2    7.1      47.367
2014   10        4    14  10    6.20   436.3    7.1      47.353
2014   10        4    14  16    6.19   436.3    7.1      47.339
2014   10        4    14  21    6.19   436.3    7.1      47.325
2014   10        4    14  27    6.19   436.3    7.1      47.312
2014   10        4    14  32    6.19   436.3    7.1      47.301
2014   10        4    14  38    6.18   436.4    7.1      47.290
2014   10        4    14  43    6.18   436.4    7.1      47.280
2014   10        4    14  49    6.18   436.4    7.1      47.271
2014   10        4    14  55    6.17   436.4    7.1      47.263
2014   10        4    15   0    6.17   436.5    7.1      47.255
2014   10        4    15   6    6.17   436.5    7.1      47.248
2014   10        4    15  11    6.17   436.5    7.1      47.242
2014   10        4    15  17    6.16   436.6    7.1      47.236
2014   10        4    15  22    6.16   436.6    7.1      47.230
2014   10        4    15  28    6.16   436.6    7.1      47.223
2014   10        4    15  33    6.16   436.6    7.1      47.217
2014   10        4    15  39    6.15   436.7    7.1      47.210
2014   10        4    15  45    6.15   436.7    7.1      47.203
2014   10        4    15  50    6.15   436.7    7.1      47.196
2014   10        4    15  56    6.15   436.8    7.1      47.190
2014   10        4    16   1    6.14   436.8    7.1      47.183
2014   10        4    16   7    6.14   436.8    7.1      47.176
2014   10        4    16  12    6.14   436.8    7.1      47.169
2014   10        4    16  18    6.14   436.9    7.1      47.161
2014   10        4    16  23    6.13   436.9    7.1      47.154
2014   10        4    16  29    6.13   436.9    7.1      47.147
2014   10        4    16  35    6.13   436.9    7.1      47.140
2014   10        4    16  40    6.13   437.0    7.1      47.132
2014   10        4    16  46    6.12   437.0    7.1      47.125
2014   10        4    16  51    6.12   437.0    7.1      47.118
2014   10        4    16  57    6.12   437.0    7.1      47.110
2014   10        4    17   2    6.12   437.1    7.0      47.103
2014   10        4    17   8    6.11   437.1    7.0      47.095
2014   10        4    17  13    6.11   437.1    7.0      47.088
2014   10        4    17  19    6.11   437.1    7.0      47.080
2014   10        4    17  25    6.11   437.1    7.0      47.072
2014   10        4    17  30    6.10   437.2    7.0      47.064
2014   10        4    17  36    6.10   437.2    7.0      47.056
2014   10        4    17  41    6.10   437.2    7.0      47.047
2014   10        4    17  47    6.10   437.2    7.0      47.039
2014   10        4    17  52    6.09   437.3    7.0      47.030
2014   10        4    17  58    6.09   437.3    7.0      47.021
2014   10        4    18   3    6.09   437.3    7.0      47.012
2014   10        4    18   9    6.09   437.3    7.0      47.002
2014   10        4    18  14    6.08   437.3    7.0      46.993
2014   10        4    18  20    6.08   437.4    7.0      46.983
2014   10        4    18  26    6.08   437.4    7.0      46.973
2014   10        4    18  31    6.08   437.4    7.0      46.963
2014   10        4    18  37    6.08   437.4    7.0      46.953
2014   10        4    18  42    6.07   437.4    7.0      46.943
2014   10        4    18  48    6.07   437.5    7.0      46.932
2014   10        4    18  53    6.07   437.5    7.0      46.921
2014   10        4    18  59    6.07   437.5    7.0      46.910
2014   10        4    19   4    6.06   437.5    7.0      46.900
2014   10        4    19  10    6.06   437.5    7.0      46.889
2014   10        4    19  16    6.06   437.6    7.0      46.877
2014   10        4    19  21    6.06   437.6    7.0      46.866
2014   10        4    19  27    6.05   437.6    7.0      46.855
2014   10        4    19  32    6.05   437.6    7.0      46.844
2014   10        4    19  38    6.05   437.6    7.0      46.833
2014   10        4    19  43    6.05   437.6    7.0      46.821
2014   10        4    19  49    6.05   437.6    7.0      46.810
2014   10        4    19  54    6.04   437.7    7.0      46.799
2014   10        4    20   0    6.04   437.7    7.0      46.788
2014   10        4    20   6    6.04   437.7    7.0      46.776
2014   10        4    20  11    6.04   437.7    7.0      46.765
2014   10        4    20  17    6.03   437.7    7.0      46.754
2014   10        4    20  22    6.03   437.7    7.0      46.743
2014   10        4    20  28    6.03   437.8    7.0      46.733
2014   10        4    20  33    6.03   437.8    7.0      46.722
2014   10        4    20  39    6.03   437.8    7.0      46.712
2014   10        4    20  44    6.02   437.8    7.0      46.701
2014   10        4    20  50    6.02   437.8    7.0      46.691
2014   10        4    20  56    6.02   437.8    7.0      46.682
2014   10        4    21   1    6.02   437.8    7.0      46.672
2014   10        4    21   7    6.02   437.9    6.9      46.663
2014   10        4    21  12    6.01   437.9    6.9      46.654
2014   10        4    21  18    6.01   437.9    6.9      46.645
2014   10        4    21  23    6.01   437.9    6.9      46.637
2014   10        4    21  29    6.01   437.9    6.9      46.628
2014   10        4    21  34    6.01   437.9    6.9      46.620
2014   10        4    21  40    6.01   437.9    6.9      46.613
2014   10        4    21  46    6.00   438.0    6.9      46.606
2014   10        4    21  51    6.00   438.0    6.9      46.599
2014   10        4    21  57    6.00   438.0    6.9      46.592
2014   10        4    22   2    6.00   438.0    6.9      46.585
2014   10        4    22   8    6.00   438.0    6.9      46.579
2014   10        4    22  13    6.00   438.0    6.9      46.573
2014   10        4    22  19    5.99   438.1    6.9      46.568
2014   10        4    22  24    5.99   438.1    6.9      46.562
2014   10        4    22  30    5.99   438.1    6.9      46.557
2014   10        4    22  36    5.99   438.1    6.9      46.552
2014   10        4    22  41    5.99   438.1    6.9      46.548
2014   10        4    22  47    5.99   438.2    6.9      46.543
2014   10        4    22  52    5.98   438.2    6.9      46.539
2014   10        4    22  58    5.98   438.2    6.9      46.535
2014   10        4    23   3    5.98   438.2    6.9      46.531
2014   10        4    23   9    5.98   438.2    6.9      46.527
2014   10        4    23  14    5.98   438.2    6.9      46.523
2014   10        4    23  20    5.98   438.3    6.9      46.520
2014   10        4    23  25    5.97   438.3    6.9      46.516
2014   10        4    23  31    5.97   438.3    6.9      46.513
2014   10        4    23  37    5.97   438.3    6.9      46.509
2014   10        4    23  42    5.97   438.3    6.9      46.506
2014   10        4    23  48    5.97   438.4    6.9      46.503
2014   10        4    23  53    5.97   438.4    6.9      46.500
2014   10        4    23  59    5.97   438.4    6.9      46.497
2014   10        5     0   4    5.96   438.4    6.9      46.494
