year    month   day   hour  minute  B_enl V_enl   n_enl       T_enl
[year] [month] [day] [hour][minute] [nT]  [km/s]  [cm-3]      [kK]
2014    9        1     0   5    4.81   581.1    3.5      55.936
2014    9        1     0  11    4.81   581.0    3.5      55.923
2014    9        1     0  16    4.80   580.9    3.5      55.910
2014    9        1     0  22    4.80   580.8    3.5      55.897
2014    9        1     0  27    4.80   580.8    3.5      55.885
2014    9        1     0  33    4.80   580.7    3.5      55.873
2014    9        1     0  39    4.80   580.6    3.5      55.861
2014    9        1     0  44    4.80   580.6    3.5      55.850
2014    9        1     0  50    4.80   580.5    3.5      55.839
2014    9        1     0  55    4.80   580.4    3.5      55.829
2014    9        1     1   1    4.80   580.3    3.5      55.820
2014    9        1     1   7    4.80   580.3    3.5      55.811
2014    9        1     1  12    4.80   580.2    3.5      55.802
2014    9        1     1  18    4.80   580.1    3.5      55.794
2014    9        1     1  24    4.79   580.1    3.5      55.787
2014    9        1     1  29    4.79   580.0    3.5      55.780
2014    9        1     1  35    4.79   579.9    3.5      55.773
2014    9        1     1  40    4.79   579.8    3.5      55.766
2014    9        1     1  46    4.79   579.8    3.5      55.760
2014    9        1     1  52    4.79   579.7    3.5      55.754
2014    9        1     1  57    4.79   579.6    3.5      55.749
2014    9        1     2   3    4.79   579.5    3.5      55.743
2014    9        1     2   8    4.79   579.5    3.5      55.737
2014    9        1     2  14    4.79   579.4    3.5      55.732
2014    9        1     2  20    4.79   579.3    3.5      55.726
2014    9        1     2  25    4.79   579.2    3.5      55.721
2014    9        1     2  31    4.78   579.2    3.5      55.715
2014    9        1     2  36    4.78   579.1    3.5      55.709
2014    9        1     2  42    4.78   579.0    3.5      55.702
2014    9        1     2  48    4.78   578.9    3.5      55.696
2014    9        1     2  53    4.78   578.8    3.5      55.689
2014    9        1     2  59    4.78   578.8    3.5      55.683
2014    9        1     3   5    4.78   578.7    3.5      55.676
2014    9        1     3  10    4.78   578.6    3.5      55.669
2014    9        1     3  16    4.78   578.5    3.5      55.662
2014    9        1     3  21    4.78   578.4    3.5      55.654
2014    9        1     3  27    4.78   578.4    3.5      55.647
2014    9        1     3  33    4.77   578.3    3.5      55.638
2014    9        1     3  38    4.77   578.2    3.5      55.630
2014    9        1     3  44    4.77   578.1    3.5      55.621
2014    9        1     3  49    4.77   578.0    3.5      55.612
2014    9        1     3  55    4.77   577.9    3.5      55.602
2014    9        1     4   1    4.77   577.9    3.5      55.593
2014    9        1     4   6    4.77   577.8    3.5      55.583
2014    9        1     4  12    4.77   577.7    3.5      55.573
2014    9        1     4  17    4.77   577.6    3.5      55.563
2014    9        1     4  23    4.77   577.5    3.5      55.553
2014    9        1     4  29    4.76   577.4    3.5      55.542
2014    9        1     4  34    4.76   577.3    3.5      55.532
2014    9        1     4  40    4.76   577.3    3.5      55.521
2014    9        1     4  45    4.76   577.2    3.5      55.511
2014    9        1     4  51    4.76   577.1    3.5      55.500
2014    9        1     4  57    4.76   577.0    3.5      55.489
2014    9        1     5   2    4.76   576.9    3.5      55.478
2014    9        1     5   8    4.76   576.8    3.5      55.467
2014    9        1     5  14    4.76   576.7    3.5      55.455
2014    9        1     5  19    4.76   576.6    3.5      55.444
2014    9        1     5  25    4.75   576.6    3.5      55.432
2014    9        1     5  30    4.75   576.5    3.5      55.419
2014    9        1     5  36    4.75   576.4    3.5      55.407
2014    9        1     5  42    4.75   576.3    3.5      55.394
2014    9        1     5  47    4.75   576.2    3.5      55.381
2014    9        1     5  53    4.75   576.1    3.5      55.368
2014    9        1     5  58    4.75   576.0    3.5      55.354
2014    9        1     6   4    4.75   575.9    3.5      55.341
2014    9        1     6  10    4.75   575.8    3.5      55.327
2014    9        1     6  15    4.74   575.7    3.5      55.312
2014    9        1     6  21    4.74   575.7    3.5      55.298
2014    9        1     6  26    4.74   575.6    3.5      55.283
2014    9        1     6  32    4.74   575.5    3.5      55.268
2014    9        1     6  38    4.74   575.4    3.5      55.253
2014    9        1     6  43    4.74   575.3    3.5      55.238
2014    9        1     6  49    4.74   575.2    3.5      55.222
2014    9        1     6  54    4.74   575.1    3.5      55.206
2014    9        1     7   0    4.74   575.0    3.5      55.190
2014    9        1     7   6    4.73   574.9    3.5      55.174
2014    9        1     7  11    4.73   574.8    3.5      55.158
2014    9        1     7  17    4.73   574.7    3.5      55.142
2014    9        1     7  23    4.73   574.6    3.5      55.126
2014    9        1     7  28    4.73   574.5    3.5      55.110
2014    9        1     7  34    4.73   574.4    3.5      55.094
2014    9        1     7  39    4.73   574.3    3.5      55.079
2014    9        1     7  45    4.73   574.2    3.5      55.063
2014    9        1     7  51    4.73   574.1    3.5      55.048
2014    9        1     7  56    4.72   574.0    3.5      55.033
2014    9        1     8   2    4.72   573.9    3.5      55.019
2014    9        1     8   7    4.72   573.8    3.5      55.005
2014    9        1     8  13    4.72   573.7    3.5      54.991
2014    9        1     8  19    4.72   573.6    3.5      54.978
2014    9        1     8  24    4.72   573.5    3.5      54.965
2014    9        1     8  30    4.72   573.4    3.5      54.952
2014    9        1     8  35    4.72   573.3    3.5      54.940
2014    9        1     8  41    4.72   573.2    3.5      54.927
2014    9        1     8  47    4.72   573.1    3.5      54.915
2014    9        1     8  52    4.71   573.0    3.5      54.903
2014    9        1     8  58    4.71   572.9    3.5      54.891
2014    9        1     9   4    4.71   572.9    3.5      54.878
2014    9        1     9   9    4.71   572.8    3.5      54.866
2014    9        1     9  15    4.71   572.7    3.5      54.853
2014    9        1     9  20    4.71   572.6    3.5      54.841
2014    9        1     9  26    4.71   572.5    3.5      54.828
2014    9        1     9  32    4.71   572.4    3.5      54.815
2014    9        1     9  37    4.71   572.3    3.5      54.802
2014    9        1     9  43    4.70   572.2    3.5      54.789
2014    9        1     9  48    4.70   572.1    3.5      54.775
2014    9        1     9  54    4.70   572.0    3.5      54.761
2014    9        1    10   0    4.70   571.9    3.5      54.747
2014    9        1    10   5    4.70   571.8    3.5      54.733
2014    9        1    10  11    4.70   571.7    3.5      54.719
2014    9        1    10  16    4.70   571.6    3.5      54.705
2014    9        1    10  22    4.70   571.5    3.5      54.691
2014    9        1    10  28    4.70   571.4    3.5      54.676
2014    9        1    10  33    4.69   571.4    3.5      54.662
2014    9        1    10  39    4.69   571.3    3.5      54.648
2014    9        1    10  44    4.69   571.2    3.5      54.633
2014    9        1    10  50    4.69   571.1    3.5      54.617
2014    9        1    10  56    4.69   571.0    3.5      54.602
2014    9        1    11   1    4.69   570.9    3.5      54.587
2014    9        1    11   7    4.69   570.8    3.5      54.572
2014    9        1    11  13    4.69   570.7    3.5      54.556
2014    9        1    11  18    4.69   570.6    3.5      54.541
2014    9        1    11  24    4.68   570.5    3.5      54.525
2014    9        1    11  29    4.68   570.4    3.5      54.510
2014    9        1    11  35    4.68   570.3    3.5      54.494
2014    9        1    11  41    4.68   570.2    3.5      54.478
2014    9        1    11  46    4.68   570.1    3.5      54.463
2014    9        1    11  52    4.68   570.0    3.5      54.447
2014    9        1    11  57    4.68   569.9    3.5      54.431
2014    9        1    12   3    4.68   569.8    3.5      54.416
2014    9        1    12   9    4.67   569.7    3.5      54.399
2014    9        1    12  14    4.67   569.6    3.5      54.383
2014    9        1    12  20    4.67   569.5    3.5      54.366
2014    9        1    12  25    4.67   569.4    3.5      54.349
2014    9        1    12  31    4.67   569.3    3.5      54.333
2014    9        1    12  37    4.67   569.2    3.5      54.316
2014    9        1    12  42    4.67   569.0    3.5      54.299
2014    9        1    12  48    4.66   568.9    3.5      54.282
2014    9        1    12  54    4.66   568.8    3.5      54.264
2014    9        1    12  59    4.66   568.7    3.5      54.247
2014    9        1    13   5    4.66   568.6    3.5      54.230
2014    9        1    13  10    4.66   568.5    3.5      54.213
2014    9        1    13  16    4.66   568.4    3.5      54.196
2014    9        1    13  22    4.66   568.3    3.5      54.178
2014    9        1    13  27    4.66   568.2    3.5      54.161
2014    9        1    13  33    4.65   568.1    3.5      54.143
2014    9        1    13  38    4.65   568.0    3.5      54.126
2014    9        1    13  44    4.65   567.8    3.5      54.109
2014    9        1    13  50    4.65   567.7    3.5      54.092
2014    9        1    13  55    4.65   567.6    3.5      54.075
2014    9        1    14   1    4.65   567.5    3.5      54.058
2014    9        1    14   6    4.65   567.4    3.5      54.041
2014    9        1    14  12    4.65   567.3    3.5      54.023
2014    9        1    14  18    4.64   567.2    3.5      54.005
2014    9        1    14  23    4.64   567.0    3.5      53.986
2014    9        1    14  29    4.64   566.9    3.5      53.968
2014    9        1    14  34    4.64   566.8    3.5      53.950
2014    9        1    14  40    4.64   566.7    3.5      53.931
2014    9        1    14  46    4.64   566.6    3.5      53.913
2014    9        1    14  51    4.64   566.4    3.5      53.895
2014    9        1    14  57    4.63   566.3    3.5      53.877
2014    9        1    15   3    4.63   566.2    3.5      53.860
2014    9        1    15   8    4.63   566.1    3.5      53.842
2014    9        1    15  14    4.63   566.0    3.5      53.825
2014    9        1    15  19    4.63   565.8    3.5      53.809
2014    9        1    15  25    4.63   565.7    3.5      53.793
2014    9        1    15  31    4.63   565.6    3.5      53.777
2014    9        1    15  36    4.63   565.5    3.5      53.762
2014    9        1    15  42    4.62   565.3    3.5      53.747
2014    9        1    15  47    4.62   565.2    3.5      53.732
2014    9        1    15  53    4.62   565.1    3.5      53.718
2014    9        1    15  59    4.62   565.0    3.5      53.703
2014    9        1    16   4    4.62   564.9    3.5      53.689
2014    9        1    16  10    4.62   564.7    3.5      53.675
2014    9        1    16  15    4.62   564.6    3.5      53.661
2014    9        1    16  21    4.62   564.5    3.5      53.647
2014    9        1    16  27    4.61   564.4    3.5      53.633
2014    9        1    16  32    4.61   564.3    3.5      53.620
2014    9        1    16  38    4.61   564.1    3.5      53.606
2014    9        1    16  44    4.61   564.0    3.5      53.593
2014    9        1    16  49    4.61   563.9    3.5      53.580
2014    9        1    16  55    4.61   563.8    3.5      53.568
2014    9        1    17   0    4.61   563.6    3.5      53.556
2014    9        1    17   6    4.61   563.5    3.5      53.544
2014    9        1    17  12    4.61   563.4    3.5      53.532
2014    9        1    17  17    4.60   563.3    3.5      53.520
2014    9        1    17  23    4.60   563.2    3.5      53.508
2014    9        1    17  28    4.60   563.1    3.5      53.495
2014    9        1    17  34    4.60   562.9    3.5      53.482
2014    9        1    17  40    4.60   562.8    3.5      53.468
2014    9        1    17  45    4.60   562.7    3.5      53.454
2014    9        1    17  51    4.60   562.6    3.5      53.440
2014    9        1    17  56    4.60   562.5    3.5      53.425
2014    9        1    18   2    4.59   562.4    3.5      53.410
2014    9        1    18   8    4.59   562.2    3.5      53.395
2014    9        1    18  13    4.59   562.1    3.5      53.380
2014    9        1    18  19    4.59   562.0    3.5      53.364
2014    9        1    18  24    4.59   561.9    3.5      53.348
2014    9        1    18  30    4.59   561.8    3.5      53.331
2014    9        1    18  36    4.59   561.7    3.5      53.315
2014    9        1    18  41    4.59   561.5    3.5      53.298
2014    9        1    18  47    4.58   561.4    3.5      53.281
2014    9        1    18  53    4.58   561.3    3.5      53.264
2014    9        1    18  58    4.58   561.2    3.5      53.247
2014    9        1    19   4    4.58   561.1    3.5      53.229
2014    9        1    19   9    4.58   561.0    3.5      53.211
2014    9        1    19  15    4.58   560.8    3.5      53.193
2014    9        1    19  21    4.58   560.7    3.5      53.174
2014    9        1    19  26    4.58   560.6    3.5      53.155
2014    9        1    19  32    4.57   560.5    3.5      53.136
2014    9        1    19  37    4.57   560.4    3.5      53.116
2014    9        1    19  43    4.57   560.3    3.5      53.096
2014    9        1    19  49    4.57   560.1    3.5      53.077
2014    9        1    19  54    4.57   560.0    3.5      53.057
2014    9        1    20   0    4.57   559.9    3.5      53.036
2014    9        1    20   5    4.57   559.8    3.5      53.016
2014    9        1    20  11    4.56   559.7    3.5      52.996
2014    9        1    20  17    4.56   559.6    3.5      52.975
2014    9        1    20  22    4.56   559.4    3.5      52.955
2014    9        1    20  28    4.56   559.3    3.5      52.934
2014    9        1    20  33    4.56   559.2    3.5      52.913
2014    9        1    20  39    4.56   559.1    3.5      52.893
2014    9        1    20  45    4.56   559.0    3.5      52.872
2014    9        1    20  50    4.56   558.9    3.5      52.852
2014    9        1    20  56    4.55   558.7    3.5      52.831
2014    9        1    21   2    4.55   558.6    3.5      52.811
2014    9        1    21   7    4.55   558.5    3.5      52.791
2014    9        1    21  13    4.55   558.4    3.5      52.772
2014    9        1    21  18    4.55   558.3    3.5      52.752
2014    9        1    21  24    4.55   558.2    3.5      52.731
2014    9        1    21  30    4.55   558.0    3.5      52.711
2014    9        1    21  35    4.54   557.9    3.5      52.690
2014    9        1    21  41    4.54   557.8    3.5      52.668
2014    9        1    21  46    4.54   557.7    3.5      52.647
2014    9        1    21  52    4.54   557.6    3.5      52.625
2014    9        1    21  58    4.54   557.5    3.5      52.602
2014    9        1    22   3    4.54   557.3    3.5      52.580
2014    9        1    22   9    4.54   557.2    3.5      52.557
2014    9        1    22  14    4.53   557.1    3.5      52.534
2014    9        1    22  20    4.53   557.0    3.5      52.511
2014    9        1    22  26    4.53   556.8    3.5      52.488
2014    9        1    22  31    4.53   556.7    3.5      52.465
2014    9        1    22  37    4.53   556.6    3.5      52.441
2014    9        1    22  43    4.53   556.5    3.5      52.418
2014    9        1    22  48    4.53   556.3    3.5      52.395
2014    9        1    22  54    4.52   556.2    3.5      52.373
2014    9        1    22  59    4.52   556.1    3.5      52.350
2014    9        1    23   5    4.52   556.0    3.5      52.328
2014    9        1    23  11    4.52   555.8    3.5      52.306
2014    9        1    23  16    4.52   555.7    3.5      52.284
2014    9        1    23  22    4.52   555.6    3.5      52.263
2014    9        1    23  27    4.52   555.4    3.5      52.242
2014    9        1    23  33    4.51   555.3    3.5      52.221
2014    9        1    23  39    4.51   555.2    3.5      52.200
2014    9        1    23  44    4.51   555.0    3.5      52.180
2014    9        1    23  50    4.51   554.9    3.5      52.160
2014    9        1    23  55    4.51   554.8    3.5      52.141
2014    9        2     0   1    4.51   554.6    3.5      52.123
2014    9        2     0   7    4.51   554.5    3.5      52.105
2014    9        2     0  12    4.50   554.4    3.5      52.088
2014    9        2     0  18    4.50   554.2    3.5      52.072
2014    9        2     0  23    4.50   554.1    3.5      52.056
2014    9        2     0  29    4.50   554.0    3.5      52.039
2014    9        2     0  35    4.50   553.8    3.5      52.023
2014    9        2     0  40    4.50   553.7    3.5      52.007
2014    9        2     0  46    4.50   553.5    3.5      51.991
2014    9        2     0  52    4.49   553.4    3.5      51.976
2014    9        2     0  56    4.49   553.3    3.5      51.967
2014    9        2     1   1    4.49   553.2    3.5      51.958
2014    9        2     1   5    4.49   553.1    3.5      51.950
2014    9        2     1  10    4.49   553.0    3.5      51.941
2014    9        2     1  14    4.49   552.9    3.5      51.932
2014    9        2     1  19    4.49   552.7    3.5      51.924
2014    9        2     1  23    4.49   552.6    3.5      51.915
2014    9        2     1  27    4.49   552.5    3.5      51.907
2014    9        2     1  32    4.49   552.4    3.5      51.898
2014    9        2     1  36    4.48   552.3    3.5      51.890
2014    9        2     1  41    4.48   552.2    3.5      51.882
2014    9        2     1  45    4.48   552.1    3.5      51.873
2014    9        2     1  49    4.48   552.0    3.5      51.865
2014    9        2     1  54    4.48   551.8    3.5      51.857
2014    9        2     1  58    4.48   551.7    3.5      51.849
2014    9        2     2   3    4.48   551.6    3.5      51.841
2014    9        2     2   7    4.48   551.5    3.5      51.833
2014    9        2     2  11    4.48   551.4    3.5      51.826
2014    9        2     2  16    4.48   551.3    3.5      51.818
2014    9        2     2  20    4.47   551.2    3.5      51.811
2014    9        2     2  24    4.47   551.0    3.5      51.804
2014    9        2     2  29    4.47   550.9    3.5      51.797
2014    9        2     2  33    4.47   550.8    3.5      51.790
2014    9        2     2  38    4.47   550.7    3.5      51.784
2014    9        2     2  42    4.47   550.6    3.5      51.779
2014    9        2     2  46    4.47   550.5    3.5      51.774
2014    9        2     2  51    4.47   550.4    3.5      51.770
2014    9        2     2  55    4.47   550.2    3.5      51.766
2014    9        2     2  59    4.47   550.1    3.5      51.763
2014    9        2     3   4    4.47   550.0    3.5      51.760
2014    9        2     3   8    4.47   549.9    3.5      51.757
2014    9        2     3  12    4.46   549.8    3.5      51.755
2014    9        2     3  17    4.46   549.7    3.5      51.752
2014    9        2     3  21    4.46   549.6    3.5      51.748
2014    9        2     3  25    4.46   549.5    3.5      51.744
2014    9        2     3  30    4.46   549.4    3.5      51.740
2014    9        2     3  34    4.46   549.3    3.5      51.735
2014    9        2     3  39    4.46   549.2    3.5      51.730
2014    9        2     3  43    4.46   549.1    3.5      51.725
2014    9        2     3  47    4.46   549.0    3.5      51.719
2014    9        2     3  52    4.46   548.9    3.5      51.713
2014    9        2     3  56    4.46   548.8    3.5      51.707
2014    9        2     4   0    4.45   548.7    3.5      51.700
2014    9        2     4   5    4.45   548.6    3.5      51.692
2014    9        2     4   9    4.45   548.5    3.5      51.684
2014    9        2     4  14    4.45   548.4    3.5      51.676
2014    9        2     4  18    4.45   548.3    3.5      51.668
2014    9        2     4  22    4.45   548.2    3.5      51.659
2014    9        2     4  27    4.45   548.1    3.5      51.650
2014    9        2     4  31    4.45   548.0    3.5      51.640
2014    9        2     4  36    4.45   547.9    3.5      51.630
2014    9        2     4  40    4.45   547.8    3.5      51.620
2014    9        2     4  45    4.44   547.7    3.5      51.609
2014    9        2     4  49    4.44   547.6    3.5      51.598
2014    9        2     4  53    4.44   547.5    3.5      51.587
2014    9        2     4  58    4.44   547.4    3.5      51.575
2014    9        2     5   2    4.44   547.3    3.5      51.563
2014    9        2     5   7    4.44   547.2    3.5      51.550
2014    9        2     5  11    4.44   547.1    3.5      51.537
2014    9        2     5  16    4.44   547.0    3.5      51.523
2014    9        2     5  20    4.44   546.9    3.5      51.509
2014    9        2     5  25    4.43   546.8    3.5      51.494
2014    9        2     5  29    4.43   546.7    3.5      51.479
2014    9        2     5  34    4.43   546.6    3.5      51.463
2014    9        2     5  38    4.43   546.5    3.5      51.447
2014    9        2     5  43    4.43   546.4    3.5      51.431
2014    9        2     5  47    4.43   546.3    3.5      51.414
2014    9        2     5  52    4.43   546.2    3.5      51.397
2014    9        2     5  57    4.43   546.1    3.5      51.379
2014    9        2     6   1    4.43   546.0    3.5      51.361
2014    9        2     6   6    4.42   545.9    3.5      51.343
2014    9        2     6  11    4.42   545.8    3.5      51.325
2014    9        2     6  15    4.42   545.7    3.5      51.306
2014    9        2     6  20    4.42   545.6    3.5      51.286
2014    9        2     6  25    4.42   545.5    3.5      51.267
2014    9        2     6  29    4.42   545.4    3.5      51.247
2014    9        2     6  34    4.42   545.3    3.5      51.228
2014    9        2     6  39    4.42   545.2    3.5      51.208
2014    9        2     6  43    4.41   545.0    3.5      51.187
2014    9        2     6  48    4.41   544.9    3.5      51.167
2014    9        2     6  53    4.41   544.8    3.5      51.146
2014    9        2     6  57    4.41   544.7    3.5      51.125
2014    9        2     7   2    4.41   544.6    3.5      51.104
2014    9        2     7   7    4.41   544.5    3.5      51.083
2014    9        2     7  12    4.41   544.4    3.5      51.062
2014    9        2     7  16    4.41   544.3    3.5      51.040
2014    9        2     7  21    4.40   544.2    3.5      51.019
2014    9        2     7  26    4.40   544.0    3.5      50.998
2014    9        2     7  31    4.40   543.9    3.5      50.976
2014    9        2     7  35    4.40   543.8    3.5      50.955
2014    9        2     7  40    4.40   543.7    3.5      50.934
2014    9        2     7  45    4.40   543.6    3.5      50.914
2014    9        2     7  50    4.40   543.5    3.5      50.894
2014    9        2     7  54    4.40   543.3    3.5      50.874
2014    9        2     7  59    4.39   543.2    3.5      50.854
2014    9        2     8   4    4.39   543.1    3.5      50.835
2014    9        2     8   9    4.39   543.0    3.5      50.816
2014    9        2     8  14    4.39   542.9    3.5      50.798
2014    9        2     8  18    4.39   542.8    3.5      50.780
2014    9        2     8  23    4.39   542.6    3.5      50.762
2014    9        2     8  28    4.39   542.5    3.5      50.743
2014    9        2     8  33    4.39   542.4    3.5      50.725
2014    9        2     8  38    4.39   542.3    3.5      50.708
2014    9        2     8  43    4.38   542.1    3.5      50.690
2014    9        2     8  47    4.38   542.0    3.5      50.672
2014    9        2     8  52    4.38   541.9    3.5      50.654
2014    9        2     8  57    4.38   541.8    3.5      50.637
2014    9        2     9   2    4.38   541.6    3.5      50.620
2014    9        2     9   7    4.38   541.5    3.5      50.602
2014    9        2     9  12    4.38   541.4    3.5      50.585
2014    9        2     9  17    4.38   541.3    3.5      50.569
2014    9        2     9  21    4.37   541.1    3.5      50.552
2014    9        2     9  26    4.37   541.0    3.5      50.536
2014    9        2     9  31    4.37   540.9    3.5      50.520
2014    9        2     9  36    4.37   540.7    3.5      50.505
2014    9        2     9  41    4.37   540.6    3.5      50.490
2014    9        2     9  46    4.37   540.5    3.5      50.475
2014    9        2     9  51    4.37   540.3    3.5      50.461
2014    9        2     9  56    4.37   540.2    3.5      50.449
2014    9        2    10   0    4.37   540.0    3.5      50.437
2014    9        2    10   5    4.36   539.9    3.5      50.426
2014    9        2    10  10    4.36   539.8    3.5      50.415
2014    9        2    10  15    4.36   539.6    3.5      50.406
2014    9        2    10  20    4.36   539.5    3.5      50.397
2014    9        2    10  25    4.36   539.3    3.5      50.389
2014    9        2    10  30    4.36   539.2    3.5      50.382
2014    9        2    10  35    4.36   539.1    3.5      50.374
2014    9        2    10  40    4.36   538.9    3.5      50.366
2014    9        2    10  44    4.36   538.8    3.6      50.358
2014    9        2    10  49    4.36   538.7    3.6      50.351
2014    9        2    10  54    4.35   538.5    3.6      50.345
2014    9        2    10  59    4.35   538.4    3.6      50.338
2014    9        2    11   4    4.35   538.3    3.6      50.332
2014    9        2    11   9    4.35   538.1    3.6      50.326
2014    9        2    11  14    4.35   538.0    3.6      50.320
2014    9        2    11  19    4.35   537.9    3.6      50.314
2014    9        2    11  24    4.35   537.7    3.6      50.308
2014    9        2    11  29    4.35   537.6    3.6      50.301
2014    9        2    11  34    4.35   537.5    3.6      50.294
2014    9        2    11  39    4.35   537.4    3.6      50.286
2014    9        2    11  44    4.35   537.2    3.6      50.279
2014    9        2    11  49    4.34   537.1    3.6      50.270
2014    9        2    11  54    4.34   537.0    3.6      50.262
2014    9        2    11  59    4.34   536.8    3.6      50.253
2014    9        2    12   4    4.34   536.7    3.6      50.243
2014    9        2    12   9    4.34   536.6    3.6      50.234
2014    9        2    12  14    4.34   536.4    3.6      50.224
2014    9        2    12  19    4.34   536.3    3.6      50.213
2014    9        2    12  24    4.34   536.2    3.6      50.202
2014    9        2    12  29    4.34   536.0    3.6      50.191
2014    9        2    12  34    4.34   535.9    3.6      50.179
2014    9        2    12  39    4.33   535.8    3.6      50.167
2014    9        2    12  44    4.33   535.6    3.6      50.156
2014    9        2    12  49    4.33   535.5    3.6      50.144
2014    9        2    12  54    4.33   535.3    3.6      50.131
2014    9        2    12  59    4.33   535.2    3.6      50.118
2014    9        2    13   4    4.33   535.1    3.6      50.106
2014    9        2    13   9    4.33   534.9    3.6      50.094
2014    9        2    13  14    4.33   534.8    3.6      50.082
2014    9        2    13  19    4.33   534.6    3.6      50.071
2014    9        2    13  24    4.32   534.5    3.6      50.059
2014    9        2    13  29    4.32   534.4    3.6      50.048
2014    9        2    13  34    4.32   534.2    3.6      50.037
2014    9        2    13  39    4.32   534.1    3.6      50.027
2014    9        2    13  44    4.32   534.0    3.6      50.015
2014    9        2    13  49    4.32   533.8    3.6      50.004
2014    9        2    13  54    4.32   533.7    3.6      49.991
2014    9        2    13  59    4.32   533.6    3.6      49.978
2014    9        2    14   4    4.32   533.4    3.6      49.964
2014    9        2    14  10    4.32   533.3    3.6      49.950
2014    9        2    14  15    4.32   533.2    3.6      49.935
2014    9        2    14  20    4.31   533.1    3.6      49.920
2014    9        2    14  25    4.31   532.9    3.6      49.904
2014    9        2    14  30    4.31   532.8    3.6      49.887
2014    9        2    14  35    4.31   532.7    3.6      49.870
2014    9        2    14  40    4.31   532.5    3.6      49.852
2014    9        2    14  45    4.31   532.4    3.6      49.833
2014    9        2    14  51    4.31   532.3    3.6      49.814
2014    9        2    14  56    4.31   532.2    3.6      49.795
2014    9        2    15   1    4.31   532.0    3.6      49.775
2014    9        2    15   6    4.30   531.9    3.6      49.754
2014    9        2    15  11    4.30   531.8    3.6      49.733
2014    9        2    15  17    4.30   531.7    3.6      49.712
2014    9        2    15  22    4.30   531.5    3.6      49.690
2014    9        2    15  27    4.30   531.4    3.6      49.667
2014    9        2    15  32    4.30   531.3    3.6      49.644
2014    9        2    15  38    4.30   531.2    3.6      49.621
2014    9        2    15  43    4.30   531.0    3.6      49.597
2014    9        2    15  48    4.30   530.9    3.6      49.574
2014    9        2    15  53    4.29   530.8    3.6      49.549
2014    9        2    15  59    4.29   530.7    3.6      49.524
2014    9        2    16   4    4.29   530.5    3.6      49.499
2014    9        2    16   9    4.29   530.4    3.6      49.474
2014    9        2    16  14    4.29   530.3    3.6      49.448
2014    9        2    16  20    4.29   530.1    3.6      49.421
2014    9        2    16  25    4.29   530.0    3.6      49.395
2014    9        2    16  30    4.29   529.9    3.6      49.368
2014    9        2    16  36    4.28   529.7    3.6      49.340
2014    9        2    16  41    4.28   529.6    3.6      49.313
2014    9        2    16  46    4.28   529.5    3.6      49.285
2014    9        2    16  52    4.28   529.3    3.6      49.257
2014    9        2    16  57    4.28   529.2    3.6      49.229
2014    9        2    17   3    4.28   529.0    3.6      49.201
2014    9        2    17   8    4.28   528.9    3.6      49.173
2014    9        2    17  13    4.28   528.8    3.6      49.145
2014    9        2    17  19    4.27   528.6    3.6      49.117
2014    9        2    17  24    4.27   528.5    3.6      49.090
2014    9        2    17  30    4.27   528.3    3.6      49.062
2014    9        2    17  35    4.27   528.2    3.6      49.035
2014    9        2    17  41    4.27   528.0    3.6      49.009
2014    9        2    17  46    4.27   527.9    3.6      48.983
2014    9        2    17  52    4.27   527.7    3.6      48.958
2014    9        2    17  57    4.27   527.6    3.6      48.933
2014    9        2    18   3    4.26   527.4    3.6      48.909
2014    9        2    18   8    4.26   527.3    3.6      48.887
2014    9        2    18  13    4.26   527.1    3.6      48.865
2014    9        2    18  19    4.26   527.0    3.6      48.844
2014    9        2    18  25    4.26   526.8    3.6      48.823
2014    9        2    18  30    4.26   526.7    3.6      48.804
2014    9        2    18  36    4.26   526.5    3.6      48.785
2014    9        2    18  41    4.26   526.4    3.6      48.765
2014    9        2    18  47    4.26   526.2    3.6      48.746
2014    9        2    18  52    4.25   526.1    3.6      48.726
2014    9        2    18  58    4.25   525.9    3.6      48.707
2014    9        2    19   3    4.25   525.8    3.6      48.687
2014    9        2    19   9    4.25   525.6    3.6      48.668
2014    9        2    19  14    4.25   525.5    3.6      48.648
2014    9        2    19  20    4.25   525.3    3.6      48.628
2014    9        2    19  25    4.25   525.2    3.6      48.608
2014    9        2    19  31    4.25   525.0    3.6      48.588
2014    9        2    19  36    4.25   524.8    3.6      48.568
2014    9        2    19  42    4.24   524.7    3.6      48.548
2014    9        2    19  48    4.24   524.5    3.6      48.528
2014    9        2    19  53    4.24   524.3    3.6      48.508
2014    9        2    19  59    4.24   524.2    3.6      48.488
2014    9        2    20   4    4.24   524.0    3.6      48.469
2014    9        2    20  10    4.24   523.8    3.6      48.450
2014    9        2    20  16    4.24   523.7    3.6      48.432
2014    9        2    20  21    4.24   523.5    3.6      48.414
2014    9        2    20  27    4.24   523.3    3.6      48.397
2014    9        2    20  32    4.24   523.1    3.6      48.381
2014    9        2    20  38    4.23   523.0    3.6      48.367
2014    9        2    20  44    4.23   522.8    3.6      48.353
2014    9        2    20  49    4.23   522.6    3.6      48.341
2014    9        2    20  55    4.23   522.5    3.6      48.330
2014    9        2    21   0    4.23   522.3    3.6      48.319
2014    9        2    21   6    4.23   522.1    3.6      48.310
2014    9        2    21  12    4.23   522.0    3.6      48.300
2014    9        2    21  17    4.23   521.8    3.6      48.290
2014    9        2    21  23    4.23   521.7    3.6      48.280
2014    9        2    21  29    4.23   521.5    3.6      48.270
2014    9        2    21  34    4.23   521.3    3.6      48.260
2014    9        2    21  40    4.23   521.2    3.6      48.250
2014    9        2    21  45    4.23   521.0    3.6      48.239
2014    9        2    21  51    4.22   520.9    3.7      48.228
2014    9        2    21  57    4.22   520.7    3.7      48.216
2014    9        2    22   2    4.22   520.6    3.7      48.204
2014    9        2    22   8    4.22   520.4    3.7      48.190
2014    9        2    22  13    4.22   520.2    3.7      48.177
2014    9        2    22  19    4.22   520.1    3.7      48.162
2014    9        2    22  25    4.22   519.9    3.7      48.147
2014    9        2    22  30    4.22   519.8    3.7      48.132
2014    9        2    22  36    4.22   519.6    3.7      48.116
2014    9        2    22  41    4.22   519.5    3.7      48.100
2014    9        2    22  47    4.22   519.3    3.7      48.083
2014    9        2    22  53    4.21   519.1    3.7      48.066
2014    9        2    22  58    4.21   519.0    3.7      48.048
2014    9        2    23   4    4.21   518.8    3.7      48.030
2014    9        2    23   9    4.21   518.7    3.7      48.011
2014    9        2    23  15    4.21   518.5    3.7      47.992
2014    9        2    23  21    4.21   518.4    3.7      47.973
2014    9        2    23  26    4.21   518.2    3.7      47.954
2014    9        2    23  32    4.21   518.1    3.7      47.934
2014    9        2    23  37    4.21   517.9    3.7      47.913
2014    9        2    23  43    4.21   517.7    3.7      47.893
2014    9        2    23  49    4.20   517.6    3.7      47.872
2014    9        2    23  54    4.20   517.4    3.7      47.852
2014    9        3     0   0    4.20   517.3    3.7      47.831
2014    9        3     0   6    4.20   517.1    3.7      47.810
2014    9        3     0  11    4.20   517.0    3.7      47.788
2014    9        3     0  17    4.20   516.8    3.7      47.767
2014    9        3     0  22    4.20   516.7    3.7      47.745
2014    9        3     0  28    4.20   516.5    3.7      47.722
2014    9        3     0  34    4.20   516.4    3.7      47.700
2014    9        3     0  39    4.20   516.2    3.7      47.677
2014    9        3     0  45    4.20   516.1    3.7      47.654
2014    9        3     0  50    4.19   515.9    3.7      47.630
2014    9        3     0  56    4.19   515.8    3.7      47.606
2014    9        3     1   2    4.19   515.6    3.7      47.582
2014    9        3     1   7    4.19   515.5    3.7      47.558
2014    9        3     1  13    4.19   515.3    3.7      47.534
2014    9        3     1  18    4.19   515.2    3.7      47.509
2014    9        3     1  24    4.19   515.0    3.7      47.484
2014    9        3     1  30    4.19   514.9    3.7      47.459
2014    9        3     1  35    4.19   514.7    3.7      47.434
2014    9        3     1  41    4.19   514.6    3.7      47.409
2014    9        3     1  46    4.18   514.4    3.7      47.384
2014    9        3     1  52    4.18   514.3    3.7      47.358
2014    9        3     1  58    4.18   514.1    3.7      47.332
2014    9        3     2   3    4.18   514.0    3.7      47.306
2014    9        3     2   9    4.18   513.8    3.7      47.280
2014    9        3     2  14    4.18   513.7    3.7      47.253
2014    9        3     2  20    4.18   513.5    3.7      47.226
2014    9        3     2  26    4.18   513.4    3.7      47.199
2014    9        3     2  31    4.18   513.2    3.7      47.171
2014    9        3     2  37    4.18   513.1    3.7      47.144
2014    9        3     2  42    4.17   512.9    3.7      47.115
2014    9        3     2  48    4.17   512.8    3.7      47.087
2014    9        3     2  54    4.17   512.6    3.7      47.059
2014    9        3     2  59    4.17   512.4    3.7      47.031
2014    9        3     3   5    4.17   512.3    3.7      47.003
2014    9        3     3  11    4.17   512.1    3.7      46.974
2014    9        3     3  16    4.17   512.0    3.7      46.947
2014    9        3     3  22    4.17   511.8    3.7      46.919
2014    9        3     3  27    4.17   511.6    3.7      46.891
2014    9        3     3  33    4.17   511.5    3.7      46.864
2014    9        3     3  39    4.16   511.3    3.7      46.838
2014    9        3     3  44    4.16   511.2    3.7      46.812
2014    9        3     3  50    4.16   511.0    3.7      46.786
2014    9        3     3  55    4.16   510.8    3.7      46.761
2014    9        3     4   1    4.16   510.7    3.7      46.737
2014    9        3     4   7    4.16   510.5    3.7      46.713
2014    9        3     4  12    4.16   510.4    3.7      46.690
2014    9        3     4  18    4.16   510.2    3.7      46.668
2014    9        3     4  23    4.16   510.0    3.7      46.646
2014    9        3     4  29    4.16   509.9    3.7      46.625
2014    9        3     4  35    4.16   509.7    3.7      46.604
2014    9        3     4  40    4.16   509.6    3.7      46.584
2014    9        3     4  46    4.16   509.4    3.7      46.565
2014    9        3     4  51    4.15   509.3    3.7      46.547
2014    9        3     4  57    4.15   509.1    3.7      46.528
2014    9        3     5   3    4.15   509.0    3.7      46.510
2014    9        3     5   8    4.15   508.8    3.7      46.492
2014    9        3     5  14    4.15   508.6    3.7      46.475
2014    9        3     5  19    4.15   508.5    3.7      46.457
2014    9        3     5  25    4.15   508.3    3.7      46.439
2014    9        3     5  31    4.15   508.2    3.7      46.421
2014    9        3     5  36    4.15   508.0    3.7      46.403
2014    9        3     5  42    4.15   507.8    3.7      46.384
2014    9        3     5  47    4.15   507.7    3.7      46.366
2014    9        3     5  53    4.15   507.5    3.7      46.347
2014    9        3     5  59    4.15   507.3    3.7      46.329
2014    9        3     6   4    4.14   507.2    3.7      46.311
2014    9        3     6  10    4.14   507.0    3.7      46.292
2014    9        3     6  16    4.14   506.8    3.7      46.273
2014    9        3     6  21    4.14   506.7    3.7      46.255
2014    9        3     6  27    4.14   506.5    3.7      46.236
2014    9        3     6  32    4.14   506.3    3.7      46.218
2014    9        3     6  38    4.14   506.2    3.7      46.200
2014    9        3     6  44    4.14   506.0    3.7      46.182
2014    9        3     6  49    4.14   505.8    3.8      46.164
2014    9        3     6  55    4.14   505.7    3.8      46.146
2014    9        3     7   0    4.14   505.5    3.8      46.128
2014    9        3     7   6    4.14   505.3    3.8      46.111
2014    9        3     7  12    4.14   505.2    3.8      46.093
2014    9        3     7  17    4.14   505.0    3.8      46.077
2014    9        3     7  23    4.14   504.8    3.8      46.060
2014    9        3     7  28    4.13   504.7    3.8      46.043
2014    9        3     7  34    4.13   504.5    3.8      46.027
2014    9        3     7  40    4.13   504.3    3.8      46.011
2014    9        3     7  45    4.13   504.2    3.8      45.995
2014    9        3     7  51    4.13   504.0    3.8      45.979
2014    9        3     7  56    4.13   503.8    3.8      45.963
2014    9        3     8   2    4.13   503.7    3.8      45.947
2014    9        3     8   8    4.13   503.5    3.8      45.931
2014    9        3     8  13    4.13   503.4    3.8      45.915
2014    9        3     8  19    4.13   503.2    3.8      45.898
2014    9        3     8  24    4.13   503.0    3.8      45.881
2014    9        3     8  30    4.13   502.9    3.8      45.864
2014    9        3     8  36    4.13   502.7    3.8      45.847
2014    9        3     8  41    4.13   502.6    3.8      45.830
2014    9        3     8  47    4.13   502.4    3.8      45.812
2014    9        3     8  52    4.13   502.2    3.8      45.794
2014    9        3     8  58    4.13   502.1    3.8      45.775
2014    9        3     9   4    4.13   501.9    3.8      45.757
2014    9        3     9   9    4.12   501.8    3.8      45.738
2014    9        3     9  15    4.12   501.6    3.8      45.718
2014    9        3     9  21    4.12   501.4    3.8      45.699
2014    9        3     9  26    4.12   501.3    3.8      45.679
2014    9        3     9  32    4.12   501.1    3.8      45.659
2014    9        3     9  37    4.12   501.0    3.8      45.638
2014    9        3     9  43    4.12   500.8    3.8      45.617
2014    9        3     9  49    4.12   500.6    3.8      45.596
2014    9        3     9  54    4.12   500.5    3.8      45.574
2014    9        3    10   0    4.12   500.3    3.8      45.552
2014    9        3    10   5    4.12   500.2    3.8      45.530
2014    9        3    10  11    4.12   500.0    3.8      45.507
2014    9        3    10  17    4.12   499.9    3.8      45.484
2014    9        3    10  22    4.12   499.7    3.8      45.460
2014    9        3    10  28    4.11   499.5    3.8      45.437
2014    9        3    10  33    4.11   499.4    3.8      45.413
2014    9        3    10  39    4.11   499.2    3.8      45.389
2014    9        3    10  45    4.11   499.1    3.8      45.364
2014    9        3    10  50    4.11   498.9    3.8      45.340
2014    9        3    10  56    4.11   498.8    3.8      45.315
2014    9        3    11   1    4.11   498.6    3.8      45.290
2014    9        3    11   7    4.11   498.4    3.8      45.265
2014    9        3    11  13    4.11   498.3    3.8      45.240
2014    9        3    11  18    4.11   498.1    3.8      45.215
2014    9        3    11  24    4.11   498.0    3.8      45.189
2014    9        3    11  29    4.11   497.8    3.8      45.164
2014    9        3    11  35    4.11   497.7    3.8      45.139
2014    9        3    11  41    4.11   497.5    3.8      45.113
2014    9        3    11  46    4.10   497.4    3.8      45.088
2014    9        3    11  52    4.10   497.2    3.8      45.063
2014    9        3    11  58    4.10   497.0    3.8      45.038
2014    9        3    12   3    4.10   496.9    3.8      45.013
2014    9        3    12   9    4.10   496.7    3.8      44.988
2014    9        3    12  14    4.10   496.6    3.8      44.962
2014    9        3    12  20    4.10   496.4    3.8      44.938
2014    9        3    12  26    4.10   496.3    3.8      44.913
2014    9        3    12  31    4.10   496.1    3.8      44.888
2014    9        3    12  37    4.10   496.0    3.8      44.863
2014    9        3    12  42    4.10   495.8    3.8      44.838
2014    9        3    12  48    4.10   495.7    3.8      44.813
2014    9        3    12  54    4.10   495.5    3.8      44.788
2014    9        3    12  59    4.10   495.3    3.8      44.763
2014    9        3    13   5    4.09   495.2    3.8      44.738
2014    9        3    13  10    4.09   495.0    3.8      44.714
2014    9        3    13  16    4.09   494.9    3.8      44.689
2014    9        3    13  22    4.09   494.7    3.8      44.665
2014    9        3    13  27    4.09   494.5    3.8      44.641
2014    9        3    13  33    4.09   494.4    3.8      44.617
2014    9        3    13  38    4.09   494.2    3.9      44.593
2014    9        3    13  44    4.09   494.0    3.9      44.570
2014    9        3    13  50    4.09   493.9    3.9      44.547
2014    9        3    13  55    4.09   493.7    3.9      44.524
2014    9        3    14   1    4.09   493.6    3.9      44.501
2014    9        3    14   6    4.09   493.4    3.9      44.479
2014    9        3    14  12    4.09   493.2    3.9      44.458
2014    9        3    14  18    4.09   493.1    3.9      44.437
2014    9        3    14  23    4.09   492.9    3.9      44.416
2014    9        3    14  29    4.09   492.7    3.9      44.395
2014    9        3    14  35    4.09   492.6    3.9      44.376
2014    9        3    14  40    4.09   492.4    3.9      44.356
2014    9        3    14  46    4.08   492.2    3.9      44.337
2014    9        3    14  51    4.08   492.1    3.9      44.319
2014    9        3    14  57    4.08   491.9    3.9      44.301
2014    9        3    15   3    4.08   491.8    3.9      44.283
2014    9        3    15   8    4.08   491.6    3.9      44.265
2014    9        3    15  14    4.08   491.4    3.9      44.248
2014    9        3    15  19    4.08   491.3    3.9      44.231
2014    9        3    15  25    4.08   491.1    3.9      44.214
2014    9        3    15  31    4.08   491.0    3.9      44.197
2014    9        3    15  36    4.08   490.8    3.9      44.181
2014    9        3    15  42    4.08   490.6    3.9      44.164
2014    9        3    15  47    4.08   490.5    3.9      44.148
2014    9        3    15  53    4.08   490.3    3.9      44.132
2014    9        3    15  59    4.08   490.2    3.9      44.115
2014    9        3    16   4    4.08   490.0    3.9      44.099
2014    9        3    16  10    4.08   489.8    3.9      44.082
2014    9        3    16  15    4.08   489.7    3.9      44.065
2014    9        3    16  21    4.08   489.5    3.9      44.048
2014    9        3    16  27    4.08   489.4    3.9      44.032
2014    9        3    16  32    4.08   489.2    3.9      44.014
2014    9        3    16  38    4.08   489.0    3.9      43.996
2014    9        3    16  43    4.08   488.9    3.9      43.979
2014    9        3    16  49    4.08   488.7    3.9      43.960
2014    9        3    16  55    4.08   488.6    3.9      43.941
2014    9        3    17   0    4.08   488.4    3.9      43.922
2014    9        3    17   6    4.08   488.2    3.9      43.902
2014    9        3    17  11    4.08   488.1    3.9      43.882
2014    9        3    17  17    4.07   487.9    3.9      43.861
2014    9        3    17  23    4.07   487.8    3.9      43.840
2014    9        3    17  28    4.07   487.6    3.9      43.819
2014    9        3    17  34    4.07   487.5    4.0      43.797
2014    9        3    17  40    4.07   487.3    4.0      43.775
2014    9        3    17  45    4.07   487.1    4.0      43.753
2014    9        3    17  51    4.07   487.0    4.0      43.730
2014    9        3    17  56    4.07   486.8    4.0      43.707
2014    9        3    18   2    4.07   486.7    4.0      43.683
2014    9        3    18   8    4.07   486.5    4.0      43.660
2014    9        3    18  13    4.07   486.3    4.0      43.636
2014    9        3    18  19    4.07   486.2    4.0      43.612
2014    9        3    18  24    4.07   486.0    4.0      43.587
2014    9        3    18  30    4.07   485.9    4.0      43.563
2014    9        3    18  36    4.07   485.7    4.0      43.538
2014    9        3    18  41    4.07   485.6    4.0      43.513
2014    9        3    18  47    4.07   485.4    4.0      43.487
2014    9        3    18  52    4.07   485.2    4.0      43.462
2014    9        3    18  58    4.07   485.1    4.0      43.436
2014    9        3    19   4    4.06   484.9    4.0      43.410
2014    9        3    19   9    4.06   484.8    4.0      43.385
2014    9        3    19  15    4.06   484.6    4.0      43.358
2014    9        3    19  20    4.06   484.5    4.0      43.332
2014    9        3    19  26    4.06   484.3    4.0      43.306
2014    9        3    19  32    4.06   484.1    4.0      43.279
2014    9        3    19  37    4.06   484.0    4.0      43.252
2014    9        3    19  43    4.06   483.8    4.0      43.225
2014    9        3    19  48    4.06   483.7    4.0      43.199
2014    9        3    19  54    4.06   483.5    4.0      43.172
2014    9        3    20   0    4.06   483.3    4.0      43.145
2014    9        3    20   5    4.06   483.2    4.0      43.117
2014    9        3    20  11    4.06   483.0    4.0      43.090
2014    9        3    20  17    4.06   482.9    4.0      43.063
2014    9        3    20  22    4.06   482.7    4.0      43.036
2014    9        3    20  28    4.06   482.6    4.0      43.009
2014    9        3    20  33    4.06   482.4    4.0      42.982
2014    9        3    20  39    4.06   482.2    4.0      42.955
2014    9        3    20  45    4.05   482.1    4.0      42.928
2014    9        3    20  50    4.05   481.9    4.0      42.902
2014    9        3    20  56    4.05   481.7    4.0      42.875
2014    9        3    21   1    4.05   481.6    4.0      42.849
2014    9        3    21   7    4.05   481.4    4.0      42.823
2014    9        3    21  13    4.05   481.3    4.0      42.797
2014    9        3    21  18    4.05   481.1    4.0      42.772
2014    9        3    21  24    4.05   480.9    4.0      42.747
2014    9        3    21  29    4.05   480.8    4.0      42.722
2014    9        3    21  35    4.05   480.6    4.0      42.697
2014    9        3    21  41    4.05   480.4    4.0      42.673
2014    9        3    21  46    4.05   480.3    4.0      42.649
2014    9        3    21  52    4.05   480.1    4.0      42.625
2014    9        3    21  57    4.05   480.0    4.0      42.602
2014    9        3    22   3    4.05   479.8    4.0      42.579
2014    9        3    22   9    4.05   479.6    4.0      42.556
2014    9        3    22  14    4.05   479.5    4.0      42.533
2014    9        3    22  20    4.05   479.3    4.0      42.511
2014    9        3    22  25    4.05   479.2    4.0      42.489
2014    9        3    22  31    4.05   479.0    4.0      42.468
2014    9        3    22  37    4.05   478.8    4.0      42.446
2014    9        3    22  42    4.05   478.7    4.1      42.425
2014    9        3    22  48    4.05   478.5    4.1      42.404
2014    9        3    22  54    4.05   478.4    4.1      42.383
2014    9        3    22  59    4.05   478.2    4.1      42.362
2014    9        3    23   5    4.04   478.1    4.1      42.342
2014    9        3    23  10    4.04   477.9    4.1      42.321
2014    9        3    23  16    4.04   477.7    4.1      42.301
2014    9        3    23  22    4.04   477.6    4.1      42.281
2014    9        3    23  27    4.04   477.4    4.1      42.260
2014    9        3    23  33    4.04   477.3    4.1      42.240
2014    9        3    23  38    4.04   477.1    4.1      42.219
2014    9        3    23  44    4.04   476.9    4.1      42.199
2014    9        3    23  50    4.04   476.8    4.1      42.178
2014    9        3    23  55    4.04   476.6    4.1      42.158
2014    9        4     0   1    4.04   476.5    4.1      42.137
2014    9        4     0   6    4.04   476.3    4.1      42.116
2014    9        4     0  12    4.04   476.1    4.1      42.094
2014    9        4     0  18    4.04   476.0    4.1      42.073
2014    9        4     0  23    4.04   475.8    4.1      42.051
2014    9        4     0  29    4.04   475.7    4.1      42.029
2014    9        4     0  34    4.04   475.5    4.1      42.007
2014    9        4     0  40    4.04   475.4    4.1      41.984
2014    9        4     0  46    4.04   475.2    4.1      41.961
2014    9        4     0  51    4.04   475.0    4.1      41.938
2014    9        4     0  57    4.04   474.9    4.1      41.915
2014    9        4     1   2    4.04   474.7    4.1      41.891
2014    9        4     1   8    4.04   474.6    4.1      41.867
2014    9        4     1  14    4.04   474.4    4.1      41.843
2014    9        4     1  19    4.04   474.3    4.1      41.818
2014    9        4     1  25    4.04   474.1    4.1      41.793
2014    9        4     1  31    4.04   473.9    4.1      41.768
2014    9        4     1  36    4.04   473.8    4.1      41.743
2014    9        4     1  42    4.04   473.6    4.1      41.717
2014    9        4     1  47    4.04   473.5    4.1      41.691
2014    9        4     1  53    4.04   473.3    4.2      41.665
2014    9        4     1  59    4.04   473.1    4.2      41.639
2014    9        4     2   4    4.03   473.0    4.2      41.612
2014    9        4     2  10    4.03   472.8    4.2      41.586
2014    9        4     2  15    4.03   472.7    4.2      41.559
2014    9        4     2  21    4.03   472.5    4.2      41.532
2014    9        4     2  27    4.03   472.4    4.2      41.505
2014    9        4     2  32    4.03   472.2    4.2      41.477
2014    9        4     2  38    4.03   472.0    4.2      41.450
2014    9        4     2  43    4.03   471.9    4.2      41.422
2014    9        4     2  49    4.03   471.7    4.2      41.394
2014    9        4     2  55    4.03   471.6    4.2      41.366
2014    9        4     3   0    4.03   471.4    4.2      41.338
2014    9        4     3   6    4.03   471.2    4.2      41.310
2014    9        4     3  11    4.03   471.1    4.2      41.282
2014    9        4     3  17    4.03   470.9    4.2      41.253
2014    9        4     3  23    4.03   470.8    4.2      41.224
2014    9        4     3  28    4.03   470.6    4.2      41.196
2014    9        4     3  34    4.03   470.5    4.2      41.167
2014    9        4     3  40    4.03   470.3    4.2      41.138
2014    9        4     3  45    4.03   470.1    4.2      41.109
2014    9        4     3  51    4.03   470.0    4.2      41.080
2014    9        4     3  56    4.03   469.8    4.2      41.051
2014    9        4     4   2    4.03   469.7    4.2      41.022
2014    9        4     4   8    4.03   469.5    4.2      40.992
2014    9        4     4  13    4.02   469.3    4.2      40.963
2014    9        4     4  19    4.02   469.2    4.2      40.933
2014    9        4     4  24    4.02   469.0    4.2      40.904
2014    9        4     4  30    4.02   468.9    4.2      40.874
2014    9        4     4  36    4.02   468.7    4.2      40.844
2014    9        4     4  41    4.02   468.6    4.2      40.815
2014    9        4     4  47    4.02   468.4    4.2      40.785
2014    9        4     4  52    4.02   468.2    4.2      40.755
2014    9        4     4  58    4.02   468.1    4.2      40.724
2014    9        4     5   4    4.02   467.9    4.2      40.694
2014    9        4     5   9    4.02   467.8    4.2      40.664
2014    9        4     5  15    4.02   467.6    4.2      40.634
2014    9        4     5  20    4.02   467.4    4.3      40.603
2014    9        4     5  26    4.02   467.3    4.3      40.573
2014    9        4     5  32    4.02   467.1    4.3      40.543
2014    9        4     5  37    4.02   467.0    4.3      40.512
2014    9        4     5  43    4.02   466.8    4.3      40.481
2014    9        4     5  48    4.02   466.6    4.3      40.451
2014    9        4     5  54    4.02   466.5    4.3      40.420
2014    9        4     6   0    4.02   466.3    4.3      40.390
2014    9        4     6   5    4.02   466.2    4.3      40.359
2014    9        4     6  11    4.02   466.0    4.3      40.328
2014    9        4     6  16    4.02   465.8    4.3      40.298
2014    9        4     6  22    4.01   465.7    4.3      40.267
2014    9        4     6  28    4.01   465.5    4.3      40.237
2014    9        4     6  33    4.01   465.3    4.3      40.206
2014    9        4     6  39    4.01   465.2    4.3      40.176
2014    9        4     6  45    4.01   465.0    4.3      40.146
2014    9        4     6  50    4.01   464.9    4.3      40.116
2014    9        4     6  56    4.01   464.7    4.3      40.086
2014    9        4     7   1    4.01   464.5    4.3      40.056
2014    9        4     7   7    4.01   464.4    4.3      40.027
2014    9        4     7  13    4.01   464.2    4.3      39.998
2014    9        4     7  18    4.01   464.1    4.3      39.968
2014    9        4     7  24    4.01   463.9    4.3      39.940
2014    9        4     7  29    4.01   463.7    4.3      39.911
2014    9        4     7  35    4.01   463.6    4.3      39.882
2014    9        4     7  41    4.01   463.4    4.3      39.854
2014    9        4     7  46    4.01   463.2    4.3      39.826
2014    9        4     7  52    4.01   463.1    4.3      39.798
2014    9        4     7  57    4.01   462.9    4.3      39.770
2014    9        4     8   3    4.01   462.8    4.3      39.743
2014    9        4     8   9    4.01   462.6    4.3      39.715
2014    9        4     8  14    4.01   462.4    4.3      39.688
2014    9        4     8  20    4.01   462.3    4.3      39.661
2014    9        4     8  25    4.01   462.1    4.3      39.634
2014    9        4     8  31    4.01   462.0    4.3      39.606
2014    9        4     8  37    4.01   461.8    4.3      39.579
2014    9        4     8  42    4.01   461.6    4.4      39.552
2014    9        4     8  48    4.01   461.5    4.4      39.526
2014    9        4     8  54    4.01   461.3    4.4      39.499
2014    9        4     8  59    4.01   461.2    4.4      39.472
2014    9        4     9   5    4.00   461.0    4.4      39.445
2014    9        4     9  10    4.00   460.9    4.4      39.418
2014    9        4     9  16    4.00   460.7    4.4      39.392
2014    9        4     9  22    4.00   460.5    4.4      39.365
2014    9        4     9  27    4.00   460.4    4.4      39.338
2014    9        4     9  33    4.00   460.2    4.4      39.311
2014    9        4     9  38    4.00   460.1    4.4      39.285
2014    9        4     9  44    4.00   459.9    4.4      39.258
2014    9        4     9  50    4.00   459.7    4.4      39.231
2014    9        4     9  55    4.00   459.6    4.4      39.204
2014    9        4    10   1    4.00   459.4    4.4      39.177
2014    9        4    10   6    4.00   459.3    4.4      39.150
2014    9        4    10  12    4.00   459.1    4.4      39.123
2014    9        4    10  18    4.00   458.9    4.4      39.096
2014    9        4    10  23    4.00   458.8    4.4      39.068
2014    9        4    10  29    4.00   458.6    4.4      39.041
2014    9        4    10  34    4.00   458.5    4.4      39.013
2014    9        4    10  40    4.00   458.3    4.4      38.985
2014    9        4    10  46    4.00   458.1    4.4      38.957
2014    9        4    10  51    4.00   458.0    4.4      38.929
2014    9        4    10  57    4.00   457.8    4.4      38.900
2014    9        4    11   3    4.00   457.7    4.4      38.872
2014    9        4    11   8    4.00   457.5    4.4      38.843
2014    9        4    11  14    4.00   457.3    4.4      38.814
2014    9        4    11  19    4.00   457.2    4.4      38.784
2014    9        4    11  25    4.00   457.0    4.5      38.755
2014    9        4    11  31    3.99   456.9    4.5      38.725
2014    9        4    11  36    3.99   456.7    4.5      38.695
2014    9        4    11  42    3.99   456.5    4.5      38.665
2014    9        4    11  47    3.99   456.4    4.5      38.634
2014    9        4    11  53    3.99   456.2    4.5      38.603
2014    9        4    11  59    3.99   456.1    4.5      38.572
2014    9        4    12   4    3.99   455.9    4.5      38.541
2014    9        4    12  10    3.99   455.7    4.5      38.510
2014    9        4    12  15    3.99   455.6    4.5      38.478
2014    9        4    12  21    3.99   455.4    4.5      38.446
2014    9        4    12  27    3.99   455.3    4.5      38.414
2014    9        4    12  32    3.99   455.1    4.5      38.381
2014    9        4    12  38    3.99   454.9    4.5      38.348
2014    9        4    12  43    3.99   454.8    4.5      38.316
2014    9        4    12  49    3.99   454.6    4.5      38.282
2014    9        4    12  55    3.99   454.5    4.5      38.249
2014    9        4    13   0    3.99   454.3    4.5      38.215
2014    9        4    13   6    3.99   454.1    4.5      38.181
2014    9        4    13  11    3.99   454.0    4.5      38.148
2014    9        4    13  17    3.99   453.8    4.5      38.113
2014    9        4    13  23    3.99   453.7    4.5      38.079
2014    9        4    13  28    3.99   453.5    4.5      38.045
2014    9        4    13  34    3.99   453.3    4.5      38.010
2014    9        4    13  40    3.98   453.2    4.5      37.975
2014    9        4    13  45    3.98   453.0    4.5      37.941
2014    9        4    13  51    3.98   452.9    4.5      37.906
2014    9        4    13  56    3.98   452.7    4.5      37.871
2014    9        4    14   2    3.98   452.5    4.5      37.837
2014    9        4    14   8    3.98   452.4    4.5      37.802
2014    9        4    14  13    3.98   452.2    4.5      37.767
2014    9        4    14  19    3.98   452.0    4.6      37.733
2014    9        4    14  24    3.98   451.9    4.6      37.699
2014    9        4    14  30    3.98   451.7    4.6      37.664
2014    9        4    14  36    3.98   451.6    4.6      37.630
2014    9        4    14  41    3.98   451.4    4.6      37.596
2014    9        4    14  47    3.98   451.2    4.6      37.563
2014    9        4    14  52    3.98   451.1    4.6      37.529
2014    9        4    14  58    3.98   450.9    4.6      37.496
2014    9        4    15   4    3.98   450.7    4.6      37.463
2014    9        4    15   9    3.98   450.6    4.6      37.430
2014    9        4    15  15    3.98   450.4    4.6      37.397
2014    9        4    15  20    3.98   450.3    4.6      37.365
2014    9        4    15  26    3.98   450.1    4.6      37.333
2014    9        4    15  32    3.98   449.9    4.6      37.301
2014    9        4    15  37    3.98   449.8    4.6      37.269
2014    9        4    15  43    3.98   449.6    4.6      37.238
2014    9        4    15  49    3.97   449.4    4.6      37.206
2014    9        4    15  54    3.97   449.3    4.6      37.176
2014    9        4    16   0    3.97   449.1    4.6      37.145
2014    9        4    16   5    3.97   449.0    4.6      37.114
2014    9        4    16  11    3.97   448.8    4.6      37.084
2014    9        4    16  17    3.97   448.6    4.6      37.054
2014    9        4    16  22    3.97   448.5    4.6      37.024
2014    9        4    16  28    3.97   448.3    4.6      36.994
2014    9        4    16  33    3.97   448.1    4.6      36.964
2014    9        4    16  39    3.97   448.0    4.6      36.934
2014    9        4    16  45    3.97   447.8    4.6      36.904
2014    9        4    16  50    3.97   447.6    4.6      36.875
2014    9        4    16  56    3.97   447.5    4.6      36.845
2014    9        4    17   1    3.97   447.3    4.6      36.815
2014    9        4    17   7    3.97   447.2    4.6      36.786
2014    9        4    17  13    3.97   447.0    4.6      36.756
2014    9        4    17  18    3.97   446.8    4.6      36.727
2014    9        4    17  24    3.97   446.7    4.6      36.697
2014    9        4    17  29    3.97   446.5    4.7      36.668
2014    9        4    17  35    3.97   446.3    4.7      36.638
2014    9        4    17  41    3.97   446.2    4.7      36.608
2014    9        4    17  46    3.97   446.0    4.7      36.579
2014    9        4    17  52    3.96   445.8    4.7      36.549
2014    9        4    17  57    3.96   445.7    4.7      36.519
2014    9        4    18   3    3.96   445.5    4.7      36.489
2014    9        4    18   9    3.96   445.3    4.7      36.459
2014    9        4    18  14    3.96   445.2    4.7      36.428
2014    9        4    18  20    3.96   445.0    4.7      36.398
2014    9        4    18  26    3.96   444.8    4.7      36.368
2014    9        4    18  31    3.96   444.7    4.7      36.337
2014    9        4    18  37    3.96   444.5    4.7      36.306
2014    9        4    18  42    3.96   444.3    4.7      36.275
2014    9        4    18  48    3.96   444.2    4.7      36.244
2014    9        4    18  54    3.96   444.0    4.7      36.213
2014    9        4    18  59    3.96   443.8    4.7      36.182
2014    9        4    19   5    3.96   443.6    4.7      36.150
2014    9        4    19  10    3.96   443.5    4.7      36.119
2014    9        4    19  16    3.96   443.3    4.7      36.087
2014    9        4    19  22    3.96   443.1    4.7      36.055
2014    9        4    19  27    3.96   443.0    4.7      36.023
2014    9        4    19  33    3.96   442.8    4.7      35.992
2014    9        4    19  38    3.96   442.6    4.7      35.959
2014    9        4    19  44    3.95   442.4    4.7      35.927
2014    9        4    19  50    3.95   442.3    4.7      35.895
2014    9        4    19  55    3.95   442.1    4.7      35.863
2014    9        4    20   1    3.95   441.9    4.7      35.831
2014    9        4    20   6    3.95   441.8    4.7      35.799
2014    9        4    20  12    3.95   441.6    4.7      35.767
2014    9        4    20  18    3.95   441.4    4.7      35.735
2014    9        4    20  23    3.95   441.2    4.7      35.703
2014    9        4    20  29    3.95   441.1    4.7      35.670
2014    9        4    20  35    3.95   440.9    4.7      35.639
2014    9        4    20  40    3.95   440.7    4.7      35.607
2014    9        4    20  46    3.95   440.6    4.8      35.575
2014    9        4    20  51    3.95   440.4    4.8      35.543
2014    9        4    20  57    3.95   440.2    4.8      35.512
2014    9        4    21   3    3.95   440.0    4.8      35.480
2014    9        4    21   8    3.95   439.9    4.8      35.449
2014    9        4    21  14    3.95   439.7    4.8      35.418
2014    9        4    21  19    3.95   439.5    4.8      35.387
2014    9        4    21  25    3.95   439.4    4.8      35.357
2014    9        4    21  31    3.95   439.2    4.8      35.326
2014    9        4    21  36    3.95   439.0    4.8      35.296
2014    9        4    21  42    3.95   438.9    4.8      35.266
2014    9        4    21  47    3.95   438.7    4.8      35.236
2014    9        4    21  53    3.95   438.5    4.8      35.206
2014    9        4    21  59    3.95   438.4    4.8      35.177
2014    9        4    22   4    3.95   438.2    4.8      35.148
2014    9        4    22  10    3.95   438.0    4.8      35.118
2014    9        4    22  15    3.95   437.9    4.8      35.090
2014    9        4    22  21    3.95   437.7    4.8      35.061
2014    9        4    22  27    3.94   437.5    4.8      35.032
2014    9        4    22  32    3.94   437.4    4.8      35.004
2014    9        4    22  38    3.94   437.2    4.8      34.976
2014    9        4    22  43    3.94   437.0    4.8      34.948
2014    9        4    22  49    3.94   436.9    4.8      34.920
2014    9        4    22  55    3.94   436.7    4.8      34.893
2014    9        4    23   0    3.94   436.5    4.8      34.866
2014    9        4    23   6    3.94   436.4    4.8      34.839
2014    9        4    23  12    3.94   436.2    4.8      34.811
2014    9        4    23  17    3.94   436.0    4.8      34.784
2014    9        4    23  23    3.94   435.9    4.9      34.758
2014    9        4    23  28    3.94   435.7    4.9      34.730
2014    9        4    23  34    3.94   435.5    4.9      34.704
2014    9        4    23  40    3.94   435.4    4.9      34.677
2014    9        4    23  45    3.94   435.2    4.9      34.650
2014    9        4    23  51    3.94   435.0    4.9      34.623
2014    9        4    23  56    3.94   434.9    4.9      34.596
2014    9        5     0   2    3.94   434.7    4.9      34.568
2014    9        5     0   8    3.94   434.5    4.9      34.541
2014    9        5     0  13    3.94   434.3    4.9      34.514
2014    9        5     0  19    3.94   434.2    4.9      34.487
2014    9        5     0  24    3.94   434.0    4.9      34.459
2014    9        5     0  30    3.94   433.8    4.9      34.432
2014    9        5     0  36    3.94   433.7    4.9      34.404
2014    9        5     0  41    3.94   433.5    4.9      34.377
2014    9        5     0  47    3.94   433.3    4.9      34.349
2014    9        5     0  52    3.94   433.2    4.9      34.321
2014    9        5     0  58    3.94   433.0    4.9      34.293
2014    9        5     1   4    3.94   432.8    4.9      34.265
2014    9        5     1   9    3.93   432.6    4.9      34.237
2014    9        5     1  15    3.93   432.5    4.9      34.209
2014    9        5     1  21    3.93   432.3    4.9      34.180
2014    9        5     1  26    3.93   432.1    4.9      34.152
2014    9        5     1  32    3.93   432.0    4.9      34.123
2014    9        5     1  37    3.93   431.8    4.9      34.094
2014    9        5     1  43    3.93   431.6    4.9      34.066
2014    9        5     1  49    3.93   431.4    4.9      34.036
2014    9        5     1  54    3.93   431.3    4.9      34.007
2014    9        5     2   0    3.93   431.1    4.9      33.978
2014    9        5     2   5    3.93   430.9    4.9      33.949
2014    9        5     2  11    3.93   430.7    4.9      33.919
2014    9        5     2  17    3.93   430.5    5.0      33.890
2014    9        5     2  22    3.93   430.4    5.0      33.860
2014    9        5     2  28    3.93   430.2    5.0      33.830
2014    9        5     2  33    3.93   430.0    5.0      33.801
2014    9        5     2  39    3.93   429.8    5.0      33.771
2014    9        5     2  45    3.93   429.6    5.0      33.741
2014    9        5     2  50    3.93   429.5    5.0      33.711
2014    9        5     2  56    3.93   429.3    5.0      33.681
2014    9        5     3   1    3.93   429.1    5.0      33.651
2014    9        5     3   7    3.93   428.9    5.0      33.622
2014    9        5     3  13    3.92   428.7    5.0      33.592
2014    9        5     3  18    3.92   428.6    5.0      33.563
2014    9        5     3  24    3.92   428.4    5.0      33.533
2014    9        5     3  30    3.92   428.2    5.0      33.504
2014    9        5     3  35    3.92   428.0    5.0      33.474
2014    9        5     3  41    3.92   427.8    5.0      33.445
2014    9        5     3  46    3.92   427.6    5.0      33.416
2014    9        5     3  52    3.92   427.5    5.0      33.388
2014    9        5     3  58    3.92   427.3    5.0      33.359
2014    9        5     4   3    3.92   427.1    5.0      33.331
2014    9        5     4   9    3.92   426.9    5.0      33.303
2014    9        5     4  14    3.92   426.7    5.0      33.275
2014    9        5     4  20    3.92   426.5    5.0      33.247
2014    9        5     4  26    3.92   426.4    5.0      33.220
2014    9        5     4  31    3.92   426.2    5.0      33.193
2014    9        5     4  37    3.92   426.0    5.0      33.166
2014    9        5     4  42    3.92   425.8    5.0      33.139
2014    9        5     4  48    3.92   425.6    5.0      33.113
2014    9        5     4  54    3.92   425.4    5.0      33.087
2014    9        5     4  59    3.92   425.3    5.0      33.062
2014    9        5     5   5    3.92   425.1    5.0      33.036
2014    9        5     5  10    3.92   424.9    5.0      33.011
2014    9        5     5  16    3.92   424.7    5.0      32.986
2014    9        5     5  22    3.92   424.5    5.0      32.961
2014    9        5     5  27    3.92   424.4    5.0      32.937
2014    9        5     5  33    3.92   424.2    5.0      32.912
2014    9        5     5  39    3.92   424.0    5.1      32.888
2014    9        5     5  44    3.92   423.8    5.1      32.864
2014    9        5     5  50    3.92   423.6    5.1      32.840
2014    9        5     5  55    3.92   423.5    5.1      32.817
2014    9        5     6   1    3.92   423.3    5.1      32.793
2014    9        5     6   7    3.92   423.1    5.1      32.770
2014    9        5     6  12    3.92   422.9    5.1      32.747
2014    9        5     6  18    3.92   422.7    5.1      32.724
2014    9        5     6  23    3.92   422.6    5.1      32.700
2014    9        5     6  29    3.92   422.4    5.1      32.677
2014    9        5     6  35    3.92   422.2    5.1      32.654
2014    9        5     6  40    3.92   422.0    5.1      32.631
2014    9        5     6  46    3.92   421.8    5.1      32.608
2014    9        5     6  51    3.92   421.7    5.1      32.585
2014    9        5     6  57    3.92   421.5    5.1      32.562
2014    9        5     7   3    3.92   421.3    5.1      32.539
2014    9        5     7   8    3.92   421.1    5.1      32.516
2014    9        5     7  14    3.92   421.0    5.1      32.493
2014    9        5     7  19    3.92   420.8    5.1      32.470
2014    9        5     7  25    3.92   420.6    5.1      32.447
2014    9        5     7  31    3.92   420.4    5.1      32.423
2014    9        5     7  36    3.92   420.2    5.1      32.400
2014    9        5     7  42    3.92   420.1    5.1      32.377
2014    9        5     7  48    3.92   419.9    5.1      32.353
2014    9        5     7  53    3.92   419.7    5.1      32.330
2014    9        5     7  59    3.92   419.5    5.1      32.306
2014    9        5     8   4    3.92   419.3    5.1      32.282
2014    9        5     8  10    3.92   419.2    5.1      32.259
2014    9        5     8  16    3.92   419.0    5.1      32.235
2014    9        5     8  21    3.92   418.8    5.2      32.211
2014    9        5     8  27    3.92   418.6    5.2      32.187
2014    9        5     8  32    3.92   418.4    5.2      32.163
2014    9        5     8  38    3.92   418.2    5.2      32.139
2014    9        5     8  44    3.92   418.1    5.2      32.115
2014    9        5     8  49    3.92   417.9    5.2      32.091
2014    9        5     8  55    3.92   417.7    5.2      32.067
2014    9        5     9   0    3.92   417.5    5.2      32.044
2014    9        5     9   6    3.92   417.3    5.2      32.020
2014    9        5     9  12    3.92   417.1    5.2      31.996
2014    9        5     9  17    3.92   417.0    5.2      31.972
2014    9        5     9  23    3.92   416.8    5.2      31.949
2014    9        5     9  28    3.92   416.6    5.2      31.925
2014    9        5     9  34    3.92   416.4    5.2      31.902
2014    9        5     9  40    3.92   416.2    5.2      31.879
2014    9        5     9  45    3.92   416.1    5.2      31.856
2014    9        5     9  51    3.92   415.9    5.2      31.833
2014    9        5     9  57    3.92   415.7    5.2      31.810
2014    9        5    10   2    3.92   415.5    5.2      31.787
2014    9        5    10   8    3.92   415.3    5.2      31.765
2014    9        5    10  13    3.92   415.1    5.2      31.742
2014    9        5    10  19    3.92   415.0    5.2      31.720
2014    9        5    10  25    3.92   414.8    5.2      31.698
2014    9        5    10  30    3.92   414.6    5.2      31.676
2014    9        5    10  36    3.92   414.4    5.2      31.654
2014    9        5    10  41    3.92   414.2    5.2      31.633
2014    9        5    10  47    3.92   414.0    5.2      31.611
2014    9        5    10  53    3.92   413.9    5.2      31.590
2014    9        5    10  58    3.92   413.7    5.2      31.569
2014    9        5    11   4    3.92   413.5    5.2      31.548
2014    9        5    11   9    3.92   413.3    5.2      31.527
2014    9        5    11  15    3.92   413.1    5.2      31.506
2014    9        5    11  21    3.92   413.0    5.3      31.485
2014    9        5    11  26    3.92   412.8    5.3      31.465
2014    9        5    11  32    3.93   412.6    5.3      31.444
2014    9        5    11  37    3.93   412.4    5.3      31.424
2014    9        5    11  43    3.93   412.2    5.3      31.403
2014    9        5    11  49    3.93   412.0    5.3      31.383
2014    9        5    11  54    3.93   411.9    5.3      31.363
2014    9        5    12   0    3.93   411.7    5.3      31.343
2014    9        5    12   5    3.93   411.5    5.3      31.323
2014    9        5    12  11    3.93   411.3    5.3      31.303
2014    9        5    12  17    3.93   411.1    5.3      31.283
2014    9        5    12  22    3.93   410.9    5.3      31.263
2014    9        5    12  28    3.93   410.8    5.3      31.243
2014    9        5    12  34    3.93   410.6    5.3      31.223
2014    9        5    12  39    3.93   410.4    5.3      31.203
2014    9        5    12  45    3.93   410.2    5.3      31.183
2014    9        5    12  50    3.93   410.0    5.3      31.163
2014    9        5    12  56    3.93   409.9    5.3      31.144
2014    9        5    13   2    3.93   409.7    5.3      31.124
2014    9        5    13   7    3.93   409.5    5.3      31.104
2014    9        5    13  13    3.93   409.3    5.3      31.084
2014    9        5    13  18    3.93   409.1    5.3      31.065
2014    9        5    13  24    3.93   408.9    5.3      31.045
2014    9        5    13  30    3.93   408.8    5.3      31.026
2014    9        5    13  35    3.93   408.6    5.3      31.006
2014    9        5    13  41    3.93   408.4    5.3      30.986
2014    9        5    13  46    3.93   408.2    5.3      30.967
2014    9        5    13  52    3.93   408.0    5.3      30.947
2014    9        5    13  58    3.93   407.8    5.3      30.927
2014    9        5    14   3    3.93   407.7    5.3      30.908
2014    9        5    14   9    3.93   407.5    5.3      30.888
2014    9        5    14  15    3.93   407.3    5.3      30.869
2014    9        5    14  20    3.94   407.1    5.3      30.849
2014    9        5    14  26    3.94   406.9    5.3      30.830
2014    9        5    14  31    3.94   406.8    5.3      30.810
2014    9        5    14  37    3.94   406.6    5.3      30.791
2014    9        5    14  43    3.94   406.4    5.3      30.771
2014    9        5    14  48    3.94   406.2    5.4      30.751
2014    9        5    14  54    3.94   406.0    5.4      30.732
2014    9        5    14  59    3.94   405.8    5.4      30.712
2014    9        5    15   5    3.94   405.7    5.4      30.693
2014    9        5    15  11    3.94   405.5    5.4      30.673
2014    9        5    15  16    3.94   405.3    5.4      30.653
2014    9        5    15  22    3.94   405.1    5.4      30.634
2014    9        5    15  27    3.94   404.9    5.4      30.614
2014    9        5    15  33    3.94   404.8    5.4      30.595
2014    9        5    15  39    3.94   404.6    5.4      30.575
2014    9        5    15  44    3.94   404.4    5.4      30.556
2014    9        5    15  50    3.94   404.2    5.4      30.536
2014    9        5    15  55    3.94   404.0    5.4      30.517
2014    9        5    16   1    3.94   403.9    5.4      30.497
2014    9        5    16   7    3.95   403.7    5.4      30.478
2014    9        5    16  12    3.95   403.5    5.4      30.459
2014    9        5    16  18    3.95   403.3    5.4      30.439
2014    9        5    16  24    3.95   403.1    5.4      30.420
2014    9        5    16  29    3.95   403.0    5.4      30.401
2014    9        5    16  35    3.95   402.8    5.4      30.381
2014    9        5    16  40    3.95   402.6    5.4      30.362
2014    9        5    16  46    3.95   402.4    5.4      30.343
2014    9        5    16  52    3.95   402.2    5.4      30.324
2014    9        5    16  57    3.95   402.1    5.4      30.305
2014    9        5    17   3    3.95   401.9    5.4      30.286
2014    9        5    17   8    3.95   401.7    5.4      30.267
2014    9        5    17  14    3.95   401.5    5.4      30.249
2014    9        5    17  20    3.95   401.3    5.4      30.230
2014    9        5    17  25    3.95   401.2    5.4      30.211
2014    9        5    17  31    3.96   401.0    5.4      30.193
2014    9        5    17  36    3.96   400.8    5.4      30.175
2014    9        5    17  42    3.96   400.6    5.4      30.156
2014    9        5    17  48    3.96   400.5    5.4      30.138
2014    9        5    17  53    3.96   400.3    5.4      30.120
2014    9        5    17  59    3.96   400.1    5.4      30.102
2014    9        5    18   4    3.96   399.9    5.4      30.085
2014    9        5    18  10    3.96   399.7    5.4      30.067
2014    9        5    18  16    3.96   399.6    5.4      30.049
2014    9        5    18  21    3.96   399.4    5.4      30.032
2014    9        5    18  27    3.96   399.2    5.4      30.015
2014    9        5    18  32    3.96   399.0    5.4      29.998
2014    9        5    18  38    3.96   398.9    5.4      29.981
2014    9        5    18  44    3.97   398.7    5.4      29.964
2014    9        5    18  49    3.97   398.5    5.4      29.947
2014    9        5    18  55    3.97   398.3    5.4      29.931
2014    9        5    19   1    3.97   398.2    5.4      29.914
2014    9        5    19   6    3.97   398.0    5.4      29.898
2014    9        5    19  12    3.97   397.8    5.4      29.882
2014    9        5    19  17    3.97   397.6    5.4      29.866
2014    9        5    19  23    3.97   397.5    5.4      29.850
2014    9        5    19  29    3.97   397.3    5.5      29.835
2014    9        5    19  34    3.97   397.1    5.5      29.819
2014    9        5    19  40    3.97   396.9    5.5      29.804
2014    9        5    19  45    3.98   396.8    5.5      29.789
2014    9        5    19  51    3.98   396.6    5.5      29.773
2014    9        5    19  57    3.98   396.4    5.5      29.759
2014    9        5    20   2    3.98   396.2    5.5      29.744
2014    9        5    20   8    3.98   396.1    5.5      29.729
2014    9        5    20  13    3.98   395.9    5.5      29.715
2014    9        5    20  19    3.98   395.7    5.5      29.701
2014    9        5    20  25    3.98   395.5    5.5      29.686
2014    9        5    20  30    3.98   395.4    5.5      29.672
2014    9        5    20  36    3.98   395.2    5.5      29.659
2014    9        5    20  41    3.99   395.0    5.5      29.645
2014    9        5    20  47    3.99   394.9    5.5      29.631
2014    9        5    20  53    3.99   394.7    5.5      29.618
2014    9        5    20  58    3.99   394.5    5.5      29.605
2014    9        5    21   4    3.99   394.3    5.5      29.592
2014    9        5    21  10    3.99   394.2    5.5      29.579
2014    9        5    21  15    3.99   394.0    5.5      29.566
2014    9        5    21  21    3.99   393.8    5.5      29.553
2014    9        5    21  26    3.99   393.7    5.5      29.541
2014    9        5    21  32    4.00   393.5    5.5      29.528
2014    9        5    21  38    4.00   393.3    5.5      29.516
2014    9        5    21  43    4.00   393.1    5.5      29.504
2014    9        5    21  49    4.00   393.0    5.5      29.492
2014    9        5    21  54    4.00   392.8    5.5      29.480
2014    9        5    22   0    4.00   392.6    5.5      29.468
2014    9        5    22   6    4.00   392.5    5.5      29.456
2014    9        5    22  11    4.00   392.3    5.5      29.445
2014    9        5    22  17    4.01   392.1    5.5      29.434
2014    9        5    22  22    4.01   392.0    5.5      29.422
2014    9        5    22  28    4.01   391.8    5.5      29.411
2014    9        5    22  34    4.01   391.6    5.5      29.401
2014    9        5    22  39    4.01   391.5    5.5      29.390
2014    9        5    22  45    4.01   391.3    5.5      29.379
2014    9        5    22  51    4.01   391.1    5.5      29.369
2014    9        5    22  56    4.01   391.0    5.5      29.358
2014    9        5    23   2    4.02   390.8    5.5      29.348
2014    9        5    23   7    4.02   390.6    5.5      29.337
2014    9        5    23  13    4.02   390.5    5.5      29.328
2014    9        5    23  19    4.02   390.3    5.5      29.317
2014    9        5    23  24    4.02   390.1    5.5      29.308
2014    9        5    23  30    4.02   390.0    5.5      29.298
2014    9        5    23  35    4.03   389.8    5.6      29.288
2014    9        5    23  41    4.03   389.6    5.6      29.279
2014    9        5    23  47    4.03   389.5    5.6      29.270
2014    9        5    23  52    4.03   389.3    5.6      29.260
2014    9        5    23  58    4.03   389.2    5.6      29.251
2014    9        6     0   3    4.03   389.0    5.6      29.242
2014    9        6     0   9    4.03   388.8    5.6      29.233
2014    9        6     0  15    4.04   388.7    5.6      29.224
2014    9        6     0  20    4.04   388.5    5.6      29.215
2014    9        6     0  26    4.04   388.4    5.6      29.207
2014    9        6     0  31    4.04   388.2    5.6      29.198
2014    9        6     0  37    4.04   388.0    5.6      29.189
2014    9        6     0  43    4.04   387.9    5.6      29.181
2014    9        6     0  48    4.05   387.7    5.6      29.173
2014    9        6     0  54    4.05   387.6    5.6      29.165
2014    9        6     1   0    4.05   387.4    5.6      29.157
2014    9        6     1   5    4.05   387.3    5.6      29.149
2014    9        6     1  11    4.05   387.1    5.6      29.141
2014    9        6     1  16    4.05   387.0    5.6      29.133
2014    9        6     1  22    4.06   386.8    5.6      29.125
2014    9        6     1  28    4.06   386.6    5.6      29.118
2014    9        6     1  33    4.06   386.5    5.6      29.110
2014    9        6     1  39    4.06   386.3    5.6      29.103
2014    9        6     1  44    4.06   386.2    5.6      29.095
2014    9        6     1  50    4.07   386.0    5.6      29.088
2014    9        6     1  56    4.07   385.9    5.6      29.081
2014    9        6     2   1    4.07   385.7    5.6      29.074
2014    9        6     2   7    4.07   385.6    5.6      29.067
2014    9        6     2  12    4.07   385.4    5.6      29.060
2014    9        6     2  18    4.07   385.3    5.6      29.053
2014    9        6     2  24    4.08   385.1    5.7      29.047
2014    9        6     2  29    4.08   385.0    5.7      29.040
2014    9        6     2  35    4.08   384.8    5.7      29.033
2014    9        6     2  40    4.08   384.7    5.7      29.027
2014    9        6     2  46    4.08   384.5    5.7      29.020
2014    9        6     2  52    4.08   384.4    5.7      29.014
2014    9        6     2  57    4.09   384.2    5.7      29.008
2014    9        6     3   3    4.09   384.1    5.7      29.002
2014    9        6     3   8    4.09   383.9    5.7      28.995
2014    9        6     3  14    4.09   383.8    5.7      28.989
2014    9        6     3  20    4.09   383.6    5.7      28.983
2014    9        6     3  25    4.10   383.5    5.7      28.978
2014    9        6     3  31    4.10   383.3    5.7      28.972
2014    9        6     3  37    4.10   383.2    5.7      28.966
2014    9        6     3  42    4.10   383.1    5.7      28.961
2014    9        6     3  48    4.10   382.9    5.7      28.955
2014    9        6     3  53    4.10   382.8    5.7      28.950
2014    9        6     3  59    4.11   382.6    5.7      28.945
2014    9        6     4   5    4.11   382.5    5.7      28.940
2014    9        6     4  10    4.11   382.3    5.7      28.935
2014    9        6     4  16    4.11   382.2    5.8      28.930
2014    9        6     4  21    4.11   382.0    5.8      28.925
2014    9        6     4  27    4.12   381.9    5.8      28.921
2014    9        6     4  33    4.12   381.8    5.8      28.917
2014    9        6     4  38    4.12   381.6    5.8      28.913
2014    9        6     4  44    4.12   381.5    5.8      28.909
2014    9        6     4  49    4.12   381.3    5.8      28.905
2014    9        6     4  55    4.13   381.2    5.8      28.901
2014    9        6     5   1    4.13   381.0    5.8      28.898
2014    9        6     5   6    4.13   380.9    5.8      28.895
2014    9        6     5  12    4.13   380.8    5.8      28.892
2014    9        6     5  18    4.13   380.6    5.8      28.890
2014    9        6     5  23    4.14   380.5    5.8      28.887
2014    9        6     5  29    4.14   380.3    5.8      28.885
2014    9        6     5  34    4.14   380.2    5.8      28.884
2014    9        6     5  40    4.14   380.1    5.9      28.882
2014    9        6     5  46    4.14   379.9    5.9      28.881
2014    9        6     5  51    4.15   379.8    5.9      28.880
2014    9        6     5  57    4.15   379.7    5.9      28.879
2014    9        6     6   2    4.15   379.5    5.9      28.878
2014    9        6     6   8    4.15   379.4    5.9      28.878
2014    9        6     6  14    4.16   379.3    5.9      28.877
2014    9        6     6  19    4.16   379.1    5.9      28.878
2014    9        6     6  25    4.16   379.0    5.9      28.878
2014    9        6     6  30    4.16   378.9    5.9      28.878
2014    9        6     6  36    4.16   378.7    5.9      28.879
2014    9        6     6  42    4.17   378.6    5.9      28.880
2014    9        6     6  47    4.17   378.5    6.0      28.881
2014    9        6     6  53    4.17   378.4    6.0      28.883
2014    9        6     6  58    4.17   378.2    6.0      28.884
2014    9        6     7   4    4.18   378.1    6.0      28.886
2014    9        6     7  10    4.18   378.0    6.0      28.888
2014    9        6     7  15    4.18   377.8    6.0      28.890
2014    9        6     7  21    4.18   377.7    6.0      28.892
2014    9        6     7  27    4.19   377.6    6.0      28.895
2014    9        6     7  32    4.19   377.5    6.0      28.897
2014    9        6     7  38    4.19   377.3    6.0      28.900
2014    9        6     7  43    4.19   377.2    6.0      28.903
2014    9        6     7  49    4.20   377.1    6.1      28.906
2014    9        6     7  55    4.20   377.0    6.1      28.909
2014    9        6     8   0    4.20   376.8    6.1      28.912
2014    9        6     8   6    4.20   376.7    6.1      28.915
2014    9        6     8  11    4.21   376.6    6.1      28.918
2014    9        6     8  17    4.21   376.5    6.1      28.922
2014    9        6     8  23    4.21   376.4    6.1      28.925
2014    9        6     8  28    4.21   376.2    6.1      28.929
2014    9        6     8  34    4.22   376.1    6.1      28.933
2014    9        6     8  39    4.22   376.0    6.1      28.937
2014    9        6     8  45    4.22   375.9    6.1      28.941
2014    9        6     8  51    4.22   375.7    6.2      28.945
2014    9        6     8  56    4.23   375.6    6.2      28.950
2014    9        6     9   2    4.23   375.5    6.2      28.954
2014    9        6     9   7    4.23   375.4    6.2      28.959
2014    9        6     9  13    4.23   375.3    6.2      28.963
2014    9        6     9  19    4.24   375.1    6.2      28.968
2014    9        6     9  24    4.24   375.0    6.2      28.972
2014    9        6     9  30    4.24   374.9    6.2      28.977
2014    9        6     9  36    4.24   374.8    6.2      28.982
2014    9        6     9  41    4.25   374.7    6.2      28.986
2014    9        6     9  47    4.25   374.6    6.2      28.990
2014    9        6     9  52    4.25   374.4    6.2      28.994
2014    9        6     9  58    4.25   374.3    6.3      28.999
2014    9        6    10   4    4.26   374.2    6.3      29.003
2014    9        6    10   9    4.26   374.1    6.3      29.006
2014    9        6    10  15    4.26   374.0    6.3      29.010
2014    9        6    10  20    4.26   373.9    6.3      29.014
2014    9        6    10  26    4.27   373.7    6.3      29.017
2014    9        6    10  32    4.27   373.6    6.3      29.021
2014    9        6    10  37    4.27   373.5    6.3      29.024
2014    9        6    10  43    4.27   373.4    6.3      29.027
2014    9        6    10  48    4.28   373.3    6.3      29.030
2014    9        6    10  54    4.28   373.2    6.3      29.033
2014    9        6    11   0    4.28   373.1    6.3      29.036
2014    9        6    11   5    4.28   372.9    6.4      29.038
2014    9        6    11  11    4.29   372.8    6.4      29.041
2014    9        6    11  16    4.29   372.7    6.4      29.044
2014    9        6    11  22    4.29   372.6    6.4      29.046
2014    9        6    11  28    4.29   372.5    6.4      29.048
2014    9        6    11  33    4.30   372.4    6.4      29.050
2014    9        6    11  39    4.30   372.3    6.4      29.052
2014    9        6    11  45    4.30   372.2    6.4      29.054
2014    9        6    11  50    4.31   372.1    6.4      29.056
2014    9        6    11  56    4.31   371.9    6.4      29.058
2014    9        6    12   1    4.31   371.8    6.4      29.060
2014    9        6    12   7    4.31   371.7    6.4      29.061
2014    9        6    12  13    4.32   371.6    6.4      29.063
2014    9        6    12  18    4.32   371.5    6.4      29.064
2014    9        6    12  24    4.32   371.4    6.5      29.066
2014    9        6    12  29    4.33   371.3    6.5      29.067
2014    9        6    12  35    4.33   371.2    6.5      29.068
2014    9        6    12  41    4.33   371.1    6.5      29.069
2014    9        6    12  46    4.33   371.0    6.5      29.070
2014    9        6    12  52    4.34   370.9    6.5      29.071
2014    9        6    12  57    4.34   370.8    6.5      29.072
2014    9        6    13   3    4.34   370.6    6.5      29.073
2014    9        6    13   9    4.35   370.5    6.5      29.074
2014    9        6    13  14    4.35   370.4    6.5      29.075
2014    9        6    13  20    4.35   370.3    6.5      29.076
2014    9        6    13  25    4.35   370.2    6.5      29.076
2014    9        6    13  31    4.36   370.1    6.5      29.077
2014    9        6    13  37    4.36   370.0    6.5      29.078
2014    9        6    13  42    4.36   369.9    6.6      29.079
2014    9        6    13  48    4.37   369.8    6.6      29.080
2014    9        6    13  54    4.37   369.7    6.6      29.081
2014    9        6    13  59    4.37   369.6    6.6      29.082
2014    9        6    14   5    4.38   369.5    6.6      29.083
2014    9        6    14  10    4.38   369.4    6.6      29.085
2014    9        6    14  16    4.38   369.3    6.6      29.086
2014    9        6    14  22    4.39   369.2    6.6      29.088
2014    9        6    14  27    4.39   369.1    6.6      29.090
2014    9        6    14  33    4.39   369.0    6.6      29.091
2014    9        6    14  38    4.40   368.9    6.6      29.093
2014    9        6    14  44    4.40   368.8    6.6      29.096
2014    9        6    14  50    4.40   368.7    6.6      29.098
2014    9        6    14  55    4.41   368.6    6.7      29.101
2014    9        6    15   1    4.41   368.5    6.7      29.104
2014    9        6    15   6    4.41   368.4    6.7      29.107
2014    9        6    15  12    4.42   368.3    6.7      29.111
2014    9        6    15  18    4.42   368.2    6.7      29.114
2014    9        6    15  23    4.42   368.1    6.7      29.119
2014    9        6    15  29    4.43   368.0    6.7      29.123
2014    9        6    15  34    4.43   367.9    6.7      29.128
2014    9        6    15  40    4.43   367.8    6.7      29.133
2014    9        6    15  46    4.44   367.7    6.7      29.138
2014    9        6    15  51    4.44   367.6    6.7      29.144
2014    9        6    15  57    4.44   367.5    6.7      29.150
2014    9        6    16   3    4.45   367.4    6.8      29.157
2014    9        6    16   8    4.45   367.3    6.8      29.163
2014    9        6    16  14    4.46   367.3    6.8      29.171
2014    9        6    16  19    4.46   367.2    6.8      29.179
2014    9        6    16  25    4.46   367.1    6.8      29.187
2014    9        6    16  31    4.47   367.0    6.8      29.195
2014    9        6    16  36    4.47   366.9    6.8      29.204
2014    9        6    16  42    4.47   366.8    6.8      29.214
2014    9        6    16  47    4.48   366.7    6.8      29.224
2014    9        6    16  53    4.48   366.6    6.8      29.235
2014    9        6    16  59    4.49   366.6    6.9      29.246
2014    9        6    17   4    4.49   366.5    6.9      29.257
2014    9        6    17  10    4.50   366.4    6.9      29.269
2014    9        6    17  15    4.50   366.3    6.9      29.281
2014    9        6    17  21    4.50   366.2    6.9      29.294
2014    9        6    17  27    4.51   366.2    6.9      29.308
2014    9        6    17  32    4.51   366.1    6.9      29.322
2014    9        6    17  38    4.52   366.0    6.9      29.338
2014    9        6    17  43    4.52   366.0    6.9      29.354
2014    9        6    17  49    4.53   365.9    7.0      29.371
2014    9        6    17  55    4.53   365.8    7.0      29.388
2014    9        6    18   0    4.53   365.8    7.0      29.406
2014    9        6    18   6    4.54   365.7    7.0      29.425
2014    9        6    18  12    4.54   365.6    7.0      29.444
2014    9        6    18  17    4.55   365.6    7.0      29.462
2014    9        6    18  23    4.55   365.5    7.0      29.481
2014    9        6    18  28    4.56   365.5    7.0      29.500
2014    9        6    18  34    4.56   365.4    7.0      29.518
2014    9        6    18  40    4.57   365.4    7.1      29.537
2014    9        6    18  45    4.57   365.3    7.1      29.555
2014    9        6    18  51    4.57   365.3    7.1      29.573
2014    9        6    18  56    4.58   365.2    7.1      29.591
2014    9        6    19   2    4.58   365.1    7.1      29.610
2014    9        6    19   8    4.59   365.1    7.1      29.628
2014    9        6    19  13    4.59   365.0    7.1      29.645
2014    9        6    19  19    4.60   365.0    7.1      29.663
2014    9        6    19  24    4.60   364.9    7.1      29.680
2014    9        6    19  30    4.60   364.9    7.2      29.697
2014    9        6    19  36    4.61   364.9    7.2      29.714
2014    9        6    19  41    4.61   364.8    7.2      29.731
2014    9        6    19  47    4.62   364.8    7.2      29.748
2014    9        6    19  53    4.62   364.7    7.2      29.764
2014    9        6    19  58    4.63   364.7    7.2      29.781
2014    9        6    20   4    4.63   364.6    7.2      29.797
2014    9        6    20   9    4.63   364.6    7.2      29.813
2014    9        6    20  15    4.64   364.5    7.2      29.828
2014    9        6    20  21    4.64   364.5    7.2      29.844
2014    9        6    20  26    4.65   364.4    7.3      29.860
2014    9        6    20  32    4.65   364.4    7.3      29.875
2014    9        6    20  37    4.65   364.4    7.3      29.890
2014    9        6    20  43    4.66   364.3    7.3      29.905
2014    9        6    20  49    4.66   364.3    7.3      29.920
2014    9        6    20  54    4.67   364.2    7.3      29.934
2014    9        6    21   0    4.67   364.2    7.3      29.949
2014    9        6    21   5    4.68   364.1    7.3      29.964
2014    9        6    21  11    4.68   364.1    7.3      29.978
2014    9        6    21  17    4.68   364.0    7.3      29.993
2014    9        6    21  22    4.69   364.0    7.3      30.007
2014    9        6    21  28    4.69   363.9    7.4      30.021
2014    9        6    21  33    4.70   363.9    7.4      30.036
2014    9        6    21  39    4.70   363.9    7.4      30.050
2014    9        6    21  45    4.70   363.8    7.4      30.065
2014    9        6    21  50    4.71   363.8    7.4      30.080
2014    9        6    21  56    4.71   363.7    7.4      30.095
2014    9        6    22   2    4.72   363.7    7.4      30.110
2014    9        6    22   7    4.72   363.6    7.4      30.125
2014    9        6    22  13    4.73   363.6    7.4      30.141
2014    9        6    22  18    4.73   363.6    7.4      30.157
2014    9        6    22  24    4.73   363.5    7.5      30.173
2014    9        6    22  30    4.74   363.5    7.5      30.189
2014    9        6    22  35    4.74   363.4    7.5      30.206
2014    9        6    22  41    4.75   363.4    7.5      30.223
2014    9        6    22  46    4.75   363.3    7.5      30.241
2014    9        6    22  52    4.76   363.3    7.5      30.258
2014    9        6    22  58    4.76   363.3    7.5      30.276
2014    9        6    23   3    4.76   363.2    7.5      30.294
2014    9        6    23   9    4.77   363.2    7.5      30.312
2014    9        6    23  14    4.77   363.2    7.5      30.330
2014    9        6    23  20    4.78   363.1    7.5      30.348
2014    9        6    23  26    4.78   363.1    7.6      30.367
2014    9        6    23  31    4.79   363.1    7.6      30.386
2014    9        6    23  37    4.79   363.0    7.6      30.405
2014    9        6    23  42    4.79   363.0    7.6      30.424
2014    9        6    23  48    4.80   362.9    7.6      30.444
2014    9        6    23  54    4.80   362.9    7.6      30.463
2014    9        6    23  59    4.81   362.9    7.6      30.483
2014    9        7     0   5    4.81   362.8    7.6      30.503
2014    9        7     0  11    4.82   362.8    7.6      30.524
2014    9        7     0  16    4.82   362.8    7.6      30.544
2014    9        7     0  22    4.83   362.8    7.6      30.565
2014    9        7     0  27    4.83   362.7    7.7      30.586
2014    9        7     0  33    4.83   362.7    7.7      30.607
2014    9        7     0  39    4.84   362.7    7.7      30.628
2014    9        7     0  44    4.84   362.6    7.7      30.650
2014    9        7     0  50    4.85   362.6    7.7      30.672
2014    9        7     0  55    4.85   362.6    7.7      30.694
2014    9        7     1   1    4.86   362.6    7.7      30.716
2014    9        7     1   7    4.86   362.5    7.7      30.739
2014    9        7     1  12    4.87   362.5    7.7      30.762
2014    9        7     1  18    4.87   362.5    7.7      30.785
2014    9        7     1  23    4.88   362.5    7.8      30.808
2014    9        7     1  29    4.88   362.4    7.8      30.832
2014    9        7     1  35    4.89   362.4    7.8      30.856
2014    9        7     1  40    4.89   362.4    7.8      30.880
2014    9        7     1  46    4.90   362.4    7.8      30.905
2014    9        7     1  51    4.90   362.4    7.8      30.930
2014    9        7     1  57    4.91   362.3    7.8      30.955
2014    9        7     2   3    4.91   362.3    7.8      30.981
2014    9        7     2   8    4.91   362.3    7.8      31.006
2014    9        7     2  14    4.92   362.3    7.8      31.032
2014    9        7     2  20    4.92   362.3    7.9      31.058
2014    9        7     2  25    4.93   362.3    7.9      31.084
2014    9        7     2  31    4.93   362.3    7.9      31.111
2014    9        7     2  36    4.94   362.3    7.9      31.138
2014    9        7     2  42    4.94   362.2    7.9      31.165
2014    9        7     2  48    4.95   362.2    7.9      31.192
2014    9        7     2  53    4.95   362.2    7.9      31.219
2014    9        7     2  59    4.96   362.2    7.9      31.247
2014    9        7     3   4    4.96   362.2    7.9      31.275
2014    9        7     3  10    4.97   362.2    8.0      31.303
2014    9        7     3  16    4.97   362.2    8.0      31.332
2014    9        7     3  21    4.98   362.2    8.0      31.360
2014    9        7     3  27    4.98   362.2    8.0      31.390
2014    9        7     3  32    4.99   362.2    8.0      31.419
2014    9        7     3  38    4.99   362.2    8.0      31.450
2014    9        7     3  44    5.00   362.2    8.0      31.481
2014    9        7     3  49    5.00   362.2    8.0      31.512
2014    9        7     3  55    5.01   362.2    8.0      31.545
2014    9        7     4   0    5.01   362.2    8.0      31.578
2014    9        7     4   6    5.02   362.1    8.1      31.611
2014    9        7     4  12    5.02   362.1    8.1      31.645
2014    9        7     4  17    5.03   362.1    8.1      31.678
2014    9        7     4  23    5.03   362.1    8.1      31.712
2014    9        7     4  29    5.04   362.1    8.1      31.745
2014    9        7     4  34    5.04   362.1    8.1      31.778
2014    9        7     4  40    5.04   362.1    8.1      31.811
2014    9        7     4  45    5.05   362.1    8.1      31.844
2014    9        7     4  51    5.05   362.1    8.1      31.876
2014    9        7     4  57    5.06   362.1    8.1      31.908
2014    9        7     5   2    5.06   362.1    8.1      31.939
2014    9        7     5   8    5.07   362.1    8.1      31.970
2014    9        7     5  13    5.07   362.1    8.2      32.001
2014    9        7     5  19    5.08   362.1    8.2      32.032
2014    9        7     5  25    5.08   362.1    8.2      32.062
2014    9        7     5  30    5.09   362.1    8.2      32.092
2014    9        7     5  36    5.09   362.1    8.2      32.122
2014    9        7     5  41    5.09   362.1    8.2      32.152
2014    9        7     5  47    5.10   362.1    8.2      32.181
2014    9        7     5  53    5.10   362.1    8.2      32.210
2014    9        7     5  58    5.11   362.1    8.2      32.239
2014    9        7     6   4    5.11   362.1    8.2      32.267
2014    9        7     6  10    5.12   362.1    8.2      32.296
2014    9        7     6  15    5.12   362.1    8.2      32.325
2014    9        7     6  21    5.12   362.1    8.2      32.353
2014    9        7     6  26    5.13   362.0    8.3      32.381
2014    9        7     6  32    5.13   362.0    8.3      32.409
2014    9        7     6  38    5.14   362.0    8.3      32.437
2014    9        7     6  43    5.14   362.0    8.3      32.465
2014    9        7     6  49    5.15   362.0    8.3      32.493
2014    9        7     6  54    5.15   362.0    8.3      32.521
2014    9        7     7   0    5.16   362.0    8.3      32.549
2014    9        7     7   6    5.16   362.0    8.3      32.577
2014    9        7     7  11    5.16   362.0    8.3      32.605
2014    9        7     7  17    5.17   362.0    8.3      32.633
2014    9        7     7  22    5.17   362.0    8.3      32.661
2014    9        7     7  28    5.18   362.0    8.3      32.690
2014    9        7     7  34    5.18   362.0    8.3      32.718
2014    9        7     7  39    5.19   362.0    8.4      32.747
2014    9        7     7  45    5.19   362.0    8.4      32.776
2014    9        7     7  50    5.20   362.0    8.4      32.805
2014    9        7     7  56    5.20   362.0    8.4      32.834
2014    9        7     8   2    5.21   362.0    8.4      32.864
2014    9        7     8   7    5.21   362.0    8.4      32.893
2014    9        7     8  13    5.21   362.0    8.4      32.923
2014    9        7     8  19    5.22   362.0    8.4      32.953
2014    9        7     8  24    5.22   362.0    8.4      32.983
2014    9        7     8  30    5.23   362.0    8.4      33.013
2014    9        7     8  35    5.23   362.0    8.4      33.044
2014    9        7     8  41    5.24   362.0    8.4      33.076
2014    9        7     8  47    5.24   362.0    8.4      33.108
2014    9        7     8  52    5.25   362.0    8.5      33.141
2014    9        7     8  58    5.25   362.0    8.5      33.174
2014    9        7     9   3    5.26   362.0    8.5      33.208
2014    9        7     9   9    5.26   362.0    8.5      33.242
2014    9        7     9  15    5.27   362.0    8.5      33.276
2014    9        7     9  20    5.27   362.1    8.5      33.312
2014    9        7     9  26    5.28   362.1    8.5      33.347
2014    9        7     9  31    5.28   362.1    8.5      33.382
2014    9        7     9  37    5.29   362.1    8.5      33.417
2014    9        7     9  43    5.29   362.1    8.5      33.453
2014    9        7     9  48    5.30   362.1    8.5      33.488
2014    9        7     9  54    5.30   362.2    8.5      33.523
2014    9        7     9  59    5.31   362.2    8.5      33.558
2014    9        7    10   5    5.31   362.2    8.5      33.593
2014    9        7    10  11    5.32   362.2    8.6      33.628
2014    9        7    10  16    5.32   362.2    8.6      33.663
2014    9        7    10  22    5.33   362.3    8.6      33.698
2014    9        7    10  28    5.33   362.3    8.6      33.734
2014    9        7    10  33    5.34   362.3    8.6      33.770
2014    9        7    10  39    5.34   362.3    8.6      33.806
2014    9        7    10  44    5.34   362.4    8.6      33.842
2014    9        7    10  50    5.35   362.4    8.6      33.878
2014    9        7    10  56    5.35   362.4    8.6      33.915
2014    9        7    11   1    5.36   362.5    8.6      33.951
2014    9        7    11   7    5.36   362.5    8.6      33.987
2014    9        7    11  12    5.37   362.5    8.6      34.023
2014    9        7    11  18    5.37   362.6    8.6      34.059
2014    9        7    11  24    5.38   362.6    8.6      34.094
2014    9        7    11  29    5.38   362.6    8.7      34.130
2014    9        7    11  35    5.39   362.7    8.7      34.164
2014    9        7    11  40    5.39   362.7    8.7      34.199
2014    9        7    11  46    5.39   362.7    8.7      34.233
2014    9        7    11  52    5.40   362.8    8.7      34.267
2014    9        7    11  57    5.40   362.8    8.7      34.301
2014    9        7    12   3    5.41   362.8    8.7      34.334
2014    9        7    12   8    5.41   362.9    8.7      34.368
2014    9        7    12  14    5.42   362.9    8.7      34.401
2014    9        7    12  20    5.42   362.9    8.7      34.433
2014    9        7    12  25    5.42   363.0    8.7      34.466
2014    9        7    12  31    5.43   363.0    8.7      34.499
2014    9        7    12  37    5.43   363.0    8.7      34.531
2014    9        7    12  42    5.44   363.1    8.7      34.563
2014    9        7    12  48    5.44   363.1    8.7      34.596
2014    9        7    12  53    5.45   363.1    8.7      34.628
2014    9        7    12  59    5.45   363.2    8.7      34.660
2014    9        7    13   5    5.45   363.2    8.7      34.692
2014    9        7    13  10    5.46   363.2    8.8      34.724
2014    9        7    13  16    5.46   363.3    8.8      34.757
2014    9        7    13  21    5.47   363.3    8.8      34.789
2014    9        7    13  27    5.47   363.3    8.8      34.821
2014    9        7    13  33    5.47   363.4    8.8      34.854
2014    9        7    13  38    5.48   363.4    8.8      34.887
2014    9        7    13  44    5.48   363.4    8.8      34.919
2014    9        7    13  49    5.49   363.5    8.8      34.952
2014    9        7    13  55    5.49   363.5    8.8      34.986
2014    9        7    14   1    5.50   363.5    8.8      35.019
2014    9        7    14   6    5.50   363.6    8.8      35.053
2014    9        7    14  12    5.51   363.6    8.8      35.087
2014    9        7    14  17    5.51   363.6    8.8      35.121
2014    9        7    14  23    5.52   363.7    8.8      35.156
2014    9        7    14  29    5.52   363.7    8.8      35.191
2014    9        7    14  34    5.52   363.8    8.9      35.226
2014    9        7    14  40    5.53   363.8    8.9      35.262
2014    9        7    14  46    5.53   363.8    8.9      35.298
2014    9        7    14  51    5.54   363.9    8.9      35.335
2014    9        7    14  57    5.54   363.9    8.9      35.374
2014    9        7    15   2    5.55   364.0    8.9      35.413
2014    9        7    15   8    5.55   364.0    8.9      35.455
2014    9        7    15  14    5.56   364.1    8.9      35.498
2014    9        7    15  19    5.56   364.1    8.9      35.542
2014    9        7    15  25    5.57   364.2    8.9      35.588
2014    9        7    15  30    5.57   364.3    8.9      35.635
2014    9        7    15  36    5.58   364.3    9.0      35.684
2014    9        7    15  42    5.58   364.4    9.0      35.732
2014    9        7    15  47    5.59   364.5    9.0      35.781
2014    9        7    15  53    5.59   364.5    9.0      35.830
2014    9        7    15  58    5.60   364.6    9.0      35.878
2014    9        7    16   4    5.60   364.7    9.0      35.925
2014    9        7    16  10    5.61   364.7    9.0      35.972
2014    9        7    16  15    5.61   364.8    9.0      36.019
2014    9        7    16  21    5.61   364.9    9.0      36.064
2014    9        7    16  27    5.62   364.9    9.0      36.110
2014    9        7    16  32    5.62   365.0    9.0      36.154
2014    9        7    16  38    5.63   365.1    9.0      36.199
2014    9        7    16  43    5.63   365.2    9.0      36.242
2014    9        7    16  49    5.64   365.2    9.0      36.284
2014    9        7    16  55    5.64   365.3    9.0      36.326
2014    9        7    17   0    5.64   365.4    9.0      36.367
2014    9        7    17   6    5.65   365.5    9.1      36.408
2014    9        7    17  11    5.65   365.5    9.1      36.448
2014    9        7    17  17    5.66   365.6    9.1      36.488
2014    9        7    17  23    5.66   365.7    9.1      36.526
2014    9        7    17  28    5.66   365.7    9.1      36.565
2014    9        7    17  34    5.67   365.8    9.1      36.603
2014    9        7    17  39    5.67   365.9    9.1      36.640
2014    9        7    17  45    5.67   366.0    9.1      36.677
2014    9        7    17  51    5.68   366.0    9.1      36.713
2014    9        7    17  56    5.68   366.1    9.1      36.749
2014    9        7    18   2    5.69   366.2    9.1      36.785
2014    9        7    18   7    5.69   366.2    9.1      36.819
2014    9        7    18  13    5.69   366.3    9.1      36.854
2014    9        7    18  19    5.70   366.4    9.1      36.888
2014    9        7    18  24    5.70   366.5    9.1      36.922
2014    9        7    18  30    5.70   366.5    9.1      36.955
2014    9        7    18  36    5.71   366.6    9.1      36.988
2014    9        7    18  41    5.71   366.7    9.1      37.020
2014    9        7    18  47    5.71   366.7    9.1      37.053
2014    9        7    18  52    5.72   366.8    9.1      37.084
2014    9        7    18  58    5.72   366.9    9.1      37.116
2014    9        7    19   4    5.72   366.9    9.1      37.147
2014    9        7    19   9    5.73   367.0    9.1      37.178
2014    9        7    19  15    5.73   367.1    9.1      37.209
2014    9        7    19  20    5.74   367.2    9.1      37.239
2014    9        7    19  26    5.74   367.2    9.1      37.270
2014    9        7    19  32    5.74   367.3    9.1      37.300
2014    9        7    19  37    5.75   367.4    9.1      37.330
2014    9        7    19  43    5.75   367.4    9.1      37.359
2014    9        7    19  48    5.75   367.5    9.1      37.389
2014    9        7    19  54    5.76   367.6    9.1      37.419
2014    9        7    20   0    5.76   367.6    9.1      37.448
2014    9        7    20   5    5.76   367.7    9.1      37.477
2014    9        7    20  11    5.77   367.8    9.1      37.507
2014    9        7    20  16    5.77   367.9    9.1      37.536
2014    9        7    20  22    5.77   367.9    9.1      37.565
2014    9        7    20  28    5.78   368.0    9.1      37.594
2014    9        7    20  33    5.78   368.1    9.1      37.624
2014    9        7    20  39    5.78   368.1    9.1      37.653
2014    9        7    20  45    5.79   368.2    9.1      37.682
2014    9        7    20  50    5.79   368.3    9.1      37.712
2014    9        7    20  56    5.79   368.4    9.1      37.741
2014    9        7    21   1    5.80   368.4    9.1      37.771
2014    9        7    21   7    5.80   368.5    9.1      37.801
2014    9        7    21  13    5.80   368.6    9.2      37.831
2014    9        7    21  18    5.81   368.6    9.2      37.861
2014    9        7    21  24    5.81   368.7    9.2      37.891
2014    9        7    21  29    5.81   368.8    9.2      37.921
2014    9        7    21  35    5.82   368.9    9.2      37.952
2014    9        7    21  41    5.82   368.9    9.2      37.983
2014    9        7    21  46    5.82   369.0    9.2      38.014
2014    9        7    21  52    5.83   369.1    9.2      38.046
2014    9        7    21  57    5.83   369.2    9.2      38.078
2014    9        7    22   3    5.84   369.2    9.2      38.110
2014    9        7    22   9    5.84   369.3    9.2      38.143
2014    9        7    22  14    5.84   369.4    9.2      38.177
2014    9        7    22  20    5.85   369.5    9.2      38.212
2014    9        7    22  25    5.85   369.5    9.2      38.247
2014    9        7    22  31    5.86   369.6    9.2      38.283
2014    9        7    22  37    5.86   369.7    9.2      38.321
2014    9        7    22  42    5.86   369.8    9.2      38.361
2014    9        7    22  48    5.87   369.9    9.2      38.401
2014    9        7    22  54    5.87   370.0    9.2      38.444
2014    9        7    22  59    5.88   370.1    9.2      38.487
2014    9        7    23   5    5.88   370.2    9.3      38.531
2014    9        7    23  10    5.88   370.3    9.3      38.576
2014    9        7    23  16    5.89   370.4    9.3      38.623
2014    9        7    23  22    5.89   370.5    9.3      38.670
2014    9        7    23  27    5.90   370.6    9.3      38.717
2014    9        7    23  33    5.90   370.7    9.3      38.764
2014    9        7    23  38    5.91   370.8    9.3      38.811
2014    9        7    23  44    5.91   370.9    9.3      38.858
2014    9        7    23  50    5.91   371.0    9.3      38.907
2014    9        7    23  55    5.92   371.1    9.3      38.957
2014    9        8     0   1    5.92   371.2    9.3      39.008
2014    9        8     0   6    5.93   371.4    9.3      39.059
2014    9        8     0  12    5.93   371.5    9.3      39.111
2014    9        8     0  18    5.94   371.6    9.3      39.165
2014    9        8     0  23    5.94   371.7    9.3      39.219
2014    9        8     0  29    5.94   371.9    9.3      39.273
2014    9        8     0  35    5.95   372.0    9.4      39.328
2014    9        8     0  40    5.95   372.1    9.4      39.382
2014    9        8     0  46    5.95   372.3    9.4      39.434
2014    9        8     0  51    5.96   372.4    9.4      39.486
2014    9        8     0  57    5.96   372.5    9.4      39.536
2014    9        8     1   3    5.96   372.7    9.4      39.586
2014    9        8     1   8    5.97   372.8    9.4      39.635
2014    9        8     1  14    5.97   372.9    9.4      39.683
2014    9        8     1  19    5.97   373.1    9.4      39.730
2014    9        8     1  25    5.98   373.2    9.4      39.776
2014    9        8     1  31    5.98   373.3    9.4      39.821
2014    9        8     1  36    5.98   373.5    9.4      39.864
2014    9        8     1  42    5.99   373.6    9.4      39.907
2014    9        8     1  47    5.99   373.7    9.4      39.949
2014    9        8     1  53    5.99   373.9    9.4      39.990
2014    9        8     1  59    5.99   374.0    9.4      40.030
2014    9        8     2   4    6.00   374.1    9.4      40.070
2014    9        8     2  10    6.00   374.3    9.4      40.108
2014    9        8     2  15    6.00   374.4    9.4      40.146
2014    9        8     2  21    6.00   374.5    9.4      40.183
2014    9        8     2  27    6.01   374.6    9.4      40.219
2014    9        8     2  32    6.01   374.8    9.4      40.255
2014    9        8     2  38    6.01   374.9    9.4      40.290
2014    9        8     2  44    6.01   375.0    9.4      40.324
2014    9        8     2  49    6.02   375.2    9.4      40.358
2014    9        8     2  55    6.02   375.3    9.4      40.391
2014    9        8     3   0    6.02   375.4    9.4      40.423
2014    9        8     3   6    6.02   375.5    9.4      40.455
2014    9        8     3  12    6.03   375.7    9.4      40.487
2014    9        8     3  17    6.03   375.8    9.4      40.518
2014    9        8     3  23    6.03   375.9    9.4      40.548
2014    9        8     3  28    6.03   376.0    9.4      40.578
2014    9        8     3  34    6.03   376.2    9.4      40.607
2014    9        8     3  40    6.04   376.3    9.4      40.636
2014    9        8     3  45    6.04   376.4    9.4      40.665
2014    9        8     3  51    6.04   376.5    9.4      40.693
2014    9        8     3  56    6.04   376.7    9.4      40.721
2014    9        8     4   2    6.05   376.8    9.4      40.749
2014    9        8     4   8    6.05   376.9    9.3      40.776
2014    9        8     4  13    6.05   377.0    9.3      40.803
2014    9        8     4  19    6.05   377.2    9.3      40.830
2014    9        8     4  24    6.05   377.3    9.3      40.856
2014    9        8     4  30    6.06   377.4    9.3      40.882
2014    9        8     4  36    6.06   377.5    9.3      40.908
2014    9        8     4  41    6.06   377.7    9.3      40.934
2014    9        8     4  47    6.06   377.8    9.3      40.960
2014    9        8     4  53    6.07   377.9    9.3      40.985
2014    9        8     4  58    6.07   378.0    9.3      41.011
2014    9        8     5   4    6.07   378.1    9.3      41.036
2014    9        8     5   9    6.07   378.3    9.3      41.062
2014    9        8     5  15    6.07   378.4    9.3      41.087
2014    9        8     5  21    6.08   378.5    9.3      41.113
2014    9        8     5  26    6.08   378.6    9.3      41.140
2014    9        8     5  32    6.08   378.7    9.3      41.166
2014    9        8     5  37    6.08   378.9    9.3      41.193
2014    9        8     5  43    6.09   379.0    9.3      41.221
2014    9        8     5  49    6.09   379.1    9.3      41.248
2014    9        8     5  54    6.09   379.2    9.3      41.277
2014    9        8     6   0    6.09   379.4    9.3      41.305
2014    9        8     6   5    6.10   379.5    9.3      41.334
2014    9        8     6  11    6.10   379.6    9.3      41.364
2014    9        8     6  17    6.10   379.7    9.3      41.393
2014    9        8     6  22    6.10   379.9    9.3      41.423
2014    9        8     6  28    6.11   380.0    9.3      41.454
2014    9        8     6  33    6.11   380.1    9.3      41.485
2014    9        8     6  39    6.11   380.2    9.3      41.517
2014    9        8     6  45    6.11   380.4    9.3      41.548
2014    9        8     6  50    6.12   380.5    9.3      41.581
2014    9        8     6  56    6.12   380.6    9.3      41.613
2014    9        8     7   2    6.12   380.7    9.3      41.646
2014    9        8     7   7    6.12   380.9    9.3      41.681
2014    9        8     7  13    6.13   381.0    9.3      41.717
2014    9        8     7  18    6.13   381.1    9.3      41.755
2014    9        8     7  24    6.13   381.3    9.3      41.793
2014    9        8     7  30    6.14   381.4    9.3      41.833
2014    9        8     7  35    6.14   381.6    9.3      41.875
2014    9        8     7  41    6.14   381.7    9.3      41.917
2014    9        8     7  46    6.14   381.9    9.3      41.961
2014    9        8     7  52    6.15   382.0    9.3      42.005
2014    9        8     7  58    6.15   382.2    9.3      42.048
2014    9        8     8   3    6.15   382.3    9.3      42.091
2014    9        8     8   9    6.15   382.5    9.3      42.134
2014    9        8     8  14    6.16   382.6    9.3      42.176
2014    9        8     8  20    6.16   382.8    9.3      42.218
2014    9        8     8  26    6.16   382.9    9.3      42.260
2014    9        8     8  31    6.16   383.1    9.3      42.301
2014    9        8     8  37    6.16   383.3    9.3      42.342
2014    9        8     8  43    6.17   383.4    9.3      42.383
2014    9        8     8  48    6.17   383.6    9.3      42.423
2014    9        8     8  54    6.17   383.7    9.3      42.464
2014    9        8     8  59    6.17   383.9    9.3      42.503
2014    9        8     9   5    6.17   384.1    9.3      42.543
2014    9        8     9  11    6.18   384.2    9.3      42.582
2014    9        8     9  16    6.18   384.4    9.3      42.621
2014    9        8     9  22    6.18   384.5    9.3      42.660
2014    9        8     9  27    6.18   384.7    9.3      42.698
2014    9        8     9  33    6.18   384.9    9.3      42.736
2014    9        8     9  39    6.18   385.0    9.3      42.772
2014    9        8     9  44    6.19   385.2    9.3      42.808
2014    9        8     9  50    6.19   385.4    9.3      42.844
2014    9        8     9  55    6.19   385.5    9.3      42.879
2014    9        8    10   1    6.19   385.7    9.3      42.913
2014    9        8    10   7    6.19   385.8    9.3      42.946
2014    9        8    10  12    6.19   386.0    9.3      42.979
2014    9        8    10  18    6.19   386.2    9.3      43.012
2014    9        8    10  23    6.19   386.3    9.3      43.044
2014    9        8    10  29    6.20   386.5    9.3      43.075
2014    9        8    10  35    6.20   386.6    9.3      43.105
2014    9        8    10  40    6.20   386.8    9.3      43.136
2014    9        8    10  46    6.20   387.0    9.3      43.165
2014    9        8    10  52    6.20   387.1    9.3      43.195
2014    9        8    10  57    6.20   387.3    9.3      43.223
2014    9        8    11   3    6.20   387.4    9.3      43.252
2014    9        8    11   8    6.20   387.6    9.3      43.280
2014    9        8    11  14    6.20   387.8    9.3      43.307
2014    9        8    11  20    6.20   387.9    9.2      43.335
2014    9        8    11  25    6.21   388.1    9.2      43.362
2014    9        8    11  31    6.21   388.2    9.2      43.388
2014    9        8    11  36    6.21   388.4    9.2      43.415
2014    9        8    11  42    6.21   388.5    9.2      43.441
2014    9        8    11  48    6.21   388.7    9.2      43.466
2014    9        8    11  53    6.21   388.9    9.2      43.492
2014    9        8    11  59    6.21   389.0    9.2      43.517
2014    9        8    12   4    6.21   389.2    9.2      43.543
2014    9        8    12  10    6.21   389.3    9.2      43.568
2014    9        8    12  16    6.21   389.5    9.2      43.592
2014    9        8    12  21    6.21   389.6    9.2      43.617
2014    9        8    12  27    6.21   389.8    9.2      43.642
2014    9        8    12  32    6.21   389.9    9.2      43.667
2014    9        8    12  38    6.22   390.1    9.2      43.693
2014    9        8    12  44    6.22   390.3    9.2      43.719
2014    9        8    12  49    6.22   390.4    9.2      43.744
2014    9        8    12  55    6.22   390.6    9.2      43.770
2014    9        8    13   1    6.22   390.7    9.2      43.797
2014    9        8    13   6    6.22   390.9    9.2      43.822
2014    9        8    13  12    6.22   391.1    9.2      43.848
2014    9        8    13  17    6.22   391.2    9.1      43.874
2014    9        8    13  23    6.22   391.4    9.1      43.899
2014    9        8    13  29    6.22   391.5    9.1      43.925
2014    9        8    13  34    6.22   391.7    9.1      43.950
2014    9        8    13  40    6.22   391.8    9.1      43.974
2014    9        8    13  45    6.22   392.0    9.1      43.999
2014    9        8    13  51    6.22   392.2    9.1      44.024
2014    9        8    13  57    6.22   392.3    9.1      44.048
2014    9        8    14   2    6.22   392.5    9.1      44.072
2014    9        8    14   8    6.22   392.6    9.1      44.095
2014    9        8    14  13    6.22   392.8    9.1      44.118
2014    9        8    14  19    6.22   392.9    9.1      44.141
2014    9        8    14  25    6.22   393.1    9.1      44.163
2014    9        8    14  30    6.22   393.3    9.1      44.185
2014    9        8    14  36    6.22   393.4    9.1      44.207
2014    9        8    14  42    6.22   393.6    9.1      44.229
2014    9        8    14  47    6.22   393.7    9.1      44.250
2014    9        8    14  53    6.22   393.9    9.1      44.271
2014    9        8    14  58    6.22   394.0    9.1      44.292
2014    9        8    15   4    6.22   394.2    9.0      44.313
2014    9        8    15  10    6.22   394.3    9.0      44.333
2014    9        8    15  15    6.22   394.5    9.0      44.353
2014    9        8    15  21    6.22   394.6    9.0      44.374
2014    9        8    15  26    6.22   394.8    9.0      44.394
2014    9        8    15  32    6.22   394.9    9.0      44.414
2014    9        8    15  38    6.22   395.1    9.0      44.434
2014    9        8    15  43    6.22   395.2    9.0      44.454
2014    9        8    15  49    6.22   395.4    9.0      44.474
2014    9        8    15  54    6.22   395.5    9.0      44.493
2014    9        8    16   0    6.22   395.7    9.0      44.513
2014    9        8    16   6    6.22   395.8    9.0      44.533
2014    9        8    16  11    6.22   396.0    9.0      44.553
2014    9        8    16  17    6.22   396.1    9.0      44.574
2014    9        8    16  22    6.22   396.3    9.0      44.594
2014    9        8    16  28    6.22   396.4    9.0      44.614
2014    9        8    16  34    6.22   396.6    9.0      44.635
2014    9        8    16  39    6.22   396.8    8.9      44.655
2014    9        8    16  45    6.22   396.9    8.9      44.675
2014    9        8    16  51    6.22   397.1    8.9      44.695
2014    9        8    16  56    6.22   397.2    8.9      44.715
2014    9        8    17   2    6.22   397.4    8.9      44.733
2014    9        8    17   7    6.22   397.5    8.9      44.752
2014    9        8    17  13    6.22   397.6    8.9      44.770
2014    9        8    17  19    6.22   397.8    8.9      44.788
2014    9        8    17  24    6.22   397.9    8.9      44.806
2014    9        8    17  30    6.22   398.1    8.9      44.823
2014    9        8    17  35    6.22   398.2    8.9      44.840
2014    9        8    17  41    6.22   398.4    8.9      44.856
2014    9        8    17  47    6.22   398.5    8.9      44.873
2014    9        8    17  52    6.21   398.7    8.9      44.888
2014    9        8    17  58    6.21   398.8    8.9      44.904
2014    9        8    18   3    6.21   399.0    8.9      44.919
2014    9        8    18   9    6.21   399.1    8.8      44.934
2014    9        8    18  15    6.21   399.2    8.8      44.948
2014    9        8    18  20    6.21   399.4    8.8      44.963
2014    9        8    18  26    6.21   399.5    8.8      44.977
2014    9        8    18  31    6.21   399.7    8.8      44.991
2014    9        8    18  37    6.21   399.8    8.8      45.005
2014    9        8    18  43    6.21   399.9    8.8      45.018
2014    9        8    18  48    6.21   400.1    8.8      45.031
2014    9        8    18  54    6.20   400.2    8.8      45.044
2014    9        8    19   0    6.20   400.4    8.8      45.057
2014    9        8    19   5    6.20   400.5    8.8      45.071
2014    9        8    19  11    6.20   400.6    8.8      45.083
2014    9        8    19  16    6.20   400.8    8.8      45.096
2014    9        8    19  22    6.20   400.9    8.8      45.108
2014    9        8    19  28    6.20   401.0    8.8      45.121
2014    9        8    19  33    6.20   401.2    8.7      45.133
2014    9        8    19  39    6.20   401.3    8.7      45.146
2014    9        8    19  44    6.20   401.4    8.7      45.159
2014    9        8    19  50    6.19   401.6    8.7      45.173
2014    9        8    19  56    6.19   401.7    8.7      45.186
2014    9        8    20   1    6.19   401.8    8.7      45.200
2014    9        8    20   7    6.19   402.0    8.7      45.215
2014    9        8    20  12    6.19   402.1    8.7      45.229
2014    9        8    20  18    6.19   402.2    8.7      45.243
2014    9        8    20  24    6.19   402.4    8.7      45.257
2014    9        8    20  29    6.19   402.5    8.7      45.271
2014    9        8    20  35    6.18   402.6    8.7      45.285
2014    9        8    20  41    6.18   402.8    8.7      45.298
2014    9        8    20  46    6.18   402.9    8.7      45.312
2014    9        8    20  52    6.18   403.0    8.7      45.325
2014    9        8    20  57    6.18   403.2    8.7      45.337
2014    9        8    21   3    6.18   403.3    8.6      45.350
2014    9        8    21   9    6.17   403.5    8.6      45.361
2014    9        8    21  14    6.17   403.6    8.6      45.373
2014    9        8    21  20    6.17   403.7    8.6      45.384
2014    9        8    21  25    6.17   403.9    8.6      45.394
2014    9        8    21  31    6.17   404.0    8.6      45.404
2014    9        8    21  37    6.17   404.1    8.6      45.413
2014    9        8    21  42    6.16   404.2    8.6      45.422
2014    9        8    21  48    6.16   404.4    8.6      45.431
2014    9        8    21  53    6.16   404.5    8.6      45.439
2014    9        8    21  59    6.16   404.6    8.6      45.447
2014    9        8    22   5    6.16   404.8    8.6      45.454
2014    9        8    22  10    6.15   404.9    8.6      45.461
2014    9        8    22  16    6.15   405.0    8.5      45.467
2014    9        8    22  21    6.15   405.2    8.5      45.473
2014    9        8    22  27    6.15   405.3    8.5      45.479
2014    9        8    22  33    6.15   405.4    8.5      45.484
2014    9        8    22  38    6.14   405.5    8.5      45.489
2014    9        8    22  44    6.14   405.7    8.5      45.493
2014    9        8    22  50    6.14   405.8    8.5      45.497
2014    9        8    22  55    6.14   405.9    8.5      45.501
2014    9        8    23   1    6.13   406.0    8.5      45.504
2014    9        8    23   6    6.13   406.1    8.5      45.506
2014    9        8    23  12    6.13   406.3    8.5      45.509
2014    9        8    23  18    6.13   406.4    8.5      45.511
2014    9        8    23  23    6.12   406.5    8.5      45.512
2014    9        8    23  29    6.12   406.6    8.4      45.513
2014    9        8    23  34    6.12   406.8    8.4      45.514
2014    9        8    23  40    6.12   406.9    8.4      45.515
2014    9        8    23  46    6.12   407.0    8.4      45.515
2014    9        8    23  51    6.11   407.1    8.4      45.515
2014    9        8    23  57    6.11   407.2    8.4      45.514
2014    9        9     0   2    6.11   407.3    8.4      45.513
2014    9        9     0   8    6.11   407.4    8.4      45.512
2014    9        9     0  14    6.10   407.6    8.4      45.510
2014    9        9     0  19    6.10   407.7    8.4      45.508
2014    9        9     0  25    6.10   407.8    8.4      45.506
2014    9        9     0  30    6.10   407.9    8.4      45.504
2014    9        9     0  36    6.09   408.0    8.3      45.501
2014    9        9     0  42    6.09   408.1    8.3      45.498
2014    9        9     0  47    6.09   408.2    8.3      45.495
2014    9        9     0  53    6.09   408.3    8.3      45.491
2014    9        9     0  59    6.08   408.4    8.3      45.487
2014    9        9     1   4    6.08   408.5    8.3      45.483
2014    9        9     1  10    6.08   408.6    8.3      45.478
2014    9        9     1  15    6.08   408.7    8.3      45.474
2014    9        9     1  21    6.07   408.8    8.3      45.469
2014    9        9     1  27    6.07   408.9    8.3      45.464
2014    9        9     1  32    6.07   409.0    8.3      45.459
2014    9        9     1  38    6.07   409.1    8.3      45.453
2014    9        9     1  43    6.06   409.2    8.2      45.448
2014    9        9     1  49    6.06   409.3    8.2      45.443
2014    9        9     1  55    6.06   409.4    8.2      45.437
2014    9        9     2   0    6.06   409.5    8.2      45.431
2014    9        9     2   6    6.05   409.6    8.2      45.426
2014    9        9     2  11    6.05   409.7    8.2      45.420
2014    9        9     2  17    6.05   409.8    8.2      45.415
2014    9        9     2  23    6.05   409.9    8.2      45.409
2014    9        9     2  28    6.04   409.9    8.2      45.404
2014    9        9     2  34    6.04   410.0    8.2      45.399
2014    9        9     2  39    6.04   410.1    8.2      45.394
2014    9        9     2  45    6.04   410.2    8.2      45.389
2014    9        9     2  51    6.03   410.3    8.2      45.384
2014    9        9     2  56    6.03   410.4    8.2      45.380
2014    9        9     3   2    6.03   410.4    8.2      45.375
2014    9        9     3   8    6.03   410.5    8.1      45.371
2014    9        9     3  13    6.02   410.6    8.1      45.367
2014    9        9     3  19    6.02   410.7    8.1      45.364
2014    9        9     3  24    6.02   410.8    8.1      45.360
2014    9        9     3  30    6.02   410.8    8.1      45.356
2014    9        9     3  36    6.01   410.9    8.1      45.353
2014    9        9     3  41    6.01   411.0    8.1      45.350
2014    9        9     3  47    6.01   411.1    8.1      45.348
2014    9        9     3  52    6.01   411.1    8.1      45.346
2014    9        9     3  58    6.00   411.2    8.1      45.344
2014    9        9     4   4    6.00   411.3    8.1      45.343
2014    9        9     4   9    6.00   411.4    8.1      45.341
2014    9        9     4  15    6.00   411.4    8.1      45.340
2014    9        9     4  20    5.99   411.5    8.1      45.339
2014    9        9     4  26    5.99   411.6    8.1      45.337
2014    9        9     4  32    5.99   411.7    8.1      45.336
2014    9        9     4  37    5.99   411.7    8.1      45.333
2014    9        9     4  43    5.99   411.8    8.1      45.331
2014    9        9     4  49    5.98   411.9    8.1      45.328
2014    9        9     4  54    5.98   412.0    8.0      45.324
2014    9        9     5   0    5.98   412.0    8.0      45.321
2014    9        9     5   5    5.98   412.1    8.0      45.316
2014    9        9     5  11    5.97   412.2    8.0      45.312
2014    9        9     5  17    5.97   412.2    8.0      45.307
2014    9        9     5  22    5.97   412.3    8.0      45.302
2014    9        9     5  28    5.97   412.4    8.0      45.297
2014    9        9     5  33    5.96   412.5    8.0      45.291
2014    9        9     5  39    5.96   412.5    8.0      45.285
2014    9        9     5  45    5.96   412.6    8.0      45.279
2014    9        9     5  50    5.96   412.7    8.0      45.272
2014    9        9     5  56    5.95   412.7    8.0      45.265
2014    9        9     6   1    5.95   412.8    8.0      45.257
2014    9        9     6   7    5.95   412.9    8.0      45.250
2014    9        9     6  13    5.95   412.9    8.0      45.242
2014    9        9     6  18    5.94   413.0    8.0      45.234
2014    9        9     6  24    5.94   413.1    8.0      45.225
2014    9        9     6  29    5.94   413.1    7.9      45.217
2014    9        9     6  35    5.94   413.2    7.9      45.208
2014    9        9     6  41    5.93   413.3    7.9      45.199
2014    9        9     6  46    5.93   413.3    7.9      45.189
2014    9        9     6  52    5.93   413.4    7.9      45.180
2014    9        9     6  58    5.93   413.5    7.9      45.170
2014    9        9     7   3    5.92   413.5    7.9      45.160
2014    9        9     7   9    5.92   413.6    7.9      45.150
2014    9        9     7  14    5.92   413.6    7.9      45.139
2014    9        9     7  20    5.91   413.7    7.9      45.129
2014    9        9     7  26    5.91   413.8    7.9      45.118
2014    9        9     7  31    5.91   413.8    7.9      45.107
2014    9        9     7  37    5.91   413.9    7.9      45.095
2014    9        9     7  42    5.90   413.9    7.9      45.084
2014    9        9     7  48    5.90   414.0    7.9      45.072
2014    9        9     7  54    5.90   414.1    7.9      45.060
2014    9        9     7  59    5.90   414.1    7.8      45.048
2014    9        9     8   5    5.89   414.2    7.8      45.036
2014    9        9     8  10    5.89   414.2    7.8      45.024
2014    9        9     8  16    5.89   414.3    7.8      45.011
2014    9        9     8  22    5.88   414.3    7.8      44.999
2014    9        9     8  27    5.88   414.4    7.8      44.986
2014    9        9     8  33    5.88   414.4    7.8      44.973
2014    9        9     8  38    5.88   414.5    7.8      44.960
2014    9        9     8  44    5.87   414.5    7.8      44.947
2014    9        9     8  50    5.87   414.6    7.8      44.934
2014    9        9     8  55    5.87   414.6    7.8      44.921
2014    9        9     9   1    5.87   414.7    7.8      44.908
2014    9        9     9   7    5.86   414.7    7.8      44.895
2014    9        9     9  12    5.86   414.8    7.8      44.882
2014    9        9     9  18    5.86   414.8    7.8      44.870
2014    9        9     9  23    5.86   414.9    7.8      44.857
2014    9        9     9  29    5.85   414.9    7.8      44.844
2014    9        9     9  35    5.85   414.9    7.8      44.832
2014    9        9     9  40    5.85   415.0    7.7      44.820
2014    9        9     9  46    5.85   415.0    7.7      44.808
2014    9        9     9  51    5.84   415.1    7.7      44.796
2014    9        9     9  57    5.84   415.1    7.7      44.785
2014    9        9    10   3    5.84   415.1    7.7      44.773
2014    9        9    10   8    5.84   415.2    7.7      44.762
2014    9        9    10  14    5.83   415.2    7.7      44.752
2014    9        9    10  19    5.83   415.2    7.7      44.741
2014    9        9    10  25    5.83   415.3    7.7      44.731
2014    9        9    10  31    5.83   415.3    7.7      44.721
2014    9        9    10  36    5.82   415.3    7.7      44.711
2014    9        9    10  42    5.82   415.4    7.7      44.701
2014    9        9    10  47    5.82   415.4    7.7      44.691
2014    9        9    10  53    5.82   415.4    7.7      44.683
2014    9        9    10  59    5.82   415.5    7.7      44.674
2014    9        9    11   4    5.81   415.5    7.7      44.666
2014    9        9    11  10    5.81   415.5    7.7      44.659
2014    9        9    11  16    5.81   415.6    7.7      44.651
2014    9        9    11  21    5.81   415.6    7.7      44.644
2014    9        9    11  27    5.81   415.6    7.7      44.637
2014    9        9    11  32    5.80   415.7    7.7      44.630
2014    9        9    11  38    5.80   415.7    7.7      44.623
2014    9        9    11  44    5.80   415.7    7.7      44.617
2014    9        9    11  49    5.80   415.8    7.7      44.609
2014    9        9    11  55    5.80   415.8    7.7      44.602
2014    9        9    12   0    5.80   415.8    7.7      44.594
2014    9        9    12   6    5.79   415.8    7.7      44.587
2014    9        9    12  12    5.79   415.9    7.7      44.579
2014    9        9    12  17    5.79   415.9    7.7      44.571
2014    9        9    12  23    5.79   415.9    7.7      44.563
2014    9        9    12  28    5.79   416.0    7.6      44.554
2014    9        9    12  34    5.78   416.0    7.6      44.546
2014    9        9    12  40    5.78   416.0    7.6      44.538
2014    9        9    12  45    5.78   416.0    7.6      44.529
2014    9        9    12  51    5.78   416.1    7.6      44.520
2014    9        9    12  57    5.78   416.1    7.6      44.511
2014    9        9    13   2    5.78   416.1    7.6      44.502
2014    9        9    13   8    5.77   416.1    7.6      44.493
2014    9        9    13  13    5.77   416.2    7.6      44.484
2014    9        9    13  19    5.77   416.2    7.6      44.475
2014    9        9    13  25    5.77   416.2    7.6      44.466
2014    9        9    13  30    5.77   416.2    7.6      44.457
2014    9        9    13  36    5.76   416.3    7.6      44.447
2014    9        9    13  41    5.76   416.3    7.6      44.438
2014    9        9    13  47    5.76   416.3    7.6      44.429
2014    9        9    13  53    5.76   416.3    7.6      44.419
2014    9        9    13  58    5.76   416.4    7.6      44.410
2014    9        9    14   4    5.76   416.4    7.6      44.401
2014    9        9    14   9    5.75   416.4    7.6      44.392
2014    9        9    14  15    5.75   416.4    7.6      44.383
2014    9        9    14  21    5.75   416.5    7.6      44.373
2014    9        9    14  26    5.75   416.5    7.6      44.364
2014    9        9    14  32    5.75   416.5    7.6      44.355
2014    9        9    14  37    5.75   416.5    7.6      44.346
2014    9        9    14  43    5.74   416.5    7.6      44.337
2014    9        9    14  49    5.74   416.6    7.6      44.328
2014    9        9    14  54    5.74   416.6    7.6      44.320
2014    9        9    15   0    5.74   416.6    7.6      44.311
2014    9        9    15   6    5.74   416.6    7.6      44.302
2014    9        9    15  11    5.73   416.7    7.6      44.294
2014    9        9    15  17    5.73   416.7    7.6      44.285
2014    9        9    15  22    5.73   416.7    7.6      44.277
2014    9        9    15  28    5.73   416.7    7.6      44.268
2014    9        9    15  34    5.73   416.7    7.6      44.260
2014    9        9    15  39    5.73   416.7    7.6      44.251
2014    9        9    15  45    5.72   416.8    7.6      44.243
2014    9        9    15  50    5.72   416.8    7.6      44.235
2014    9        9    15  56    5.72   416.8    7.5      44.227
2014    9        9    16   2    5.72   416.8    7.5      44.219
2014    9        9    16   7    5.72   416.8    7.5      44.211
2014    9        9    16  13    5.72   416.9    7.5      44.203
2014    9        9    16  18    5.72   416.9    7.5      44.195
2014    9        9    16  24    5.71   416.9    7.5      44.188
2014    9        9    16  30    5.71   416.9    7.5      44.180
2014    9        9    16  35    5.71   416.9    7.5      44.172
2014    9        9    16  41    5.71   416.9    7.5      44.163
2014    9        9    16  46    5.71   417.0    7.5      44.155
2014    9        9    16  52    5.71   417.0    7.5      44.147
2014    9        9    16  58    5.71   417.0    7.5      44.139
2014    9        9    17   3    5.70   417.0    7.5      44.130
2014    9        9    17   9    5.70   417.0    7.5      44.122
2014    9        9    17  15    5.70   417.1    7.5      44.113
2014    9        9    17  20    5.70   417.1    7.5      44.105
2014    9        9    17  26    5.70   417.1    7.5      44.096
2014    9        9    17  31    5.70   417.1    7.5      44.088
2014    9        9    17  37    5.70   417.1    7.5      44.079
2014    9        9    17  43    5.69   417.1    7.5      44.070
2014    9        9    17  48    5.69   417.2    7.5      44.062
2014    9        9    17  54    5.69   417.2    7.5      44.053
2014    9        9    17  59    5.69   417.2    7.5      44.044
2014    9        9    18   5    5.69   417.2    7.5      44.035
2014    9        9    18  11    5.69   417.2    7.5      44.026
2014    9        9    18  16    5.69   417.2    7.5      44.017
2014    9        9    18  22    5.69   417.3    7.5      44.008
2014    9        9    18  27    5.68   417.3    7.5      44.000
2014    9        9    18  33    5.68   417.3    7.5      43.991
2014    9        9    18  39    5.68   417.3    7.5      43.982
2014    9        9    18  44    5.68   417.3    7.5      43.973
2014    9        9    18  50    5.68   417.3    7.5      43.965
2014    9        9    18  56    5.68   417.4    7.5      43.956
2014    9        9    19   1    5.68   417.4    7.5      43.947
2014    9        9    19   7    5.68   417.4    7.5      43.939
2014    9        9    19  12    5.67   417.4    7.5      43.930
2014    9        9    19  18    5.67   417.4    7.5      43.922
2014    9        9    19  24    5.67   417.4    7.5      43.913
2014    9        9    19  29    5.67   417.4    7.5      43.905
2014    9        9    19  35    5.67   417.5    7.5      43.897
2014    9        9    19  40    5.67   417.5    7.5      43.889
2014    9        9    19  46    5.67   417.5    7.5      43.881
2014    9        9    19  52    5.67   417.5    7.5      43.873
2014    9        9    19  57    5.67   417.5    7.5      43.865
2014    9        9    20   3    5.66   417.5    7.5      43.857
2014    9        9    20   8    5.66   417.5    7.5      43.849
2014    9        9    20  14    5.66   417.6    7.5      43.842
2014    9        9    20  20    5.66   417.6    7.4      43.835
2014    9        9    20  25    5.66   417.6    7.4      43.827
2014    9        9    20  31    5.66   417.6    7.4      43.820
2014    9        9    20  36    5.66   417.6    7.4      43.813
2014    9        9    20  42    5.66   417.6    7.4      43.807
2014    9        9    20  48    5.66   417.6    7.4      43.800
2014    9        9    20  53    5.66   417.6    7.4      43.794
2014    9        9    20  59    5.65   417.6    7.4      43.788
2014    9        9    21   5    5.65   417.6    7.4      43.782
2014    9        9    21  10    5.65   417.7    7.4      43.776
2014    9        9    21  16    5.65   417.7    7.4      43.770
2014    9        9    21  21    5.65   417.7    7.4      43.765
2014    9        9    21  27    5.65   417.7    7.4      43.759
2014    9        9    21  33    5.65   417.7    7.4      43.754
2014    9        9    21  38    5.65   417.7    7.4      43.749
2014    9        9    21  44    5.65   417.7    7.4      43.745
2014    9        9    21  49    5.65   417.7    7.4      43.740
2014    9        9    21  55    5.65   417.7    7.4      43.736
2014    9        9    22   1    5.64   417.7    7.4      43.732
2014    9        9    22   6    5.64   417.7    7.4      43.728
2014    9        9    22  12    5.64   417.7    7.4      43.724
2014    9        9    22  17    5.64   417.8    7.4      43.721
2014    9        9    22  23    5.64   417.8    7.4      43.718
2014    9        9    22  29    5.64   417.8    7.4      43.715
2014    9        9    22  34    5.64   417.8    7.4      43.712
2014    9        9    22  40    5.64   417.8    7.4      43.709
2014    9        9    22  45    5.64   417.8    7.4      43.706
2014    9        9    22  51    5.64   417.8    7.4      43.704
2014    9        9    22  57    5.64   417.8    7.4      43.702
2014    9        9    23   2    5.64   417.8    7.4      43.700
2014    9        9    23   8    5.64   417.8    7.4      43.698
2014    9        9    23  14    5.64   417.8    7.4      43.696
2014    9        9    23  19    5.64   417.8    7.4      43.694
2014    9        9    23  25    5.64   417.8    7.4      43.693
2014    9        9    23  30    5.63   417.8    7.4      43.692
2014    9        9    23  36    5.63   417.8    7.4      43.691
2014    9        9    23  42    5.63   417.8    7.4      43.689
2014    9        9    23  47    5.63   417.9    7.4      43.688
2014    9        9    23  53    5.63   417.9    7.4      43.686
2014    9        9    23  58    5.63   417.9    7.4      43.685
2014    9       10     0   4    5.63   417.9    7.4      43.684
2014    9       10     0  10    5.63   417.9    7.4      43.682
2014    9       10     0  15    5.63   417.9    7.4      43.681
2014    9       10     0  21    5.63   417.9    7.4      43.679
2014    9       10     0  26    5.63   417.9    7.4      43.678
2014    9       10     0  32    5.63   417.9    7.4      43.676
2014    9       10     0  38    5.63   417.9    7.4      43.675
2014    9       10     0  43    5.63   417.9    7.4      43.673
2014    9       10     0  49    5.63   417.9    7.4      43.672
2014    9       10     0  54    5.63   417.9    7.4      43.670
2014    9       10     1   0    5.63   418.0    7.4      43.669
2014    9       10     1   6    5.63   418.0    7.4      43.668
2014    9       10     1  11    5.63   418.0    7.4      43.666
2014    9       10     1  17    5.63   418.0    7.4      43.665
2014    9       10     1  23    5.63   418.0    7.4      43.663
2014    9       10     1  28    5.63   418.0    7.4      43.662
2014    9       10     1  34    5.63   418.0    7.4      43.661
2014    9       10     1  39    5.63   418.0    7.4      43.659
2014    9       10     1  45    5.63   418.0    7.4      43.658
2014    9       10     1  51    5.63   418.0    7.4      43.657
2014    9       10     1  56    5.63   418.1    7.4      43.656
2014    9       10     2   2    5.63   418.1    7.4      43.654
2014    9       10     2   7    5.63   418.1    7.4      43.653
2014    9       10     2  13    5.63   418.1    7.4      43.652
2014    9       10     2  19    5.63   418.1    7.4      43.651
2014    9       10     2  24    5.63   418.1    7.4      43.650
2014    9       10     2  30    5.63   418.1    7.4      43.649
2014    9       10     2  35    5.63   418.1    7.4      43.649
2014    9       10     2  41    5.63   418.2    7.4      43.648
2014    9       10     2  47    5.63   418.2    7.4      43.647
2014    9       10     2  52    5.63   418.2    7.4      43.647
2014    9       10     2  58    5.63   418.2    7.4      43.646
2014    9       10     3   4    5.63   418.2    7.4      43.645
2014    9       10     3   9    5.62   418.2    7.4      43.645
2014    9       10     3  15    5.62   418.2    7.4      43.645
2014    9       10     3  20    5.62   418.2    7.4      43.645
2014    9       10     3  26    5.62   418.3    7.4      43.644
2014    9       10     3  32    5.62   418.3    7.4      43.644
2014    9       10     3  37    5.62   418.3    7.4      43.644
2014    9       10     3  43    5.62   418.3    7.4      43.645
2014    9       10     3  48    5.62   418.3    7.4      43.645
2014    9       10     3  54    5.62   418.3    7.4      43.645
2014    9       10     4   0    5.62   418.3    7.4      43.645
2014    9       10     4   5    5.62   418.4    7.4      43.646
2014    9       10     4  11    5.62   418.4    7.4      43.647
2014    9       10     4  16    5.62   418.4    7.4      43.647
2014    9       10     4  22    5.62   418.4    7.4      43.648
2014    9       10     4  28    5.62   418.4    7.4      43.649
2014    9       10     4  33    5.62   418.4    7.4      43.650
2014    9       10     4  39    5.62   418.4    7.4      43.651
2014    9       10     4  44    5.62   418.5    7.4      43.652
2014    9       10     4  50    5.62   418.5    7.4      43.653
2014    9       10     4  56    5.62   418.5    7.4      43.655
2014    9       10     5   1    5.62   418.5    7.4      43.656
2014    9       10     5   7    5.62   418.5    7.4      43.658
2014    9       10     5  13    5.62   418.5    7.4      43.660
2014    9       10     5  18    5.62   418.5    7.4      43.661
2014    9       10     5  24    5.62   418.6    7.4      43.663
2014    9       10     5  29    5.62   418.6    7.4      43.665
2014    9       10     5  35    5.62   418.6    7.4      43.667
2014    9       10     5  41    5.62   418.6    7.4      43.670
2014    9       10     5  46    5.62   418.6    7.4      43.672
2014    9       10     5  52    5.63   418.6    7.4      43.674
2014    9       10     5  57    5.63   418.7    7.4      43.677
2014    9       10     6   3    5.63   418.7    7.4      43.679
2014    9       10     6   9    5.63   418.7    7.4      43.682
2014    9       10     6  14    5.63   418.7    7.4      43.685
2014    9       10     6  20    5.63   418.7    7.4      43.688
2014    9       10     6  25    5.63   418.7    7.4      43.691
2014    9       10     6  31    5.63   418.8    7.4      43.694
2014    9       10     6  37    5.63   418.8    7.4      43.697
2014    9       10     6  42    5.63   418.8    7.4      43.700
2014    9       10     6  48    5.63   418.8    7.4      43.704
2014    9       10     6  53    5.63   418.8    7.4      43.707
2014    9       10     6  59    5.63   418.8    7.4      43.711
2014    9       10     7   5    5.63   418.9    7.4      43.714
2014    9       10     7  10    5.63   418.9    7.4      43.718
2014    9       10     7  16    5.63   418.9    7.4      43.722
2014    9       10     7  22    5.63   418.9    7.4      43.726
2014    9       10     7  27    5.63   418.9    7.4      43.730
2014    9       10     7  33    5.63   418.9    7.4      43.734
2014    9       10     7  38    5.63   418.9    7.4      43.739
2014    9       10     7  44    5.63   419.0    7.4      43.743
2014    9       10     7  50    5.63   419.0    7.4      43.748
2014    9       10     7  55    5.63   419.0    7.4      43.753
2014    9       10     8   1    5.64   419.0    7.4      43.758
2014    9       10     8   6    5.64   419.0    7.4      43.763
2014    9       10     8  12    5.64   419.0    7.4      43.768
2014    9       10     8  18    5.64   419.1    7.4      43.774
2014    9       10     8  23    5.64   419.1    7.4      43.780
2014    9       10     8  29    5.64   419.1    7.4      43.786
2014    9       10     8  34    5.64   419.1    7.4      43.792
2014    9       10     8  40    5.64   419.1    7.4      43.799
2014    9       10     8  46    5.64   419.1    7.4      43.805
2014    9       10     8  51    5.64   419.1    7.4      43.813
2014    9       10     8  57    5.64   419.2    7.4      43.820
2014    9       10     9   2    5.65   419.2    7.4      43.827
2014    9       10     9   8    5.65   419.2    7.4      43.835
2014    9       10     9  14    5.65   419.2    7.4      43.843
2014    9       10     9  19    5.65   419.2    7.5      43.852
2014    9       10     9  25    5.65   419.3    7.5      43.860
2014    9       10     9  31    5.65   419.3    7.5      43.869
2014    9       10     9  36    5.65   419.3    7.5      43.878
2014    9       10     9  42    5.65   419.3    7.5      43.888
2014    9       10     9  47    5.65   419.3    7.5      43.897
2014    9       10     9  53    5.65   419.4    7.5      43.907
2014    9       10     9  59    5.66   419.4    7.5      43.917
2014    9       10    10   4    5.66   419.4    7.5      43.927
2014    9       10    10  10    5.66   419.4    7.5      43.937
2014    9       10    10  15    5.66   419.5    7.5      43.948
2014    9       10    10  21    5.66   419.5    7.5      43.958
2014    9       10    10  27    5.66   419.5    7.5      43.969
2014    9       10    10  32    5.66   419.5    7.5      43.980
2014    9       10    10  38    5.66   419.6    7.5      43.991
2014    9       10    10  43    5.66   419.6    7.5      44.003
2014    9       10    10  49    5.67   419.6    7.5      44.014
2014    9       10    10  55    5.67   419.6    7.5      44.026
2014    9       10    11   0    5.67   419.7    7.5      44.038
2014    9       10    11   6    5.67   419.7    7.5      44.051
2014    9       10    11  12    5.67   419.7    7.5      44.063
2014    9       10    11  17    5.67   419.8    7.5      44.075
2014    9       10    11  23    5.67   419.8    7.5      44.087
2014    9       10    11  28    5.67   419.8    7.5      44.099
2014    9       10    11  34    5.67   419.9    7.5      44.111
2014    9       10    11  40    5.68   419.9    7.5      44.123
2014    9       10    11  45    5.68   419.9    7.5      44.135
2014    9       10    11  51    5.68   419.9    7.5      44.147
2014    9       10    11  56    5.68   420.0    7.5      44.158
2014    9       10    12   2    5.68   420.0    7.5      44.170
2014    9       10    12   8    5.68   420.0    7.5      44.182
2014    9       10    12  13    5.68   420.1    7.5      44.193
2014    9       10    12  19    5.68   420.1    7.5      44.205
2014    9       10    12  24    5.69   420.1    7.5      44.217
2014    9       10    12  30    5.69   420.2    7.5      44.228
2014    9       10    12  36    5.69   420.2    7.5      44.240
2014    9       10    12  41    5.69   420.3    7.5      44.251
2014    9       10    12  47    5.69   420.3    7.5      44.263
2014    9       10    12  52    5.69   420.3    7.5      44.275
2014    9       10    12  58    5.69   420.4    7.5      44.287
2014    9       10    13   4    5.70   420.4    7.5      44.299
2014    9       10    13   9    5.70   420.4    7.5      44.311
2014    9       10    13  15    5.70   420.5    7.5      44.324
2014    9       10    13  21    5.70   420.5    7.5      44.336
2014    9       10    13  26    5.70   420.5    7.5      44.349
2014    9       10    13  32    5.70   420.6    7.5      44.362
2014    9       10    13  37    5.70   420.6    7.5      44.375
2014    9       10    13  43    5.71   420.7    7.5      44.388
2014    9       10    13  49    5.71   420.7    7.5      44.402
2014    9       10    13  54    5.71   420.7    7.5      44.416
2014    9       10    14   0    5.71   420.8    7.5      44.430
2014    9       10    14   5    5.71   420.8    7.5      44.444
2014    9       10    14  11    5.72   420.9    7.6      44.458
2014    9       10    14  17    5.72   420.9    7.6      44.473
2014    9       10    14  22    5.72   421.0    7.6      44.488
2014    9       10    14  28    5.72   421.0    7.6      44.503
2014    9       10    14  33    5.72   421.0    7.6      44.519
2014    9       10    14  39    5.73   421.1    7.6      44.535
2014    9       10    14  45    5.73   421.1    7.6      44.551
2014    9       10    14  50    5.73   421.2    7.6      44.567
2014    9       10    14  56    5.73   421.2    7.6      44.583
2014    9       10    15   1    5.73   421.3    7.6      44.600
2014    9       10    15   7    5.74   421.3    7.6      44.617
2014    9       10    15  13    5.74   421.4    7.6      44.635
2014    9       10    15  18    5.74   421.4    7.6      44.653
2014    9       10    15  24    5.74   421.4    7.6      44.671
2014    9       10    15  30    5.74   421.5    7.6      44.690
2014    9       10    15  35    5.75   421.6    7.6      44.710
2014    9       10    15  41    5.75   421.6    7.6      44.731
2014    9       10    15  46    5.75   421.7    7.6      44.753
2014    9       10    15  52    5.75   421.7    7.6      44.775
2014    9       10    15  58    5.76   421.8    7.6      44.798
2014    9       10    16   3    5.76   421.8    7.6      44.821
2014    9       10    16   9    5.76   421.9    7.6      44.844
2014    9       10    16  14    5.76   421.9    7.6      44.867
2014    9       10    16  20    5.76   422.0    7.6      44.891
2014    9       10    16  26    5.77   422.1    7.6      44.915
2014    9       10    16  31    5.77   422.1    7.6      44.939
2014    9       10    16  37    5.77   422.2    7.6      44.963
2014    9       10    16  42    5.77   422.2    7.6      44.987
2014    9       10    16  48    5.78   422.3    7.6      45.012
2014    9       10    16  54    5.78   422.3    7.6      45.037
2014    9       10    16  59    5.78   422.4    7.6      45.062
2014    9       10    17   5    5.78   422.5    7.6      45.087
2014    9       10    17  10    5.78   422.5    7.6      45.112
2014    9       10    17  16    5.79   422.6    7.6      45.137
2014    9       10    17  22    5.79   422.6    7.7      45.163
2014    9       10    17  27    5.79   422.7    7.7      45.188
2014    9       10    17  33    5.79   422.8    7.7      45.214
2014    9       10    17  39    5.80   422.8    7.7      45.239
2014    9       10    17  44    5.80   422.9    7.7      45.265
2014    9       10    17  50    5.80   423.0    7.7      45.291
2014    9       10    17  55    5.80   423.0    7.7      45.317
2014    9       10    18   1    5.80   423.1    7.7      45.343
2014    9       10    18   7    5.81   423.1    7.7      45.369
2014    9       10    18  12    5.81   423.2    7.7      45.395
2014    9       10    18  18    5.81   423.3    7.7      45.420
2014    9       10    18  23    5.81   423.3    7.7      45.446
2014    9       10    18  29    5.82   423.4    7.7      45.472
2014    9       10    18  35    5.82   423.5    7.7      45.498
2014    9       10    18  40    5.82   423.5    7.7      45.523
2014    9       10    18  46    5.82   423.6    7.7      45.549
2014    9       10    18  51    5.82   423.7    7.7      45.574
2014    9       10    18  57    5.83   423.7    7.7      45.600
2014    9       10    19   3    5.83   423.8    7.7      45.625
2014    9       10    19   8    5.83   423.9    7.7      45.651
2014    9       10    19  14    5.83   423.9    7.7      45.676
2014    9       10    19  20    5.84   424.0    7.7      45.701
2014    9       10    19  25    5.84   424.1    7.7      45.727
2014    9       10    19  31    5.84   424.1    7.7      45.753
2014    9       10    19  36    5.84   424.2    7.7      45.779
2014    9       10    19  42    5.85   424.3    7.7      45.806
2014    9       10    19  48    5.85   424.3    7.7      45.833
2014    9       10    19  53    5.85   424.4    7.7      45.861
2014    9       10    19  59    5.85   424.5    7.7      45.888
2014    9       10    20   4    5.86   424.6    7.7      45.916
2014    9       10    20  10    5.86   424.6    7.7      45.945
2014    9       10    20  16    5.86   424.7    7.7      45.973
2014    9       10    20  21    5.86   424.8    7.7      46.002
2014    9       10    20  27    5.87   424.9    7.8      46.031
2014    9       10    20  32    5.87   424.9    7.8      46.059
2014    9       10    20  38    5.87   425.0    7.8      46.089
2014    9       10    20  44    5.87   425.1    7.8      46.118
2014    9       10    20  49    5.88   425.2    7.8      46.148
2014    9       10    20  55    5.88   425.3    7.8      46.178
2014    9       10    21   0    5.88   425.4    7.8      46.208
2014    9       10    21   6    5.88   425.5    7.8      46.239
2014    9       10    21  12    5.89   425.5    7.8      46.270
2014    9       10    21  17    5.89   425.6    7.8      46.301
2014    9       10    21  23    5.89   425.7    7.8      46.333
2014    9       10    21  29    5.90   425.8    7.8      46.365
2014    9       10    21  34    5.90   425.9    7.8      46.397
2014    9       10    21  40    5.90   426.0    7.8      46.430
2014    9       10    21  45    5.91   426.1    7.8      46.464
2014    9       10    21  51    5.91   426.2    7.8      46.499
2014    9       10    21  57    5.91   426.3    7.8      46.534
2014    9       10    22   2    5.92   426.4    7.8      46.570
2014    9       10    22   8    5.92   426.5    7.8      46.607
2014    9       10    22  13    5.92   426.6    7.8      46.645
2014    9       10    22  19    5.92   426.7    7.8      46.682
2014    9       10    22  25    5.93   426.8    7.8      46.721
2014    9       10    22  30    5.93   426.9    7.8      46.759
2014    9       10    22  36    5.93   427.0    7.8      46.797
2014    9       10    22  41    5.94   427.2    7.8      46.835
2014    9       10    22  47    5.94   427.3    7.8      46.874
2014    9       10    22  53    5.94   427.4    7.8      46.912
2014    9       10    22  58    5.95   427.5    7.8      46.951
2014    9       10    23   4    5.95   427.6    7.9      46.990
2014    9       10    23   9    5.95   427.7    7.9      47.031
2014    9       10    23  15    5.95   427.8    7.9      47.072
2014    9       10    23  21    5.96   428.0    7.9      47.115
2014    9       10    23  26    5.96   428.1    7.9      47.158
2014    9       10    23  32    5.96   428.2    7.9      47.201
2014    9       10    23  38    5.97   428.3    7.9      47.245
2014    9       10    23  43    5.97   428.4    7.9      47.289
2014    9       10    23  49    5.97   428.6    7.9      47.332
2014    9       10    23  54    5.97   428.7    7.9      47.375
2014    9       11     0   0    5.98   428.8    7.9      47.418
