year    month   day   hour  minute  B_enl V_enl   n_enl       T_enl
[year] [month] [day] [hour][minute] [nT]  [km/s]  [cm-3]      [kK]
2014    9       21     0   0    7.59   488.4    7.3      49.586
2014    9       21     0   6    7.59   488.6    7.3      49.627
2014    9       21     0  11    7.59   488.9    7.3      49.667
2014    9       21     0  17    7.59   489.1    7.3      49.707
2014    9       21     0  22    7.59   489.4    7.3      49.746
2014    9       21     0  27    7.59   489.6    7.3      49.787
2014    9       21     0  33    7.60   489.9    7.3      49.831
2014    9       21     0  38    7.60   490.1    7.3      49.878
2014    9       21     0  44    7.60   490.4    7.3      49.927
2014    9       21     0  49    7.60   490.7    7.3      49.980
2014    9       21     0  55    7.60   491.0    7.3      50.037
2014    9       21     1   0    7.60   491.3    7.3      50.097
2014    9       21     1   5    7.60   491.6    7.3      50.161
2014    9       21     1  11    7.61   491.9    7.2      50.228
2014    9       21     1  16    7.61   492.3    7.2      50.297
2014    9       21     1  22    7.61   492.6    7.2      50.367
2014    9       21     1  27    7.61   492.9    7.2      50.437
2014    9       21     1  32    7.61   493.3    7.2      50.507
2014    9       21     1  38    7.61   493.6    7.2      50.574
2014    9       21     1  43    7.61   493.9    7.2      50.637
2014    9       21     1  49    7.61   494.2    7.2      50.698
2014    9       21     1  54    7.62   494.5    7.2      50.757
2014    9       21     1  59    7.62   494.8    7.2      50.815
2014    9       21     2   5    7.62   495.1    7.2      50.873
2014    9       21     2  10    7.62   495.4    7.2      50.933
2014    9       21     2  16    7.62   495.7    7.2      50.995
2014    9       21     2  21    7.62   496.0    7.2      51.061
2014    9       21     2  26    7.62   496.3    7.1      51.131
2014    9       21     2  32    7.62   496.6    7.1      51.205
2014    9       21     2  37    7.62   497.0    7.1      51.282
2014    9       21     2  43    7.62   497.4    7.1      51.362
2014    9       21     2  48    7.63   497.7    7.1      51.448
2014    9       21     2  53    7.63   498.1    7.1      51.536
2014    9       21     2  59    7.63   498.5    7.1      51.627
2014    9       21     3   4    7.63   499.0    7.1      51.718
2014    9       21     3  10    7.63   499.4    7.1      51.811
2014    9       21     3  15    7.63   499.8    7.1      51.902
2014    9       21     3  21    7.63   500.2    7.1      51.989
2014    9       21     3  26    7.63   500.7    7.1      52.073
2014    9       21     3  31    7.63   501.1    7.1      52.153
2014    9       21     3  37    7.63   501.5    7.1      52.230
2014    9       21     3  42    7.63   501.9    7.0      52.305
2014    9       21     3  48    7.63   502.3    7.0      52.377
2014    9       21     3  53    7.63   502.6    7.0      52.447
2014    9       21     3  58    7.63   503.0    7.0      52.515
2014    9       21     4   4    7.63   503.4    7.0      52.583
2014    9       21     4   9    7.63   503.8    7.0      52.650
2014    9       21     4  15    7.63   504.2    7.0      52.717
2014    9       21     4  20    7.63   504.6    7.0      52.783
2014    9       21     4  25    7.63   504.9    7.0      52.848
2014    9       21     4  31    7.63   505.3    7.0      52.912
2014    9       21     4  36    7.63   505.7    6.9      52.976
2014    9       21     4  42    7.63   506.1    6.9      53.038
2014    9       21     4  47    7.63   506.5    6.9      53.100
2014    9       21     4  52    7.63   506.9    6.9      53.161
2014    9       21     4  58    7.63   507.3    6.9      53.221
2014    9       21     5   3    7.63   507.7    6.9      53.280
2014    9       21     5   9    7.63   508.1    6.9      53.340
2014    9       21     5  14    7.63   508.5    6.9      53.399
2014    9       21     5  19    7.62   508.9    6.9      53.458
2014    9       21     5  25    7.62   509.2    6.9      53.517
2014    9       21     5  30    7.62   509.6    6.8      53.576
2014    9       21     5  36    7.62   510.0    6.8      53.637
2014    9       21     5  41    7.62   510.4    6.8      53.697
2014    9       21     5  47    7.62   510.8    6.8      53.757
2014    9       21     5  52    7.62   511.2    6.8      53.816
2014    9       21     5  57    7.62   511.6    6.8      53.875
2014    9       21     6   3    7.61   512.0    6.8      53.932
2014    9       21     6   8    7.61   512.5    6.8      53.986
2014    9       21     6  14    7.61   512.9    6.8      54.037
2014    9       21     6  19    7.61   513.3    6.7      54.084
2014    9       21     6  24    7.61   513.8    6.7      54.126
2014    9       21     6  30    7.60   514.2    6.7      54.164
2014    9       21     6  35    7.60   514.6    6.7      54.198
2014    9       21     6  41    7.60   515.0    6.7      54.228
2014    9       21     6  46    7.59   515.4    6.7      54.253
2014    9       21     6  51    7.59   515.9    6.7      54.277
2014    9       21     6  57    7.59   516.3    6.6      54.299
2014    9       21     7   2    7.58   516.7    6.6      54.319
2014    9       21     7   8    7.58   517.1    6.6      54.337
2014    9       21     7  13    7.58   517.5    6.6      54.352
2014    9       21     7  18    7.57   517.9    6.6      54.366
2014    9       21     7  24    7.57   518.3    6.6      54.380
2014    9       21     7  29    7.57   518.7    6.5      54.392
2014    9       21     7  35    7.56   519.1    6.5      54.403
2014    9       21     7  40    7.56   519.4    6.5      54.413
2014    9       21     7  45    7.56   519.8    6.5      54.422
2014    9       21     7  51    7.55   520.2    6.5      54.433
2014    9       21     7  56    7.55   520.5    6.5      54.444
2014    9       21     8   2    7.55   520.9    6.4      54.454
2014    9       21     8   7    7.54   521.3    6.4      54.460
2014    9       21     8  12    7.54   521.6    6.4      54.466
2014    9       21     8  18    7.53   522.0    6.4      54.471
2014    9       21     8  23    7.53   522.4    6.4      54.475
2014    9       21     8  29    7.52   522.7    6.3      54.477
2014    9       21     8  34    7.52   523.0    6.3      54.479
2014    9       21     8  40    7.52   523.4    6.3      54.484
2014    9       21     8  45    7.51   523.7    6.3      54.490
2014    9       21     8  50    7.51   524.0    6.3      54.495
2014    9       21     8  56    7.50   524.3    6.3      54.499
2014    9       21     9   1    7.50   524.6    6.2      54.501
2014    9       21     9   7    7.49   524.9    6.2      54.504
2014    9       21     9  12    7.49   525.1    6.2      54.507
2014    9       21     9  17    7.49   525.4    6.2      54.510
2014    9       21     9  23    7.48   525.6    6.2      54.517
2014    9       21     9  28    7.48   525.8    6.2      54.529
2014    9       21     9  34    7.48   526.1    6.2      54.546
2014    9       21     9  39    7.47   526.4    6.2      54.568
2014    9       21     9  44    7.47   526.7    6.1      54.596
2014    9       21     9  50    7.47   527.0    6.1      54.627
2014    9       21     9  55    7.46   527.3    6.1      54.664
2014    9       21    10   1    7.46   527.6    6.1      54.707
2014    9       21    10   6    7.46   528.0    6.1      54.754
2014    9       21    10  11    7.46   528.3    6.1      54.805
2014    9       21    10  17    7.45   528.7    6.1      54.859
2014    9       21    10  22    7.45   529.1    6.1      54.915
2014    9       21    10  28    7.44   529.5    6.1      54.969
2014    9       21    10  33    7.44   529.9    6.1      55.020
2014    9       21    10  39    7.44   530.3    6.0      55.066
2014    9       21    10  44    7.43   530.8    6.0      55.107
2014    9       21    10  49    7.43   531.1    6.0      55.144
2014    9       21    10  55    7.42   531.5    6.0      55.176
2014    9       21    11   0    7.42   531.9    6.0      55.201
2014    9       21    11   6    7.41   532.2    6.0      55.222
2014    9       21    11  11    7.41   532.6    6.0      55.239
2014    9       21    11  16    7.40   532.9    6.0      55.254
2014    9       21    11  22    7.40   533.2    5.9      55.266
2014    9       21    11  27    7.39   533.6    5.9      55.276
2014    9       21    11  33    7.39   533.9    5.9      55.284
2014    9       21    11  38    7.38   534.2    5.9      55.293
2014    9       21    11  43    7.38   534.6    5.9      55.300
2014    9       21    11  49    7.37   534.9    5.9      55.308
2014    9       21    11  54    7.36   535.2    5.9      55.315
2014    9       21    12   0    7.36   535.6    5.8      55.321
2014    9       21    12   5    7.35   535.9    5.8      55.327
2014    9       21    12  10    7.35   536.3    5.8      55.332
2014    9       21    12  16    7.34   536.6    5.8      55.337
2014    9       21    12  21    7.33   537.0    5.8      55.340
2014    9       21    12  27    7.33   537.3    5.8      55.340
2014    9       21    12  32    7.32   537.6    5.8      55.338
2014    9       21    12  37    7.31   538.0    5.7      55.335
2014    9       21    12  43    7.31   538.3    5.7      55.330
2014    9       21    12  48    7.30   538.6    5.7      55.322
2014    9       21    12  54    7.30   538.9    5.7      55.312
2014    9       21    12  59    7.29   539.2    5.7      55.302
2014    9       21    13   5    7.28   539.5    5.7      55.292
2014    9       21    13  10    7.28   539.7    5.7      55.281
2014    9       21    13  15    7.27   540.0    5.6      55.270
2014    9       21    13  21    7.26   540.3    5.6      55.257
2014    9       21    13  26    7.26   540.6    5.6      55.243
2014    9       21    13  32    7.25   540.9    5.6      55.226
2014    9       21    13  37    7.24   541.2    5.6      55.208
2014    9       21    13  42    7.24   541.4    5.6      55.188
2014    9       21    13  48    7.23   541.7    5.5      55.166
2014    9       21    13  53    7.22   541.9    5.5      55.142
2014    9       21    13  59    7.22   542.2    5.5      55.116
2014    9       21    14   4    7.21   542.5    5.5      55.091
2014    9       21    14   9    7.20   542.7    5.5      55.067
2014    9       21    14  15    7.20   543.0    5.5      55.042
2014    9       21    14  20    7.19   543.3    5.5      55.018
2014    9       21    14  26    7.19   543.6    5.5      54.994
2014    9       21    14  31    7.18   543.9    5.4      54.971
2014    9       21    14  36    7.17   544.2    5.4      54.950
2014    9       21    14  42    7.17   544.5    5.4      54.927
2014    9       21    14  47    7.16   544.8    5.4      54.903
2014    9       21    14  53    7.15   545.1    5.4      54.877
2014    9       21    14  58    7.15   545.4    5.4      54.850
2014    9       21    15   3    7.14   545.7    5.4      54.821
2014    9       21    15   9    7.13   546.0    5.4      54.788
2014    9       21    15  14    7.13   546.3    5.3      54.751
2014    9       21    15  20    7.12   546.5    5.3      54.708
2014    9       21    15  25    7.11   546.8    5.3      54.663
2014    9       21    15  30    7.10   547.0    5.3      54.614
2014    9       21    15  36    7.10   547.2    5.3      54.563
2014    9       21    15  41    7.09   547.4    5.3      54.509
2014    9       21    15  47    7.08   547.6    5.3      54.455
2014    9       21    15  52    7.07   547.7    5.2      54.405
2014    9       21    15  58    7.07   547.9    5.2      54.356
2014    9       21    16   3    7.06   548.0    5.2      54.310
2014    9       21    16   8    7.05   548.2    5.2      54.265
2014    9       21    16  14    7.05   548.3    5.2      54.224
2014    9       21    16  19    7.04   548.5    5.2      54.185
2014    9       21    16  25    7.04   548.6    5.2      54.149
2014    9       21    16  30    7.03   548.7    5.2      54.114
2014    9       21    16  35    7.02   548.8    5.2      54.082
2014    9       21    16  41    7.02   548.9    5.2      54.051
2014    9       21    16  46    7.01   549.1    5.2      54.023
2014    9       21    16  52    7.01   549.2    5.1      53.997
2014    9       21    16  57    7.00   549.3    5.1      53.973
2014    9       21    17   2    7.00   549.4    5.1      53.951
2014    9       21    17   8    6.99   549.5    5.1      53.931
2014    9       21    17  13    6.99   549.7    5.1      53.912
2014    9       21    17  19    6.98   549.8    5.1      53.895
2014    9       21    17  24    6.97   549.9    5.1      53.881
2014    9       21    17  29    6.97   550.1    5.1      53.867
2014    9       21    17  35    6.96   550.2    5.1      53.853
2014    9       21    17  40    6.96   550.4    5.1      53.839
2014    9       21    17  46    6.95   550.6    5.1      53.823
2014    9       21    17  51    6.95   550.7    5.1      53.806
2014    9       21    17  57    6.94   550.9    5.1      53.788
2014    9       21    18   2    6.93   551.1    5.1      53.768
2014    9       21    18   7    6.93   551.2    5.0      53.743
2014    9       21    18  13    6.92   551.4    5.0      53.716
2014    9       21    18  18    6.92   551.5    5.0      53.685
2014    9       21    18  24    6.91   551.6    5.0      53.653
2014    9       21    18  29    6.90   551.8    5.0      53.618
2014    9       21    18  34    6.90   551.9    5.0      53.583
2014    9       21    18  40    6.89   552.0    5.0      53.545
2014    9       21    18  45    6.89   552.1    5.0      53.507
2014    9       21    18  51    6.88   552.3    5.0      53.469
2014    9       21    18  56    6.87   552.4    5.0      53.431
2014    9       21    19   1    6.87   552.5    5.0      53.392
2014    9       21    19   7    6.86   552.7    4.9      53.354
2014    9       21    19  12    6.85   552.8    4.9      53.315
2014    9       21    19  18    6.85   552.9    4.9      53.277
2014    9       21    19  23    6.84   553.1    4.9      53.238
2014    9       21    19  28    6.84   553.2    4.9      53.199
2014    9       21    19  34    6.83   553.4    4.9      53.156
2014    9       21    19  39    6.82   553.5    4.9      53.111
2014    9       21    19  45    6.82   553.6    4.9      53.064
2014    9       21    19  50    6.81   553.7    4.9      53.016
2014    9       21    19  55    6.80   553.8    4.9      52.965
2014    9       21    20   1    6.80   553.9    4.8      52.912
2014    9       21    20   6    6.79   553.9    4.8      52.858
2014    9       21    20  12    6.78   554.0    4.8      52.806
2014    9       21    20  17    6.78   554.1    4.8      52.754
2014    9       21    20  23    6.77   554.1    4.8      52.704
2014    9       21    20  28    6.77   554.2    4.8      52.654
2014    9       21    20  33    6.76   554.2    4.8      52.605
2014    9       21    20  39    6.76   554.3    4.8      52.557
2014    9       21    20  44    6.75   554.3    4.8      52.510
2014    9       21    20  50    6.74   554.3    4.8      52.463
2014    9       21    20  55    6.74   554.4    4.8      52.416
2014    9       21    21   0    6.73   554.4    4.8      52.371
2014    9       21    21   6    6.73   554.5    4.7      52.325
2014    9       21    21  11    6.72   554.5    4.7      52.280
2014    9       21    21  17    6.72   554.5    4.7      52.236
2014    9       21    21  22    6.71   554.6    4.7      52.192
2014    9       21    21  27    6.71   554.6    4.7      52.149
2014    9       21    21  33    6.70   554.7    4.7      52.106
2014    9       21    21  38    6.70   554.7    4.7      52.064
2014    9       21    21  44    6.69   554.8    4.7      52.023
2014    9       21    21  49    6.69   554.8    4.7      51.983
2014    9       21    21  54    6.68   554.9    4.7      51.943
2014    9       21    22   0    6.68   554.9    4.7      51.903
2014    9       21    22   5    6.67   555.0    4.7      51.864
2014    9       21    22  11    6.67   555.1    4.7      51.825
2014    9       21    22  16    6.66   555.1    4.7      51.786
2014    9       21    22  21    6.66   555.2    4.7      51.746
2014    9       21    22  27    6.65   555.2    4.7      51.706
2014    9       21    22  32    6.65   555.3    4.7      51.666
2014    9       21    22  38    6.64   555.3    4.7      51.627
2014    9       21    22  43    6.64   555.4    4.7      51.590
2014    9       21    22  48    6.63   555.4    4.7      51.553
2014    9       21    22  54    6.63   555.4    4.6      51.516
2014    9       21    22  59    6.62   555.5    4.6      51.481
2014    9       21    23   5    6.62   555.5    4.6      51.446
2014    9       21    23  10    6.61   555.5    4.6      51.412
2014    9       21    23  16    6.61   555.5    4.6      51.378
2014    9       21    23  21    6.60   555.5    4.6      51.346
2014    9       21    23  26    6.60   555.6    4.6      51.315
2014    9       21    23  32    6.60   555.6    4.6      51.286
2014    9       21    23  37    6.59   555.6    4.6      51.259
2014    9       21    23  43    6.59   555.6    4.6      51.234
2014    9       21    23  48    6.58   555.6    4.6      51.210
2014    9       21    23  53    6.58   555.6    4.6      51.188
2014    9       21    23  59    6.58   555.6    4.6      51.166
2014    9       22     0   4    6.57   555.6    4.6      51.148
2014    9       22     0  10    6.57   555.7    4.6      51.131
2014    9       22     0  15    6.57   555.7    4.6      51.115
2014    9       22     0  20    6.56   555.7    4.6      51.101
2014    9       22     0  26    6.56   555.7    4.6      51.087
2014    9       22     0  31    6.56   555.8    4.6      51.074
2014    9       22     0  37    6.55   555.8    4.6      51.062
2014    9       22     0  42    6.55   555.8    4.6      51.048
2014    9       22     0  47    6.54   555.8    4.6      51.032
2014    9       22     0  53    6.54   555.9    4.6      51.016
2014    9       22     0  58    6.54   555.9    4.6      50.998
2014    9       22     1   4    6.53   555.9    4.6      50.979
2014    9       22     1   9    6.53   555.9    4.6      50.959
2014    9       22     1  15    6.53   556.0    4.6      50.937
2014    9       22     1  20    6.52   556.0    4.6      50.915
2014    9       22     1  25    6.52   556.0    4.6      50.892
2014    9       22     1  31    6.52   556.0    4.6      50.869
2014    9       22     1  36    6.51   556.0    4.6      50.844
2014    9       22     1  42    6.51   556.0    4.6      50.820
2014    9       22     1  47    6.51   556.1    4.6      50.794
2014    9       22     1  52    6.50   556.1    4.6      50.769
2014    9       22     1  58    6.50   556.1    4.6      50.742
2014    9       22     2   3    6.49   556.1    4.6      50.716
2014    9       22     2   9    6.49   556.1    4.6      50.689
2014    9       22     2  14    6.49   556.1    4.6      50.662
2014    9       22     2  19    6.48   556.1    4.6      50.634
2014    9       22     2  25    6.48   556.1    4.6      50.607
2014    9       22     2  30    6.48   556.1    4.6      50.579
2014    9       22     2  36    6.47   556.1    4.6      50.550
2014    9       22     2  41    6.47   556.1    4.6      50.522
2014    9       22     2  46    6.47   556.2    4.6      50.493
2014    9       22     2  52    6.46   556.2    4.6      50.464
2014    9       22     2  57    6.46   556.2    4.5      50.435
2014    9       22     3   3    6.46   556.2    4.5      50.406
2014    9       22     3   8    6.45   556.2    4.5      50.377
2014    9       22     3  13    6.45   556.2    4.5      50.347
2014    9       22     3  19    6.45   556.2    4.5      50.318
2014    9       22     3  24    6.44   556.2    4.5      50.288
2014    9       22     3  30    6.44   556.2    4.5      50.258
2014    9       22     3  35    6.44   556.2    4.5      50.229
2014    9       22     3  40    6.43   556.2    4.5      50.199
2014    9       22     3  46    6.43   556.2    4.5      50.169
2014    9       22     3  51    6.43   556.2    4.5      50.140
2014    9       22     3  57    6.42   556.1    4.5      50.110
2014    9       22     4   2    6.42   556.1    4.5      50.081
2014    9       22     4   8    6.42   556.1    4.5      50.051
2014    9       22     4  13    6.42   556.1    4.5      50.022
2014    9       22     4  18    6.41   556.1    4.5      49.993
2014    9       22     4  24    6.41   556.1    4.5      49.964
2014    9       22     4  29    6.41   556.1    4.5      49.935
2014    9       22     4  35    6.40   556.1    4.5      49.906
2014    9       22     4  40    6.40   556.1    4.5      49.878
2014    9       22     4  45    6.40   556.1    4.5      49.850
2014    9       22     4  51    6.39   556.1    4.5      49.822
2014    9       22     4  56    6.39   556.1    4.5      49.795
2014    9       22     5   2    6.39   556.0    4.5      49.768
2014    9       22     5   7    6.39   556.0    4.5      49.741
2014    9       22     5  12    6.38   556.0    4.5      49.715
2014    9       22     5  18    6.38   556.0    4.5      49.690
2014    9       22     5  23    6.38   556.0    4.5      49.664
2014    9       22     5  29    6.38   556.0    4.4      49.639
2014    9       22     5  34    6.37   556.0    4.4      49.615
2014    9       22     5  39    6.37   556.0    4.4      49.591
2014    9       22     5  45    6.37   556.0    4.4      49.568
2014    9       22     5  50    6.36   555.9    4.4      49.544
2014    9       22     5  56    6.36   555.9    4.4      49.522
2014    9       22     6   1    6.36   555.9    4.4      49.500
2014    9       22     6   6    6.36   555.9    4.4      49.478
2014    9       22     6  12    6.36   555.9    4.4      49.456
2014    9       22     6  17    6.35   555.9    4.4      49.435
2014    9       22     6  23    6.35   555.9    4.4      49.414
2014    9       22     6  28    6.35   555.9    4.4      49.394
2014    9       22     6  34    6.35   555.8    4.4      49.373
2014    9       22     6  39    6.34   555.8    4.4      49.353
2014    9       22     6  44    6.34   555.8    4.4      49.334
2014    9       22     6  50    6.34   555.8    4.4      49.314
2014    9       22     6  55    6.34   555.8    4.4      49.295
2014    9       22     7   1    6.34   555.8    4.4      49.276
2014    9       22     7   6    6.33   555.7    4.4      49.257
2014    9       22     7  11    6.33   555.7    4.4      49.238
2014    9       22     7  17    6.33   555.7    4.4      49.219
2014    9       22     7  22    6.33   555.7    4.4      49.201
2014    9       22     7  28    6.33   555.7    4.4      49.182
2014    9       22     7  33    6.32   555.7    4.4      49.164
2014    9       22     7  38    6.32   555.6    4.4      49.146
2014    9       22     7  44    6.32   555.6    4.4      49.128
2014    9       22     7  49    6.32   555.6    4.4      49.110
2014    9       22     7  55    6.32   555.6    4.4      49.093
2014    9       22     8   0    6.32   555.6    4.4      49.075
2014    9       22     8   5    6.31   555.6    4.4      49.059
2014    9       22     8  11    6.31   555.5    4.4      49.042
2014    9       22     8  16    6.31   555.5    4.4      49.026
2014    9       22     8  22    6.31   555.5    4.4      49.009
2014    9       22     8  27    6.31   555.5    4.4      48.993
2014    9       22     8  32    6.30   555.5    4.4      48.978
2014    9       22     8  38    6.30   555.4    4.4      48.962
2014    9       22     8  43    6.30   555.4    4.4      48.947
2014    9       22     8  49    6.30   555.4    4.4      48.932
2014    9       22     8  54    6.30   555.4    4.4      48.918
2014    9       22     9   0    6.30   555.4    4.4      48.904
2014    9       22     9   5    6.29   555.4    4.4      48.890
2014    9       22     9  10    6.29   555.3    4.4      48.877
2014    9       22     9  16    6.29   555.3    4.4      48.863
2014    9       22     9  21    6.29   555.3    4.4      48.851
2014    9       22     9  27    6.29   555.3    4.4      48.839
2014    9       22     9  32    6.29   555.3    4.4      48.827
2014    9       22     9  37    6.28   555.2    4.4      48.815
2014    9       22     9  43    6.28   555.2    4.4      48.804
2014    9       22     9  48    6.28   555.2    4.4      48.793
2014    9       22     9  54    6.28   555.2    4.4      48.783
2014    9       22     9  59    6.28   555.2    4.4      48.773
2014    9       22    10   4    6.28   555.1    4.4      48.764
2014    9       22    10  10    6.27   555.1    4.4      48.756
2014    9       22    10  15    6.27   555.1    4.4      48.747
2014    9       22    10  21    6.27   555.1    4.4      48.739
2014    9       22    10  26    6.27   555.1    4.4      48.731
2014    9       22    10  31    6.27   555.0    4.4      48.722
2014    9       22    10  37    6.27   555.0    4.4      48.713
2014    9       22    10  42    6.26   555.0    4.4      48.703
2014    9       22    10  48    6.26   555.0    4.4      48.693
2014    9       22    10  53    6.26   554.9    4.4      48.683
2014    9       22    10  58    6.26   554.9    4.4      48.672
2014    9       22    11   4    6.26   554.9    4.4      48.661
2014    9       22    11   9    6.26   554.9    4.4      48.650
2014    9       22    11  15    6.25   554.8    4.4      48.639
2014    9       22    11  20    6.25   554.8    4.4      48.627
2014    9       22    11  26    6.25   554.8    4.4      48.614
2014    9       22    11  31    6.25   554.7    4.4      48.602
2014    9       22    11  36    6.25   554.7    4.4      48.589
2014    9       22    11  42    6.25   554.7    4.4      48.575
2014    9       22    11  47    6.25   554.7    4.4      48.562
2014    9       22    11  53    6.24   554.6    4.4      48.548
2014    9       22    11  58    6.24   554.6    4.4      48.534
2014    9       22    12   3    6.24   554.6    4.4      48.520
2014    9       22    12   9    6.24   554.6    4.4      48.505
2014    9       22    12  14    6.24   554.5    4.4      48.490
2014    9       22    12  20    6.24   554.5    4.4      48.475
2014    9       22    12  25    6.24   554.5    4.4      48.460
2014    9       22    12  30    6.23   554.4    4.4      48.444
2014    9       22    12  36    6.23   554.4    4.4      48.429
2014    9       22    12  41    6.23   554.4    4.4      48.413
2014    9       22    12  47    6.23   554.3    4.4      48.397
2014    9       22    12  52    6.23   554.3    4.4      48.381
2014    9       22    12  57    6.23   554.3    4.4      48.364
2014    9       22    13   3    6.23   554.3    4.4      48.347
2014    9       22    13   8    6.23   554.2    4.4      48.331
2014    9       22    13  14    6.23   554.2    4.4      48.314
2014    9       22    13  19    6.22   554.2    4.4      48.297
2014    9       22    13  24    6.22   554.1    4.4      48.279
2014    9       22    13  30    6.22   554.1    4.4      48.262
2014    9       22    13  35    6.22   554.1    4.4      48.244
2014    9       22    13  41    6.22   554.0    4.4      48.226
2014    9       22    13  46    6.22   554.0    4.4      48.208
2014    9       22    13  52    6.22   554.0    4.4      48.190
2014    9       22    13  57    6.22   554.0    4.4      48.172
2014    9       22    14   2    6.22   553.9    4.4      48.154
2014    9       22    14   8    6.22   553.9    4.4      48.135
2014    9       22    14  13    6.21   553.9    4.3      48.117
2014    9       22    14  19    6.21   553.8    4.3      48.099
2014    9       22    14  24    6.21   553.8    4.3      48.081
2014    9       22    14  29    6.21   553.8    4.3      48.062
2014    9       22    14  35    6.21   553.7    4.3      48.044
2014    9       22    14  40    6.21   553.7    4.3      48.026
2014    9       22    14  46    6.21   553.7    4.3      48.009
2014    9       22    14  51    6.21   553.6    4.3      47.991
2014    9       22    14  56    6.21   553.6    4.3      47.974
2014    9       22    15   2    6.21   553.6    4.3      47.958
2014    9       22    15   7    6.21   553.5    4.3      47.941
2014    9       22    15  13    6.21   553.5    4.3      47.925
2014    9       22    15  18    6.21   553.5    4.3      47.910
2014    9       22    15  23    6.20   553.5    4.3      47.895
2014    9       22    15  29    6.20   553.4    4.3      47.881
2014    9       22    15  34    6.20   553.4    4.3      47.867
2014    9       22    15  40    6.20   553.4    4.3      47.854
2014    9       22    15  45    6.20   553.3    4.3      47.842
2014    9       22    15  50    6.20   553.3    4.3      47.831
2014    9       22    15  56    6.20   553.3    4.3      47.820
2014    9       22    16   1    6.20   553.3    4.3      47.810
2014    9       22    16   7    6.20   553.2    4.3      47.800
2014    9       22    16  12    6.20   553.2    4.3      47.792
2014    9       22    16  18    6.20   553.2    4.3      47.784
2014    9       22    16  23    6.20   553.2    4.3      47.776
2014    9       22    16  28    6.20   553.1    4.3      47.770
2014    9       22    16  34    6.20   553.1    4.3      47.764
2014    9       22    16  39    6.19   553.1    4.3      47.760
2014    9       22    16  45    6.19   553.1    4.3      47.756
2014    9       22    16  50    6.19   553.1    4.3      47.753
2014    9       22    16  55    6.19   553.0    4.3      47.750
2014    9       22    17   1    6.19   553.0    4.3      47.748
2014    9       22    17   6    6.19   553.0    4.3      47.747
2014    9       22    17  12    6.19   553.0    4.3      47.747
2014    9       22    17  17    6.19   552.9    4.3      47.747
2014    9       22    17  22    6.19   552.9    4.3      47.749
2014    9       22    17  28    6.19   552.9    4.3      47.751
2014    9       22    17  33    6.19   552.9    4.4      47.753
2014    9       22    17  39    6.19   552.9    4.4      47.756
2014    9       22    17  44    6.19   552.8    4.4      47.759
2014    9       22    17  49    6.18   552.8    4.4      47.761
2014    9       22    17  55    6.18   552.8    4.4      47.764
2014    9       22    18   0    6.18   552.8    4.4      47.766
2014    9       22    18   6    6.18   552.7    4.4      47.767
2014    9       22    18  11    6.18   552.7    4.4      47.769
2014    9       22    18  16    6.18   552.7    4.4      47.770
2014    9       22    18  22    6.18   552.7    4.4      47.771
2014    9       22    18  27    6.18   552.6    4.4      47.772
2014    9       22    18  33    6.18   552.6    4.4      47.772
2014    9       22    18  38    6.18   552.6    4.4      47.771
2014    9       22    18  43    6.18   552.6    4.4      47.770
2014    9       22    18  49    6.18   552.5    4.4      47.769
2014    9       22    18  54    6.18   552.5    4.4      47.767
2014    9       22    19   0    6.18   552.5    4.4      47.764
2014    9       22    19   5    6.18   552.4    4.4      47.761
2014    9       22    19  11    6.18   552.4    4.4      47.758
2014    9       22    19  16    6.17   552.4    4.4      47.755
2014    9       22    19  21    6.17   552.4    4.4      47.751
2014    9       22    19  27    6.17   552.3    4.4      47.747
2014    9       22    19  32    6.17   552.3    4.4      47.742
2014    9       22    19  38    6.17   552.3    4.4      47.738
2014    9       22    19  43    6.17   552.3    4.4      47.732
2014    9       22    19  48    6.17   552.2    4.4      47.727
2014    9       22    19  54    6.17   552.2    4.4      47.721
2014    9       22    19  59    6.17   552.2    4.4      47.715
2014    9       22    20   5    6.17   552.1    4.4      47.709
2014    9       22    20  10    6.17   552.1    4.4      47.702
2014    9       22    20  15    6.17   552.1    4.4      47.696
2014    9       22    20  21    6.17   552.1    4.4      47.688
2014    9       22    20  26    6.17   552.0    4.4      47.681
2014    9       22    20  32    6.17   552.0    4.4      47.674
2014    9       22    20  37    6.17   552.0    4.4      47.666
2014    9       22    20  42    6.17   552.0    4.4      47.658
2014    9       22    20  48    6.17   551.9    4.4      47.650
2014    9       22    20  53    6.17   551.9    4.4      47.642
2014    9       22    20  59    6.17   551.9    4.4      47.634
2014    9       22    21   4    6.17   551.9    4.4      47.625
2014    9       22    21   9    6.17   551.8    4.4      47.617
2014    9       22    21  15    6.17   551.8    4.4      47.608
2014    9       22    21  20    6.17   551.8    4.4      47.599
2014    9       22    21  26    6.17   551.8    4.4      47.590
2014    9       22    21  31    6.17   551.7    4.4      47.581
2014    9       22    21  36    6.17   551.7    4.4      47.572
2014    9       22    21  42    6.17   551.7    4.4      47.563
2014    9       22    21  47    6.17   551.7    4.3      47.554
2014    9       22    21  53    6.16   551.6    4.3      47.545
2014    9       22    21  58    6.16   551.6    4.3      47.536
2014    9       22    22   4    6.16   551.6    4.3      47.528
2014    9       22    22   9    6.16   551.6    4.3      47.519
2014    9       22    22  14    6.16   551.5    4.3      47.510
2014    9       22    22  20    6.16   551.5    4.3      47.502
2014    9       22    22  25    6.16   551.5    4.3      47.493
2014    9       22    22  31    6.16   551.5    4.3      47.485
2014    9       22    22  36    6.16   551.4    4.3      47.476
2014    9       22    22  41    6.16   551.4    4.3      47.468
2014    9       22    22  47    6.16   551.4    4.3      47.460
2014    9       22    22  52    6.16   551.4    4.3      47.453
2014    9       22    22  58    6.16   551.3    4.3      47.445
2014    9       22    23   3    6.16   551.3    4.3      47.438
2014    9       22    23   8    6.16   551.3    4.3      47.430
2014    9       22    23  14    6.16   551.3    4.3      47.423
2014    9       22    23  19    6.16   551.2    4.3      47.417
2014    9       22    23  25    6.16   551.2    4.3      47.410
2014    9       22    23  30    6.16   551.2    4.3      47.404
2014    9       22    23  35    6.16   551.2    4.3      47.398
2014    9       22    23  41    6.16   551.1    4.3      47.392
2014    9       22    23  46    6.16   551.1    4.3      47.386
2014    9       22    23  52    6.16   551.1    4.3      47.381
2014    9       22    23  57    6.16   551.1    4.3      47.376
2014    9       23     0   3    6.16   551.0    4.3      47.371
2014    9       23     0   8    6.16   551.0    4.3      47.367
2014    9       23     0  13    6.16   551.0    4.3      47.363
2014    9       23     0  19    6.16   551.0    4.3      47.359
2014    9       23     0  24    6.16   551.0    4.3      47.355
2014    9       23     0  30    6.16   550.9    4.3      47.352
2014    9       23     0  35    6.16   550.9    4.3      47.349
2014    9       23     0  40    6.16   550.9    4.3      47.346
2014    9       23     0  46    6.16   550.9    4.3      47.343
2014    9       23     0  51    6.16   550.9    4.3      47.341
2014    9       23     0  57    6.16   550.8    4.3      47.339
2014    9       23     1   2    6.16   550.8    4.3      47.337
2014    9       23     1   7    6.16   550.8    4.3      47.336
2014    9       23     1  13    6.16   550.8    4.3      47.334
2014    9       23     1  18    6.15   550.8    4.3      47.332
2014    9       23     1  24    6.15   550.7    4.3      47.331
2014    9       23     1  29    6.15   550.7    4.3      47.330
2014    9       23     1  34    6.15   550.7    4.3      47.329
2014    9       23     1  40    6.15   550.7    4.3      47.328
2014    9       23     1  45    6.15   550.7    4.3      47.328
2014    9       23     1  51    6.15   550.6    4.3      47.327
2014    9       23     1  56    6.15   550.6    4.3      47.326
2014    9       23     2   2    6.15   550.6    4.3      47.325
2014    9       23     2   7    6.15   550.6    4.3      47.324
2014    9       23     2  12    6.15   550.6    4.3      47.322
2014    9       23     2  18    6.15   550.6    4.3      47.320
2014    9       23     2  23    6.15   550.5    4.4      47.318
2014    9       23     2  29    6.15   550.5    4.4      47.316
2014    9       23     2  34    6.15   550.5    4.4      47.314
2014    9       23     2  39    6.15   550.5    4.4      47.311
2014    9       23     2  45    6.15   550.4    4.4      47.309
2014    9       23     2  50    6.15   550.4    4.4      47.306
2014    9       23     2  56    6.15   550.4    4.4      47.303
2014    9       23     3   1    6.15   550.4    4.4      47.300
2014    9       23     3   6    6.15   550.4    4.4      47.297
2014    9       23     3  12    6.15   550.3    4.4      47.294
2014    9       23     3  17    6.15   550.3    4.4      47.291
2014    9       23     3  23    6.15   550.3    4.4      47.289
2014    9       23     3  28    6.15   550.3    4.4      47.286
2014    9       23     3  33    6.15   550.2    4.4      47.283
2014    9       23     3  39    6.15   550.2    4.4      47.281
2014    9       23     3  44    6.15   550.2    4.4      47.278
2014    9       23     3  50    6.15   550.2    4.4      47.276
2014    9       23     3  55    6.15   550.1    4.4      47.274
2014    9       23     4   1    6.15   550.1    4.4      47.272
2014    9       23     4   6    6.15   550.1    4.4      47.270
2014    9       23     4  11    6.15   550.1    4.4      47.269
2014    9       23     4  17    6.15   550.0    4.4      47.269
2014    9       23     4  22    6.15   550.0    4.4      47.268
2014    9       23     4  28    6.15   550.0    4.4      47.268
2014    9       23     4  33    6.15   550.0    4.4      47.269
2014    9       23     4  38    6.16   549.9    4.4      47.270
2014    9       23     4  44    6.16   549.9    4.4      47.272
2014    9       23     4  49    6.16   549.9    4.4      47.275
2014    9       23     4  55    6.16   549.9    4.4      47.279
2014    9       23     5   0    6.16   549.8    4.4      47.284
2014    9       23     5   5    6.16   549.8    4.4      47.289
2014    9       23     5  11    6.16   549.8    4.4      47.296
2014    9       23     5  16    6.16   549.8    4.4      47.304
2014    9       23     5  22    6.16   549.7    4.4      47.312
2014    9       23     5  27    6.16   549.7    4.4      47.322
2014    9       23     5  33    6.16   549.7    4.4      47.332
2014    9       23     5  38    6.16   549.7    4.4      47.344
2014    9       23     5  43    6.16   549.7    4.4      47.355
2014    9       23     5  49    6.16   549.7    4.4      47.366
2014    9       23     5  54    6.16   549.7    4.4      47.377
2014    9       23     6   0    6.16   549.6    4.4      47.387
2014    9       23     6   5    6.16   549.6    4.4      47.396
2014    9       23     6  10    6.16   549.6    4.4      47.405
2014    9       23     6  16    6.16   549.6    4.4      47.413
2014    9       23     6  21    6.16   549.6    4.4      47.421
2014    9       23     6  27    6.16   549.6    4.4      47.428
2014    9       23     6  32    6.16   549.6    4.4      47.435
2014    9       23     6  37    6.16   549.6    4.4      47.441
2014    9       23     6  43    6.16   549.6    4.4      47.447
2014    9       23     6  48    6.16   549.6    4.4      47.452
2014    9       23     6  54    6.16   549.5    4.4      47.456
2014    9       23     6  59    6.16   549.5    4.4      47.459
2014    9       23     7   5    6.16   549.5    4.4      47.461
2014    9       23     7  10    6.16   549.5    4.4      47.463
2014    9       23     7  15    6.16   549.5    4.4      47.464
2014    9       23     7  21    6.16   549.5    4.4      47.465
2014    9       23     7  26    6.16   549.5    4.4      47.465
2014    9       23     7  32    6.16   549.5    4.4      47.464
2014    9       23     7  37    6.16   549.5    4.4      47.463
2014    9       23     7  42    6.16   549.5    4.4      47.461
2014    9       23     7  48    6.16   549.5    4.4      47.459
2014    9       23     7  53    6.16   549.5    4.4      47.456
2014    9       23     7  59    6.16   549.5    4.4      47.453
2014    9       23     8   4    6.16   549.5    4.4      47.450
2014    9       23     8   9    6.17   549.5    4.4      47.446
2014    9       23     8  15    6.17   549.5    4.4      47.442
2014    9       23     8  20    6.17   549.4    4.4      47.438
2014    9       23     8  26    6.17   549.4    4.4      47.433
2014    9       23     8  31    6.17   549.4    4.4      47.429
2014    9       23     8  36    6.17   549.4    4.4      47.424
2014    9       23     8  42    6.17   549.4    4.4      47.419
2014    9       23     8  47    6.17   549.4    4.4      47.413
2014    9       23     8  53    6.17   549.4    4.4      47.407
2014    9       23     8  58    6.17   549.4    4.4      47.402
2014    9       23     9   4    6.17   549.4    4.4      47.396
2014    9       23     9   9    6.17   549.4    4.4      47.390
2014    9       23     9  14    6.17   549.4    4.4      47.384
2014    9       23     9  20    6.17   549.4    4.4      47.377
2014    9       23     9  25    6.17   549.4    4.4      47.371
2014    9       23     9  31    6.17   549.4    4.4      47.365
2014    9       23     9  36    6.17   549.4    4.4      47.358
2014    9       23     9  41    6.17   549.4    4.4      47.351
2014    9       23     9  47    6.17   549.4    4.4      47.344
2014    9       23     9  52    6.17   549.4    4.4      47.338
2014    9       23     9  58    6.17   549.3    4.4      47.331
2014    9       23    10   3    6.17   549.3    4.4      47.324
2014    9       23    10   8    6.17   549.3    4.4      47.317
2014    9       23    10  14    6.17   549.3    4.4      47.310
2014    9       23    10  19    6.17   549.3    4.4      47.303
2014    9       23    10  25    6.17   549.3    4.4      47.297
2014    9       23    10  30    6.17   549.3    4.4      47.291
2014    9       23    10  36    6.17   549.3    4.4      47.285
2014    9       23    10  41    6.17   549.3    4.4      47.280
2014    9       23    10  46    6.17   549.2    4.4      47.275
2014    9       23    10  52    6.18   549.2    4.4      47.271
2014    9       23    10  57    6.18   549.2    4.4      47.267
2014    9       23    11   3    6.18   549.2    4.4      47.264
2014    9       23    11   8    6.18   549.2    4.4      47.262
2014    9       23    11  13    6.18   549.2    4.4      47.261
2014    9       23    11  19    6.18   549.2    4.4      47.260
2014    9       23    11  24    6.18   549.2    4.4      47.261
2014    9       23    11  30    6.18   549.1    4.4      47.262
2014    9       23    11  35    6.18   549.1    4.4      47.264
2014    9       23    11  40    6.18   549.1    4.4      47.268
2014    9       23    11  46    6.18   549.1    4.4      47.273
2014    9       23    11  51    6.18   549.1    4.4      47.279
2014    9       23    11  57    6.18   549.1    4.4      47.286
2014    9       23    12   2    6.18   549.0    4.4      47.295
2014    9       23    12   7    6.18   549.0    4.4      47.307
2014    9       23    12  13    6.18   549.0    4.4      47.320
2014    9       23    12  18    6.18   549.0    4.4      47.335
2014    9       23    12  24    6.18   549.0    4.4      47.351
2014    9       23    12  29    6.19   549.0    4.4      47.370
2014    9       23    12  35    6.19   549.0    4.4      47.391
2014    9       23    12  40    6.19   548.9    4.4      47.414
2014    9       23    12  45    6.19   548.9    4.4      47.439
2014    9       23    12  51    6.19   548.9    4.4      47.466
2014    9       23    12  56    6.19   548.9    4.4      47.493
2014    9       23    13   2    6.19   548.9    4.4      47.522
2014    9       23    13   7    6.19   548.9    4.4      47.550
2014    9       23    13  12    6.19   548.9    4.4      47.576
2014    9       23    13  18    6.19   548.9    4.4      47.601
2014    9       23    13  23    6.19   548.9    4.4      47.625
2014    9       23    13  29    6.20   548.9    4.4      47.647
2014    9       23    13  34    6.20   548.9    4.4      47.668
2014    9       23    13  39    6.20   548.9    4.4      47.688
2014    9       23    13  45    6.20   549.0    4.4      47.707
2014    9       23    13  50    6.20   549.0    4.4      47.725
2014    9       23    13  56    6.20   549.0    4.4      47.741
2014    9       23    14   1    6.20   549.0    4.4      47.756
2014    9       23    14   7    6.20   549.0    4.4      47.770
2014    9       23    14  12    6.20   549.0    4.4      47.783
2014    9       23    14  17    6.20   549.0    4.4      47.794
2014    9       23    14  23    6.20   549.0    4.4      47.805
2014    9       23    14  28    6.20   549.0    4.4      47.814
2014    9       23    14  34    6.21   549.0    4.4      47.822
2014    9       23    14  39    6.21   549.0    4.4      47.830
2014    9       23    14  44    6.21   549.0    4.4      47.836
2014    9       23    14  50    6.21   549.0    4.4      47.842
2014    9       23    14  55    6.21   549.0    4.4      47.846
2014    9       23    15   1    6.21   549.0    4.4      47.850
2014    9       23    15   6    6.21   549.1    4.4      47.854
2014    9       23    15  11    6.21   549.1    4.4      47.856
2014    9       23    15  17    6.21   549.1    4.4      47.858
2014    9       23    15  22    6.21   549.1    4.4      47.860
2014    9       23    15  28    6.21   549.1    4.4      47.861
2014    9       23    15  33    6.21   549.1    4.4      47.861
2014    9       23    15  38    6.21   549.1    4.4      47.861
2014    9       23    15  44    6.22   549.1    4.4      47.860
2014    9       23    15  49    6.22   549.1    4.4      47.859
2014    9       23    15  55    6.22   549.1    4.4      47.857
2014    9       23    16   0    6.22   549.1    4.4      47.855
2014    9       23    16   6    6.22   549.1    4.4      47.853
2014    9       23    16  11    6.22   549.1    4.4      47.850
2014    9       23    16  16    6.22   549.1    4.4      47.847
2014    9       23    16  22    6.22   549.2    4.4      47.844
2014    9       23    16  27    6.22   549.2    4.4      47.840
2014    9       23    16  33    6.22   549.2    4.4      47.836
2014    9       23    16  38    6.22   549.2    4.4      47.832
2014    9       23    16  43    6.22   549.2    4.4      47.828
2014    9       23    16  49    6.22   549.2    4.4      47.823
2014    9       23    16  54    6.23   549.2    4.4      47.818
2014    9       23    17   0    6.23   549.2    4.4      47.814
2014    9       23    17   5    6.23   549.2    4.4      47.809
2014    9       23    17  10    6.23   549.2    4.4      47.805
2014    9       23    17  16    6.23   549.2    4.4      47.800
2014    9       23    17  21    6.23   549.2    4.4      47.797
2014    9       23    17  27    6.23   549.2    4.4      47.793
2014    9       23    17  32    6.23   549.2    4.4      47.790
2014    9       23    17  38    6.23   549.2    4.4      47.788
2014    9       23    17  43    6.23   549.2    4.4      47.786
2014    9       23    17  48    6.23   549.2    4.4      47.786
2014    9       23    17  54    6.24   549.2    4.4      47.786
2014    9       23    17  59    6.24   549.2    4.4      47.787
2014    9       23    18   5    6.24   549.2    4.4      47.790
2014    9       23    18  10    6.24   549.2    4.4      47.794
2014    9       23    18  15    6.24   549.2    4.4      47.799
2014    9       23    18  21    6.24   549.2    4.4      47.807
2014    9       23    18  26    6.24   549.2    4.4      47.816
2014    9       23    18  32    6.24   549.2    4.4      47.827
2014    9       23    18  37    6.24   549.2    4.4      47.839
2014    9       23    18  42    6.25   549.2    4.4      47.853
2014    9       23    18  48    6.25   549.2    4.4      47.870
2014    9       23    18  53    6.25   549.2    4.4      47.889
2014    9       23    18  59    6.25   549.3    4.4      47.910
2014    9       23    19   4    6.25   549.3    4.4      47.933
2014    9       23    19   9    6.25   549.3    4.4      47.958
2014    9       23    19  15    6.25   549.3    4.4      47.985
2014    9       23    19  20    6.25   549.4    4.4      48.012
2014    9       23    19  26    6.26   549.4    4.4      48.040
2014    9       23    19  31    6.26   549.4    4.4      48.067
2014    9       23    19  37    6.26   549.4    4.4      48.095
2014    9       23    19  42    6.26   549.4    4.4      48.123
2014    9       23    19  47    6.26   549.5    4.4      48.151
2014    9       23    19  53    6.26   549.5    4.4      48.179
2014    9       23    19  58    6.26   549.5    4.4      48.209
2014    9       23    20   4    6.26   549.5    4.4      48.239
2014    9       23    20   9    6.27   549.6    4.4      48.269
2014    9       23    20  14    6.27   549.6    4.4      48.298
2014    9       23    20  20    6.27   549.6    4.4      48.328
2014    9       23    20  25    6.27   549.7    4.4      48.356
2014    9       23    20  31    6.27   549.7    4.4      48.383
2014    9       23    20  36    6.27   549.7    4.4      48.409
2014    9       23    20  41    6.27   549.7    4.4      48.435
2014    9       23    20  47    6.28   549.8    4.4      48.459
2014    9       23    20  52    6.28   549.8    4.4      48.482
2014    9       23    20  58    6.28   549.8    4.4      48.504
2014    9       23    21   3    6.28   549.9    4.4      48.526
2014    9       23    21   9    6.28   549.9    4.4      48.546
2014    9       23    21  14    6.28   549.9    4.4      48.566
2014    9       23    21  19    6.28   550.0    4.4      48.585
2014    9       23    21  25    6.28   550.0    4.4      48.603
2014    9       23    21  30    6.29   550.0    4.4      48.620
2014    9       23    21  36    6.29   550.0    4.4      48.637
2014    9       23    21  41    6.29   550.1    4.4      48.654
2014    9       23    21  46    6.29   550.1    4.4      48.669
2014    9       23    21  52    6.29   550.1    4.4      48.684
2014    9       23    21  57    6.29   550.2    4.4      48.699
2014    9       23    22   3    6.29   550.2    4.4      48.714
2014    9       23    22   8    6.30   550.2    4.4      48.728
2014    9       23    22  13    6.30   550.3    4.4      48.741
2014    9       23    22  19    6.30   550.3    4.4      48.755
2014    9       23    22  24    6.30   550.3    4.4      48.768
2014    9       23    22  30    6.30   550.4    4.4      48.781
2014    9       23    22  35    6.30   550.4    4.4      48.794
2014    9       23    22  41    6.30   550.4    4.4      48.807
2014    9       23    22  46    6.31   550.5    4.4      48.820
2014    9       23    22  51    6.31   550.5    4.4      48.833
2014    9       23    22  57    6.31   550.5    4.4      48.846
2014    9       23    23   2    6.31   550.6    4.4      48.859
2014    9       23    23   8    6.31   550.6    4.4      48.872
2014    9       23    23  13    6.31   550.6    4.4      48.885
2014    9       23    23  18    6.31   550.7    4.4      48.899
2014    9       23    23  24    6.32   550.7    4.4      48.913
2014    9       23    23  29    6.32   550.8    4.4      48.927
2014    9       23    23  35    6.32   550.8    4.4      48.941
2014    9       23    23  40    6.32   550.9    4.4      48.955
2014    9       23    23  45    6.32   550.9    4.4      48.970
2014    9       23    23  51    6.32   550.9    4.4      48.985
2014    9       23    23  56    6.32   551.0    4.4      49.001
2014    9       24     0   2    6.33   551.0    4.4      49.016
2014    9       24     0   7    6.33   551.1    4.4      49.032
2014    9       24     0  13    6.33   551.1    4.4      49.049
2014    9       24     0  18    6.33   551.2    4.4      49.066
2014    9       24     0  23    6.33   551.2    4.4      49.083
2014    9       24     0  29    6.33   551.3    4.4      49.101
2014    9       24     0  34    6.33   551.3    4.4      49.119
2014    9       24     0  40    6.34   551.4    4.4      49.138
2014    9       24     0  45    6.34   551.4    4.4      49.157
2014    9       24     0  50    6.34   551.5    4.4      49.178
2014    9       24     0  56    6.34   551.5    4.4      49.199
2014    9       24     1   1    6.34   551.6    4.4      49.221
2014    9       24     1   7    6.34   551.6    4.4      49.243
2014    9       24     1  12    6.35   551.7    4.4      49.267
2014    9       24     1  17    6.35   551.7    4.4      49.291
2014    9       24     1  23    6.35   551.8    4.4      49.316
2014    9       24     1  28    6.35   551.9    4.4      49.342
2014    9       24     1  34    6.35   551.9    4.4      49.370
2014    9       24     1  39    6.35   552.0    4.4      49.398
2014    9       24     1  44    6.36   552.0    4.5      49.428
2014    9       24     1  50    6.36   552.1    4.5      49.458
2014    9       24     1  55    6.36   552.2    4.5      49.490
2014    9       24     2   1    6.36   552.2    4.5      49.523
2014    9       24     2   6    6.36   552.3    4.5      49.557
2014    9       24     2  12    6.36   552.4    4.5      49.593
2014    9       24     2  17    6.37   552.4    4.5      49.631
2014    9       24     2  22    6.37   552.5    4.5      49.671
2014    9       24     2  28    6.37   552.6    4.5      49.711
2014    9       24     2  33    6.37   552.7    4.5      49.752
2014    9       24     2  39    6.37   552.7    4.5      49.792
2014    9       24     2  44    6.38   552.8    4.5      49.832
2014    9       24     2  49    6.38   552.9    4.5      49.871
2014    9       24     2  55    6.38   553.0    4.5      49.911
2014    9       24     3   0    6.38   553.0    4.5      49.950
2014    9       24     3   6    6.38   553.1    4.5      49.988
2014    9       24     3  11    6.38   553.2    4.5      50.027
2014    9       24     3  16    6.39   553.3    4.5      50.065
2014    9       24     3  22    6.39   553.4    4.5      50.103
2014    9       24     3  27    6.39   553.4    4.5      50.141
2014    9       24     3  33    6.39   553.5    4.5      50.178
2014    9       24     3  38    6.39   553.6    4.5      50.215
2014    9       24     3  44    6.40   553.7    4.5      50.252
2014    9       24     3  49    6.40   553.8    4.5      50.288
2014    9       24     3  54    6.40   553.8    4.5      50.324
2014    9       24     4   0    6.40   553.9    4.5      50.359
2014    9       24     4   5    6.40   554.0    4.5      50.393
2014    9       24     4  11    6.41   554.1    4.5      50.426
2014    9       24     4  16    6.41   554.2    4.5      50.459
2014    9       24     4  21    6.41   554.3    4.5      50.492
2014    9       24     4  27    6.41   554.3    4.5      50.524
2014    9       24     4  32    6.41   554.4    4.5      50.555
2014    9       24     4  38    6.41   554.5    4.5      50.587
2014    9       24     4  43    6.42   554.6    4.5      50.617
2014    9       24     4  48    6.42   554.7    4.5      50.648
2014    9       24     4  54    6.42   554.7    4.5      50.678
2014    9       24     4  59    6.42   554.8    4.5      50.708
2014    9       24     5   5    6.42   554.9    4.5      50.738
2014    9       24     5  10    6.43   555.0    4.5      50.767
2014    9       24     5  15    6.43   555.1    4.5      50.797
2014    9       24     5  21    6.43   555.2    4.5      50.826
2014    9       24     5  26    6.43   555.3    4.5      50.855
2014    9       24     5  32    6.43   555.3    4.5      50.885
2014    9       24     5  37    6.44   555.4    4.5      50.914
2014    9       24     5  43    6.44   555.5    4.5      50.944
2014    9       24     5  48    6.44   555.6    4.5      50.975
2014    9       24     5  53    6.44   555.7    4.5      51.006
2014    9       24     5  59    6.44   555.8    4.5      51.037
2014    9       24     6   4    6.45   555.9    4.5      51.068
2014    9       24     6  10    6.45   556.0    4.5      51.100
2014    9       24     6  15    6.45   556.1    4.5      51.133
2014    9       24     6  20    6.45   556.2    4.5      51.167
2014    9       24     6  26    6.45   556.3    4.5      51.201
2014    9       24     6  31    6.46   556.4    4.5      51.236
2014    9       24     6  37    6.46   556.5    4.5      51.272
2014    9       24     6  42    6.46   556.6    4.5      51.308
2014    9       24     6  47    6.46   556.7    4.5      51.344
2014    9       24     6  53    6.46   556.8    4.5      51.380
2014    9       24     6  58    6.46   557.0    4.5      51.416
2014    9       24     7   4    6.47   557.1    4.5      51.451
2014    9       24     7   9    6.47   557.2    4.5      51.487
2014    9       24     7  14    6.47   557.3    4.5      51.522
2014    9       24     7  20    6.47   557.4    4.5      51.558
2014    9       24     7  25    6.47   557.6    4.5      51.593
2014    9       24     7  31    6.48   557.7    4.5      51.628
2014    9       24     7  36    6.48   557.8    4.5      51.663
2014    9       24     7  42    6.48   557.9    4.5      51.698
2014    9       24     7  47    6.48   558.1    4.5      51.734
2014    9       24     7  52    6.48   558.2    4.5      51.769
2014    9       24     7  58    6.48   558.3    4.5      51.804
2014    9       24     8   3    6.49   558.4    4.5      51.840
2014    9       24     8   9    6.49   558.6    4.5      51.875
2014    9       24     8  14    6.49   558.7    4.5      51.910
2014    9       24     8  19    6.49   558.8    4.5      51.946
2014    9       24     8  25    6.49   559.0    4.5      51.982
2014    9       24     8  30    6.50   559.1    4.5      52.018
2014    9       24     8  36    6.50   559.2    4.5      52.055
2014    9       24     8  41    6.50   559.3    4.5      52.092
2014    9       24     8  46    6.50   559.5    4.5      52.130
2014    9       24     8  52    6.50   559.6    4.5      52.169
2014    9       24     8  57    6.51   559.7    4.5      52.209
2014    9       24     9   3    6.51   559.9    4.5      52.251
2014    9       24     9   8    6.51   560.0    4.5      52.294
2014    9       24     9  13    6.51   560.2    4.5      52.338
2014    9       24     9  19    6.51   560.3    4.5      52.384
2014    9       24     9  24    6.52   560.4    4.5      52.431
2014    9       24     9  30    6.52   560.6    4.5      52.479
2014    9       24     9  35    6.52   560.7    4.5      52.527
2014    9       24     9  41    6.52   560.9    4.5      52.577
2014    9       24     9  46    6.52   561.0    4.5      52.628
2014    9       24     9  51    6.53   561.2    4.5      52.680
2014    9       24     9  57    6.53   561.3    4.5      52.733
2014    9       24    10   2    6.53   561.5    4.5      52.787
2014    9       24    10   8    6.53   561.7    4.5      52.841
2014    9       24    10  13    6.53   561.8    4.5      52.897
2014    9       24    10  18    6.54   562.0    4.5      52.954
2014    9       24    10  24    6.54   562.2    4.5      53.011
2014    9       24    10  29    6.54   562.3    4.5      53.070
2014    9       24    10  35    6.54   562.5    4.5      53.130
2014    9       24    10  40    6.55   562.7    4.5      53.190
2014    9       24    10  45    6.55   562.9    4.5      53.251
2014    9       24    10  51    6.55   563.0    4.5      53.312
2014    9       24    10  56    6.55   563.2    4.5      53.373
2014    9       24    11   2    6.55   563.4    4.5      53.434
2014    9       24    11   7    6.55   563.6    4.5      53.494
2014    9       24    11  12    6.56   563.8    4.5      53.553
2014    9       24    11  18    6.56   563.9    4.5      53.612
2014    9       24    11  23    6.56   564.1    4.5      53.671
2014    9       24    11  29    6.56   564.3    4.5      53.729
2014    9       24    11  34    6.56   564.5    4.5      53.787
2014    9       24    11  40    6.57   564.7    4.5      53.845
2014    9       24    11  45    6.57   564.9    4.5      53.902
2014    9       24    11  50    6.57   565.1    4.5      53.958
2014    9       24    11  56    6.57   565.2    4.5      54.015
2014    9       24    12   1    6.57   565.4    4.5      54.071
2014    9       24    12   7    6.57   565.6    4.5      54.126
2014    9       24    12  12    6.58   565.8    4.5      54.181
2014    9       24    12  17    6.58   566.0    4.5      54.236
2014    9       24    12  23    6.58   566.2    4.5      54.290
2014    9       24    12  28    6.58   566.4    4.5      54.343
2014    9       24    12  34    6.58   566.6    4.5      54.397
2014    9       24    12  39    6.58   566.8    4.5      54.449
2014    9       24    12  44    6.59   567.0    4.5      54.501
2014    9       24    12  50    6.59   567.2    4.5      54.552
2014    9       24    12  55    6.59   567.4    4.5      54.602
2014    9       24    13   1    6.59   567.6    4.5      54.651
2014    9       24    13   6    6.59   567.8    4.5      54.699
2014    9       24    13  11    6.59   568.0    4.5      54.746
2014    9       24    13  17    6.59   568.2    4.5      54.793
2014    9       24    13  22    6.60   568.4    4.5      54.839
2014    9       24    13  28    6.60   568.6    4.5      54.884
2014    9       24    13  33    6.60   568.8    4.5      54.929
2014    9       24    13  39    6.60   569.0    4.5      54.974
2014    9       24    13  44    6.60   569.2    4.5      55.019
2014    9       24    13  49    6.60   569.4    4.5      55.063
2014    9       24    13  55    6.61   569.6    4.5      55.107
2014    9       24    14   0    6.61   569.8    4.5      55.151
2014    9       24    14   6    6.61   570.0    4.5      55.195
2014    9       24    14  11    6.61   570.2    4.5      55.239
2014    9       24    14  16    6.61   570.5    4.5      55.282
2014    9       24    14  22    6.61   570.7    4.5      55.326
2014    9       24    14  27    6.61   570.9    4.5      55.369
2014    9       24    14  33    6.62   571.1    4.5      55.412
2014    9       24    14  38    6.62   571.4    4.5      55.454
2014    9       24    14  43    6.62   571.6    4.5      55.495
2014    9       24    14  49    6.62   571.8    4.5      55.536
2014    9       24    14  54    6.62   572.0    4.5      55.576
2014    9       24    15   0    6.62   572.3    4.4      55.615
2014    9       24    15   5    6.63   572.5    4.4      55.654
2014    9       24    15  10    6.63   572.7    4.4      55.693
2014    9       24    15  16    6.63   573.0    4.4      55.731
2014    9       24    15  21    6.63   573.2    4.4      55.769
2014    9       24    15  27    6.63   573.5    4.4      55.807
2014    9       24    15  32    6.63   573.7    4.4      55.845
2014    9       24    15  37    6.63   573.9    4.4      55.883
2014    9       24    15  43    6.64   574.2    4.4      55.922
2014    9       24    15  48    6.64   574.4    4.4      55.960
2014    9       24    15  54    6.64   574.7    4.4      56.000
2014    9       24    15  59    6.64   574.9    4.4      56.040
2014    9       24    16   5    6.64   575.2    4.4      56.080
2014    9       24    16  10    6.64   575.4    4.4      56.121
2014    9       24    16  15    6.64   575.7    4.4      56.162
2014    9       24    16  21    6.65   575.9    4.4      56.203
2014    9       24    16  26    6.65   576.2    4.4      56.244
2014    9       24    16  32    6.65   576.5    4.4      56.285
2014    9       24    16  37    6.65   576.7    4.4      56.327
2014    9       24    16  42    6.65   577.0    4.4      56.369
2014    9       24    16  48    6.65   577.2    4.4      56.411
2014    9       24    16  53    6.65   577.5    4.4      56.454
2014    9       24    16  59    6.65   577.8    4.4      56.498
2014    9       24    17   4    6.66   578.0    4.4      56.543
2014    9       24    17   9    6.66   578.3    4.4      56.589
2014    9       24    17  15    6.66   578.6    4.4      56.636
2014    9       24    17  20    6.66   578.9    4.4      56.685
2014    9       24    17  26    6.66   579.2    4.4      56.735
2014    9       24    17  31    6.66   579.4    4.4      56.787
2014    9       24    17  36    6.66   579.7    4.4      56.840
2014    9       24    17  42    6.66   580.0    4.4      56.894
2014    9       24    17  47    6.66   580.3    4.4      56.949
2014    9       24    17  53    6.66   580.6    4.4      57.005
2014    9       24    17  58    6.66   580.9    4.4      57.062
2014    9       24    18   4    6.67   581.2    4.4      57.120
2014    9       24    18   9    6.67   581.5    4.4      57.179
2014    9       24    18  14    6.67   581.8    4.4      57.241
2014    9       24    18  20    6.67   582.1    4.4      57.304
2014    9       24    18  25    6.67   582.4    4.4      57.369
2014    9       24    18  31    6.67   582.7    4.4      57.434
2014    9       24    18  36    6.67   583.0    4.4      57.501
2014    9       24    18  41    6.67   583.3    4.4      57.567
2014    9       24    18  47    6.67   583.6    4.3      57.633
2014    9       24    18  52    6.67   583.9    4.3      57.699
2014    9       24    18  58    6.67   584.2    4.3      57.766
2014    9       24    19   3    6.67   584.5    4.3      57.833
2014    9       24    19   8    6.67   584.8    4.3      57.900
2014    9       24    19  14    6.67   585.1    4.3      57.967
2014    9       24    19  19    6.67   585.4    4.3      58.034
2014    9       24    19  25    6.67   585.7    4.3      58.102
2014    9       24    19  30    6.67   586.0    4.3      58.169
2014    9       24    19  35    6.67   586.3    4.3      58.237
2014    9       24    19  41    6.67   586.6    4.3      58.303
2014    9       24    19  46    6.67   586.9    4.3      58.370
2014    9       24    19  52    6.67   587.2    4.3      58.436
2014    9       24    19  57    6.67   587.5    4.3      58.502
2014    9       24    20   2    6.67   587.8    4.3      58.566
2014    9       24    20   8    6.67   588.2    4.3      58.629
2014    9       24    20  13    6.67   588.5    4.3      58.691
2014    9       24    20  19    6.67   588.8    4.3      58.751
2014    9       24    20  24    6.67   589.1    4.3      58.809
2014    9       24    20  30    6.67   589.4    4.3      58.865
2014    9       24    20  35    6.67   589.7    4.3      58.920
2014    9       24    20  40    6.67   590.0    4.3      58.973
2014    9       24    20  46    6.67   590.3    4.3      59.025
2014    9       24    20  51    6.67   590.6    4.3      59.075
2014    9       24    20  57    6.67   591.0    4.3      59.124
2014    9       24    21   2    6.67   591.3    4.3      59.172
2014    9       24    21   7    6.67   591.6    4.3      59.218
2014    9       24    21  13    6.67   591.9    4.3      59.264
2014    9       24    21  18    6.67   592.2    4.2      59.308
2014    9       24    21  24    6.66   592.5    4.2      59.352
2014    9       24    21  29    6.66   592.8    4.2      59.394
2014    9       24    21  34    6.66   593.1    4.2      59.436
2014    9       24    21  40    6.66   593.5    4.2      59.477
2014    9       24    21  45    6.66   593.8    4.2      59.517
2014    9       24    21  51    6.66   594.1    4.2      59.557
2014    9       24    21  56    6.66   594.4    4.2      59.596
2014    9       24    22   1    6.66   594.7    4.2      59.634
2014    9       24    22   7    6.66   595.0    4.2      59.672
2014    9       24    22  12    6.66   595.4    4.2      59.709
2014    9       24    22  18    6.66   595.7    4.2      59.745
2014    9       24    22  23    6.66   596.0    4.2      59.782
2014    9       24    22  28    6.66   596.3    4.2      59.817
2014    9       24    22  34    6.66   596.6    4.2      59.852
2014    9       24    22  39    6.66   597.0    4.2      59.887
2014    9       24    22  45    6.65   597.3    4.2      59.922
2014    9       24    22  50    6.65   597.6    4.2      59.956
2014    9       24    22  56    6.65   597.9    4.1      59.989
2014    9       24    23   1    6.65   598.3    4.1      60.023
2014    9       24    23   6    6.65   598.6    4.1      60.056
2014    9       24    23  12    6.65   598.9    4.1      60.089
2014    9       24    23  17    6.65   599.3    4.1      60.122
2014    9       24    23  23    6.65   599.6    4.1      60.154
2014    9       24    23  28    6.64   599.9    4.1      60.187
2014    9       24    23  33    6.64   600.3    4.1      60.220
2014    9       24    23  39    6.64   600.6    4.1      60.252
2014    9       24    23  44    6.64   600.9    4.1      60.285
2014    9       24    23  50    6.64   601.3    4.1      60.317
2014    9       24    23  55    6.64   601.6    4.1      60.349
2014    9       25     0   0    6.63   601.9    4.1      60.380
2014    9       25     0   6    6.63   602.3    4.1      60.411
2014    9       25     0  11    6.63   602.6    4.1      60.442
2014    9       25     0  17    6.63   602.9    4.1      60.472
2014    9       25     0  22    6.63   603.3    4.1      60.502
2014    9       25     0  27    6.62   603.6    4.0      60.531
2014    9       25     0  33    6.62   603.9    4.0      60.560
2014    9       25     0  38    6.62   604.2    4.0      60.589
2014    9       25     0  44    6.62   604.6    4.0      60.617
2014    9       25     0  49    6.62   604.9    4.0      60.644
2014    9       25     0  54    6.61   605.2    4.0      60.671
2014    9       25     1   0    6.61   605.5    4.0      60.698
2014    9       25     1   5    6.61   605.9    4.0      60.724
2014    9       25     1  11    6.61   606.2    4.0      60.750
2014    9       25     1  16    6.60   606.5    4.0      60.776
2014    9       25     1  22    6.60   606.8    4.0      60.802
2014    9       25     1  27    6.60   607.1    4.0      60.827
2014    9       25     1  32    6.59   607.4    4.0      60.853
2014    9       25     1  38    6.59   607.7    4.0      60.879
2014    9       25     1  43    6.59   608.0    4.0      60.904
2014    9       25     1  49    6.59   608.3    3.9      60.930
2014    9       25     1  54    6.58   608.6    3.9      60.957
2014    9       25     1  59    6.58   608.9    3.9      60.983
2014    9       25     2   5    6.58   609.2    3.9      61.010
2014    9       25     2  10    6.57   609.5    3.9      61.038
2014    9       25     2  16    6.57   609.8    3.9      61.066
2014    9       25     2  21    6.57   610.1    3.9      61.094
2014    9       25     2  26    6.57   610.4    3.9      61.122
2014    9       25     2  32    6.56   610.6    3.9      61.151
2014    9       25     2  37    6.56   610.9    3.9      61.179
2014    9       25     2  43    6.56   611.2    3.9      61.206
2014    9       25     2  48    6.55   611.5    3.9      61.234
2014    9       25     2  53    6.55   611.8    3.9      61.261
2014    9       25     2  59    6.55   612.0    3.9      61.288
2014    9       25     3   4    6.55   612.3    3.9      61.314
2014    9       25     3  10    6.54   612.6    3.9      61.339
2014    9       25     3  15    6.54   612.9    3.8      61.363
2014    9       25     3  20    6.54   613.1    3.8      61.386
2014    9       25     3  26    6.53   613.4    3.8      61.407
2014    9       25     3  31    6.53   613.7    3.8      61.426
2014    9       25     3  37    6.53   613.9    3.8      61.445
2014    9       25     3  42    6.52   614.2    3.8      61.462
2014    9       25     3  48    6.52   614.5    3.8      61.478
2014    9       25     3  53    6.52   614.7    3.8      61.493
2014    9       25     3  58    6.51   615.0    3.8      61.507
2014    9       25     4   4    6.51   615.2    3.8      61.520
2014    9       25     4   9    6.51   615.5    3.8      61.533
2014    9       25     4  15    6.50   615.7    3.8      61.544
2014    9       25     4  20    6.50   616.0    3.8      61.556
2014    9       25     4  25    6.50   616.2    3.8      61.566
2014    9       25     4  31    6.50   616.5    3.8      61.576
2014    9       25     4  36    6.49   616.7    3.7      61.586
2014    9       25     4  42    6.49   617.0    3.7      61.595
2014    9       25     4  47    6.49   617.2    3.7      61.604
2014    9       25     4  52    6.48   617.5    3.7      61.612
2014    9       25     4  58    6.48   617.7    3.7      61.621
2014    9       25     5   3    6.48   617.9    3.7      61.629
2014    9       25     5   9    6.47   618.2    3.7      61.636
2014    9       25     5  14    6.47   618.4    3.7      61.644
2014    9       25     5  19    6.47   618.6    3.7      61.651
2014    9       25     5  25    6.46   618.9    3.7      61.659
2014    9       25     5  30    6.46   619.1    3.7      61.666
2014    9       25     5  36    6.46   619.3    3.7      61.674
2014    9       25     5  41    6.45   619.5    3.7      61.681
2014    9       25     5  46    6.45   619.7    3.7      61.689
2014    9       25     5  52    6.45   620.0    3.7      61.697
2014    9       25     5  57    6.44   620.2    3.7      61.706
2014    9       25     6   3    6.44   620.4    3.7      61.714
2014    9       25     6   8    6.44   620.6    3.6      61.723
2014    9       25     6  14    6.43   620.8    3.6      61.732
2014    9       25     6  19    6.43   621.1    3.6      61.742
2014    9       25     6  24    6.43   621.3    3.6      61.752
2014    9       25     6  30    6.42   621.5    3.6      61.762
2014    9       25     6  35    6.42   621.7    3.6      61.772
2014    9       25     6  41    6.41   621.9    3.6      61.782
2014    9       25     6  46    6.41   622.1    3.6      61.792
2014    9       25     6  51    6.41   622.3    3.6      61.802
2014    9       25     6  57    6.40   622.5    3.6      61.812
2014    9       25     7   2    6.40   622.7    3.6      61.821
2014    9       25     7   8    6.40   622.9    3.6      61.830
2014    9       25     7  13    6.39   623.1    3.6      61.838
2014    9       25     7  18    6.39   623.3    3.6      61.846
2014    9       25     7  24    6.39   623.5    3.6      61.853
2014    9       25     7  29    6.38   623.7    3.6      61.860
2014    9       25     7  35    6.38   623.8    3.6      61.867
2014    9       25     7  40    6.37   624.0    3.6      61.873
2014    9       25     7  45    6.37   624.2    3.6      61.879
2014    9       25     7  51    6.37   624.4    3.6      61.884
2014    9       25     7  56    6.36   624.5    3.6      61.889
2014    9       25     8   2    6.36   624.7    3.5      61.894
2014    9       25     8   7    6.36   624.9    3.5      61.898
2014    9       25     8  12    6.35   625.1    3.5      61.901
2014    9       25     8  18    6.35   625.2    3.5      61.904
2014    9       25     8  23    6.35   625.4    3.5      61.904
2014    9       25     8  29    6.34   625.6    3.5      61.904
2014    9       25     8  34    6.34   625.8    3.5      61.901
2014    9       25     8  39    6.33   626.0    3.5      61.898
2014    9       25     8  45    6.33   626.1    3.5      61.894
2014    9       25     8  50    6.33   626.3    3.5      61.889
2014    9       25     8  56    6.32   626.5    3.5      61.883
2014    9       25     9   1    6.32   626.6    3.5      61.876
2014    9       25     9   7    6.32   626.8    3.5      61.868
2014    9       25     9  12    6.31   627.0    3.5      61.860
2014    9       25     9  17    6.31   627.2    3.5      61.851
2014    9       25     9  23    6.30   627.3    3.5      61.841
2014    9       25     9  28    6.30   627.5    3.5      61.830
2014    9       25     9  34    6.30   627.6    3.5      61.819
2014    9       25     9  39    6.29   627.8    3.5      61.807
2014    9       25     9  44    6.29   628.0    3.5      61.795
2014    9       25     9  50    6.29   628.1    3.5      61.782
2014    9       25     9  55    6.28   628.3    3.4      61.769
2014    9       25    10   1    6.28   628.4    3.4      61.755
2014    9       25    10   6    6.27   628.6    3.4      61.740
2014    9       25    10  11    6.27   628.7    3.4      61.726
2014    9       25    10  17    6.27   628.9    3.4      61.711
2014    9       25    10  22    6.26   629.0    3.4      61.695
2014    9       25    10  28    6.26   629.2    3.4      61.680
2014    9       25    10  33    6.25   629.3    3.4      61.664
2014    9       25    10  38    6.25   629.5    3.4      61.648
2014    9       25    10  44    6.25   629.6    3.4      61.632
2014    9       25    10  49    6.24   629.7    3.4      61.615
2014    9       25    10  55    6.24   629.8    3.4      61.599
2014    9       25    11   0    6.23   630.0    3.4      61.582
2014    9       25    11   5    6.23   630.1    3.4      61.566
2014    9       25    11  11    6.23   630.2    3.4      61.549
2014    9       25    11  16    6.22   630.3    3.4      61.533
2014    9       25    11  22    6.22   630.4    3.4      61.517
2014    9       25    11  27    6.22   630.5    3.4      61.501
2014    9       25    11  33    6.21   630.6    3.4      61.485
2014    9       25    11  38    6.21   630.7    3.4      61.470
2014    9       25    11  43    6.20   630.8    3.4      61.455
2014    9       25    11  49    6.20   630.9    3.4      61.440
2014    9       25    11  54    6.20   631.0    3.4      61.426
2014    9       25    12   0    6.19   631.1    3.3      61.413
2014    9       25    12   5    6.19   631.1    3.3      61.400
2014    9       25    12  10    6.19   631.2    3.3      61.388
2014    9       25    12  16    6.18   631.3    3.3      61.377
2014    9       25    12  21    6.18   631.4    3.3      61.366
2014    9       25    12  27    6.17   631.4    3.3      61.356
2014    9       25    12  32    6.17   631.5    3.3      61.347
2014    9       25    12  37    6.17   631.6    3.3      61.338
2014    9       25    12  43    6.16   631.6    3.3      61.330
2014    9       25    12  48    6.16   631.7    3.3      61.323
2014    9       25    12  54    6.16   631.7    3.3      61.316
2014    9       25    12  59    6.15   631.8    3.3      61.310
2014    9       25    13   4    6.15   631.9    3.3      61.305
2014    9       25    13  10    6.15   631.9    3.3      61.301
2014    9       25    13  15    6.14   632.0    3.3      61.297
2014    9       25    13  21    6.14   632.0    3.3      61.294
2014    9       25    13  26    6.14   632.1    3.3      61.291
2014    9       25    13  31    6.13   632.1    3.3      61.290
2014    9       25    13  37    6.13   632.2    3.3      61.288
2014    9       25    13  42    6.13   632.2    3.3      61.288
2014    9       25    13  48    6.13   632.3    3.3      61.287
2014    9       25    13  53    6.12   632.3    3.3      61.287
2014    9       25    13  58    6.12   632.3    3.3      61.287
2014    9       25    14   4    6.12   632.4    3.3      61.288
2014    9       25    14   9    6.11   632.4    3.3      61.289
2014    9       25    14  15    6.11   632.5    3.3      61.290
2014    9       25    14  20    6.11   632.5    3.3      61.291
2014    9       25    14  26    6.11   632.5    3.3      61.293
2014    9       25    14  31    6.10   632.6    3.3      61.294
2014    9       25    14  36    6.10   632.6    3.3      61.296
2014    9       25    14  42    6.10   632.6    3.3      61.297
2014    9       25    14  47    6.09   632.7    3.3      61.298
2014    9       25    14  53    6.09   632.7    3.3      61.300
2014    9       25    14  58    6.09   632.7    3.3      61.301
2014    9       25    15   3    6.09   632.7    3.3      61.302
2014    9       25    15   9    6.08   632.8    3.3      61.303
2014    9       25    15  14    6.08   632.8    3.3      61.303
2014    9       25    15  20    6.08   632.8    3.3      61.304
2014    9       25    15  25    6.08   632.9    3.3      61.304
2014    9       25    15  30    6.07   632.9    3.3      61.305
2014    9       25    15  36    6.07   632.9    3.3      61.304
2014    9       25    15  41    6.07   633.0    3.3      61.304
2014    9       25    15  47    6.07   633.0    3.3      61.303
2014    9       25    15  52    6.06   633.0    3.3      61.303
2014    9       25    15  57    6.06   633.1    3.3      61.302
2014    9       25    16   3    6.06   633.1    3.3      61.301
2014    9       25    16   8    6.06   633.1    3.3      61.300
2014    9       25    16  14    6.05   633.2    3.3      61.300
2014    9       25    16  19    6.05   633.2    3.3      61.299
2014    9       25    16  24    6.05   633.3    3.3      61.298
2014    9       25    16  30    6.05   633.3    3.3      61.297
2014    9       25    16  35    6.04   633.3    3.2      61.295
2014    9       25    16  41    6.04   633.4    3.2      61.294
2014    9       25    16  46    6.04   633.4    3.2      61.293
2014    9       25    16  52    6.04   633.5    3.2      61.292
2014    9       25    16  57    6.03   633.5    3.2      61.291
2014    9       25    17   2    6.03   633.5    3.2      61.290
2014    9       25    17   8    6.03   633.6    3.2      61.289
2014    9       25    17  13    6.03   633.6    3.2      61.287
2014    9       25    17  19    6.02   633.7    3.2      61.286
2014    9       25    17  24    6.02   633.7    3.2      61.285
2014    9       25    17  29    6.02   633.7    3.2      61.283
2014    9       25    17  35    6.02   633.8    3.2      61.281
2014    9       25    17  40    6.01   633.8    3.2      61.280
2014    9       25    17  46    6.01   633.9    3.2      61.278
2014    9       25    17  51    6.01   633.9    3.2      61.275
2014    9       25    17  56    6.01   633.9    3.2      61.273
2014    9       25    18   2    6.00   634.0    3.2      61.270
2014    9       25    18   7    6.00   634.0    3.2      61.267
2014    9       25    18  13    6.00   634.0    3.2      61.264
2014    9       25    18  18    5.99   634.1    3.2      61.260
2014    9       25    18  23    5.99   634.1    3.2      61.256
2014    9       25    18  29    5.99   634.1    3.2      61.252
2014    9       25    18  34    5.99   634.1    3.2      61.247
2014    9       25    18  40    5.98   634.2    3.2      61.242
2014    9       25    18  45    5.98   634.2    3.2      61.236
2014    9       25    18  50    5.98   634.2    3.2      61.231
2014    9       25    18  56    5.98   634.2    3.2      61.224
2014    9       25    19   1    5.97   634.3    3.2      61.218
2014    9       25    19   7    5.97   634.3    3.2      61.211
2014    9       25    19  12    5.97   634.3    3.2      61.204
2014    9       25    19  17    5.97   634.3    3.2      61.196
2014    9       25    19  23    5.97   634.3    3.2      61.188
2014    9       25    19  28    5.96   634.4    3.2      61.180
2014    9       25    19  34    5.96   634.4    3.2      61.172
2014    9       25    19  39    5.96   634.4    3.2      61.164
2014    9       25    19  45    5.96   634.4    3.2      61.155
2014    9       25    19  50    5.95   634.4    3.2      61.147
2014    9       25    19  55    5.95   634.4    3.2      61.138
2014    9       25    20   1    5.95   634.4    3.2      61.129
2014    9       25    20   6    5.95   634.5    3.2      61.120
2014    9       25    20  12    5.95   634.5    3.2      61.111
2014    9       25    20  17    5.94   634.5    3.2      61.102
2014    9       25    20  22    5.94   634.5    3.2      61.093
2014    9       25    20  28    5.94   634.5    3.2      61.084
2014    9       25    20  33    5.94   634.5    3.2      61.075
2014    9       25    20  39    5.93   634.5    3.2      61.066
2014    9       25    20  44    5.93   634.5    3.2      61.056
2014    9       25    20  49    5.93   634.5    3.2      61.047
2014    9       25    20  55    5.93   634.5    3.2      61.038
2014    9       25    21   0    5.93   634.5    3.2      61.028
2014    9       25    21   6    5.92   634.6    3.2      61.019
2014    9       25    21  11    5.92   634.6    3.2      61.010
2014    9       25    21  16    5.92   634.6    3.2      61.001
2014    9       25    21  22    5.92   634.6    3.2      60.991
2014    9       25    21  27    5.92   634.6    3.2      60.982
2014    9       25    21  33    5.91   634.6    3.2      60.973
2014    9       25    21  38    5.91   634.6    3.2      60.964
2014    9       25    21  43    5.91   634.6    3.2      60.955
2014    9       25    21  49    5.91   634.6    3.2      60.946
2014    9       25    21  54    5.91   634.6    3.2      60.937
2014    9       25    22   0    5.91   634.6    3.2      60.929
2014    9       25    22   5    5.90   634.6    3.2      60.920
2014    9       25    22  10    5.90   634.6    3.2      60.912
2014    9       25    22  16    5.90   634.6    3.2      60.904
2014    9       25    22  21    5.90   634.6    3.2      60.896
2014    9       25    22  27    5.90   634.6    3.2      60.889
2014    9       25    22  32    5.89   634.6    3.2      60.881
2014    9       25    22  38    5.89   634.6    3.2      60.874
2014    9       25    22  43    5.89   634.6    3.2      60.867
2014    9       25    22  48    5.89   634.6    3.2      60.861
2014    9       25    22  54    5.89   634.6    3.2      60.855
2014    9       25    22  59    5.89   634.6    3.2      60.849
2014    9       25    23   5    5.88   634.6    3.2      60.843
2014    9       25    23  10    5.88   634.5    3.2      60.837
2014    9       25    23  15    5.88   634.5    3.2      60.832
2014    9       25    23  21    5.88   634.5    3.2      60.828
2014    9       25    23  26    5.88   634.5    3.2      60.823
2014    9       25    23  32    5.87   634.5    3.2      60.819
2014    9       25    23  37    5.87   634.5    3.2      60.815
2014    9       25    23  42    5.87   634.5    3.2      60.811
2014    9       25    23  48    5.87   634.5    3.2      60.808
2014    9       25    23  53    5.87   634.5    3.2      60.805
2014    9       25    23  59    5.87   634.5    3.2      60.802
2014    9       26     0   4    5.86   634.5    3.2      60.799
2014    9       26     0   9    5.86   634.5    3.2      60.796
2014    9       26     0  15    5.86   634.5    3.2      60.794
2014    9       26     0  20    5.86   634.5    3.2      60.792
2014    9       26     0  26    5.86   634.5    3.2      60.790
2014    9       26     0  31    5.86   634.5    3.2      60.788
2014    9       26     0  36    5.85   634.5    3.2      60.785
2014    9       26     0  42    5.85   634.5    3.1      60.783
2014    9       26     0  47    5.85   634.5    3.1      60.782
2014    9       26     0  53    5.85   634.5    3.1      60.779
2014    9       26     0  58    5.85   634.5    3.1      60.777
2014    9       26     1   3    5.84   634.5    3.1      60.775
2014    9       26     1   9    5.84   634.5    3.1      60.773
2014    9       26     1  14    5.84   634.5    3.1      60.770
2014    9       26     1  20    5.84   634.5    3.1      60.767
2014    9       26     1  25    5.84   634.5    3.1      60.764
2014    9       26     1  31    5.83   634.4    3.1      60.761
2014    9       26     1  36    5.83   634.4    3.1      60.757
2014    9       26     1  41    5.83   634.4    3.1      60.753
2014    9       26     1  47    5.83   634.4    3.1      60.749
2014    9       26     1  52    5.83   634.4    3.1      60.745
2014    9       26     1  58    5.83   634.4    3.1      60.740
2014    9       26     2   3    5.82   634.4    3.1      60.736
2014    9       26     2   8    5.82   634.3    3.1      60.731
2014    9       26     2  14    5.82   634.3    3.1      60.726
2014    9       26     2  19    5.82   634.3    3.1      60.721
2014    9       26     2  25    5.82   634.3    3.1      60.717
2014    9       26     2  30    5.82   634.3    3.1      60.712
2014    9       26     2  35    5.81   634.3    3.1      60.707
2014    9       26     2  41    5.81   634.2    3.1      60.702
2014    9       26     2  46    5.81   634.2    3.1      60.697
2014    9       26     2  52    5.81   634.2    3.1      60.693
2014    9       26     2  57    5.81   634.2    3.1      60.689
2014    9       26     3   2    5.81   634.1    3.1      60.684
2014    9       26     3   8    5.80   634.1    3.1      60.681
2014    9       26     3  13    5.80   634.1    3.1      60.677
2014    9       26     3  19    5.80   634.1    3.1      60.674
2014    9       26     3  24    5.80   634.1    3.1      60.670
2014    9       26     3  29    5.80   634.0    3.1      60.667
2014    9       26     3  35    5.80   634.0    3.1      60.664
2014    9       26     3  40    5.79   634.0    3.1      60.662
2014    9       26     3  46    5.79   634.0    3.1      60.659
2014    9       26     3  51    5.79   634.0    3.1      60.656
2014    9       26     3  56    5.79   633.9    3.1      60.654
2014    9       26     4   2    5.79   633.9    3.1      60.651
2014    9       26     4   7    5.79   633.9    3.1      60.648
2014    9       26     4  13    5.78   633.9    3.1      60.645
2014    9       26     4  18    5.78   633.8    3.1      60.641
2014    9       26     4  23    5.78   633.8    3.1      60.638
2014    9       26     4  29    5.78   633.8    3.1      60.634
2014    9       26     4  34    5.78   633.8    3.1      60.630
2014    9       26     4  40    5.78   633.7    3.1      60.625
2014    9       26     4  45    5.78   633.7    3.1      60.620
2014    9       26     4  51    5.77   633.7    3.1      60.614
2014    9       26     4  56    5.77   633.7    3.1      60.608
2014    9       26     5   1    5.77   633.6    3.1      60.601
2014    9       26     5   7    5.77   633.6    3.1      60.594
2014    9       26     5  12    5.77   633.6    3.1      60.587
2014    9       26     5  18    5.77   633.6    3.1      60.579
2014    9       26     5  23    5.76   633.5    3.1      60.570
2014    9       26     5  28    5.76   633.5    3.1      60.561
2014    9       26     5  34    5.76   633.5    3.1      60.552
2014    9       26     5  39    5.76   633.4    3.1      60.542
2014    9       26     5  45    5.76   633.4    3.1      60.532
2014    9       26     5  50    5.76   633.4    3.1      60.522
2014    9       26     5  55    5.75   633.3    3.1      60.511
2014    9       26     6   1    5.75   633.3    3.1      60.500
2014    9       26     6   6    5.75   633.3    3.1      60.488
2014    9       26     6  12    5.75   633.3    3.1      60.477
2014    9       26     6  17    5.75   633.2    3.1      60.465
2014    9       26     6  22    5.75   633.2    3.1      60.453
2014    9       26     6  28    5.75   633.2    3.1      60.440
2014    9       26     6  33    5.74   633.1    3.1      60.428
2014    9       26     6  39    5.74   633.1    3.1      60.415
2014    9       26     6  44    5.74   633.0    3.1      60.403
2014    9       26     6  49    5.74   633.0    3.1      60.390
2014    9       26     6  55    5.74   633.0    3.1      60.377
2014    9       26     7   0    5.74   632.9    3.1      60.364
2014    9       26     7   6    5.73   632.9    3.1      60.352
2014    9       26     7  11    5.73   632.9    3.1      60.339
2014    9       26     7  17    5.73   632.8    3.1      60.326
2014    9       26     7  22    5.73   632.8    3.1      60.314
2014    9       26     7  27    5.73   632.7    3.1      60.301
2014    9       26     7  33    5.73   632.7    3.1      60.289
2014    9       26     7  38    5.72   632.7    3.1      60.276
2014    9       26     7  44    5.72   632.6    3.1      60.264
2014    9       26     7  49    5.72   632.6    3.1      60.252
2014    9       26     7  54    5.72   632.5    3.1      60.240
2014    9       26     8   0    5.72   632.5    3.1      60.228
2014    9       26     8   5    5.72   632.4    3.1      60.217
2014    9       26     8  11    5.71   632.4    3.1      60.206
2014    9       26     8  16    5.71   632.3    3.1      60.194
2014    9       26     8  21    5.71   632.3    3.1      60.184
2014    9       26     8  27    5.71   632.3    3.1      60.173
2014    9       26     8  32    5.71   632.2    3.1      60.163
2014    9       26     8  38    5.71   632.2    3.1      60.153
2014    9       26     8  43    5.70   632.1    3.1      60.143
2014    9       26     8  48    5.70   632.1    3.1      60.133
2014    9       26     8  54    5.70   632.0    3.1      60.124
2014    9       26     8  59    5.70   632.0    3.1      60.115
2014    9       26     9   5    5.70   631.9    3.1      60.106
2014    9       26     9  10    5.70   631.9    3.1      60.098
2014    9       26     9  15    5.69   631.8    3.1      60.090
2014    9       26     9  21    5.69   631.8    3.1      60.082
2014    9       26     9  26    5.69   631.7    3.1      60.074
2014    9       26     9  32    5.69   631.7    3.1      60.067
2014    9       26     9  37    5.69   631.6    3.1      60.060
2014    9       26     9  42    5.69   631.6    3.1      60.053
2014    9       26     9  48    5.69   631.5    3.1      60.047
2014    9       26     9  53    5.68   631.5    3.1      60.041
2014    9       26     9  59    5.68   631.4    3.1      60.035
2014    9       26    10   4    5.68   631.4    3.1      60.030
2014    9       26    10   9    5.68   631.3    3.1      60.024
2014    9       26    10  15    5.68   631.3    3.1      60.019
2014    9       26    10  20    5.68   631.2    3.1      60.014
2014    9       26    10  26    5.67   631.2    3.1      60.009
2014    9       26    10  31    5.67   631.1    3.1      60.004
2014    9       26    10  37    5.67   631.1    3.1      59.999
2014    9       26    10  42    5.67   631.0    3.1      59.994
2014    9       26    10  47    5.67   631.0    3.1      59.989
2014    9       26    10  53    5.67   630.9    3.1      59.984
2014    9       26    10  58    5.66   630.9    3.1      59.980
2014    9       26    11   4    5.66   630.8    3.1      59.974
2014    9       26    11   9    5.66   630.8    3.1      59.969
2014    9       26    11  14    5.66   630.7    3.1      59.964
2014    9       26    11  20    5.66   630.6    3.1      59.958
2014    9       26    11  25    5.66   630.6    3.1      59.953
2014    9       26    11  31    5.65   630.5    3.1      59.947
2014    9       26    11  36    5.65   630.5    3.1      59.941
2014    9       26    11  41    5.65   630.4    3.1      59.935
2014    9       26    11  47    5.65   630.3    3.1      59.928
2014    9       26    11  52    5.65   630.3    3.1      59.922
2014    9       26    11  58    5.65   630.2    3.1      59.915
2014    9       26    12   3    5.64   630.1    3.1      59.908
2014    9       26    12   8    5.64   630.1    3.1      59.900
2014    9       26    12  14    5.64   630.0    3.1      59.893
2014    9       26    12  19    5.64   629.9    3.1      59.885
2014    9       26    12  25    5.64   629.9    3.1      59.877
2014    9       26    12  30    5.64   629.8    3.1      59.868
2014    9       26    12  35    5.64   629.8    3.1      59.859
2014    9       26    12  41    5.63   629.7    3.1      59.850
2014    9       26    12  46    5.63   629.6    3.1      59.840
2014    9       26    12  52    5.63   629.5    3.1      59.831
2014    9       26    12  57    5.63   629.5    3.1      59.820
2014    9       26    13   2    5.63   629.4    3.1      59.809
2014    9       26    13   8    5.63   629.3    3.1      59.798
2014    9       26    13  13    5.62   629.3    3.1      59.786
2014    9       26    13  19    5.62   629.2    3.1      59.773
2014    9       26    13  24    5.62   629.1    3.1      59.761
2014    9       26    13  30    5.62   629.0    3.1      59.747
2014    9       26    13  35    5.62   629.0    3.1      59.734
2014    9       26    13  40    5.62   628.9    3.1      59.719
2014    9       26    13  46    5.61   628.8    3.1      59.705
2014    9       26    13  51    5.61   628.7    3.1      59.690
2014    9       26    13  57    5.61   628.6    3.1      59.674
2014    9       26    14   2    5.61   628.6    3.1      59.658
2014    9       26    14   7    5.61   628.5    3.1      59.642
2014    9       26    14  13    5.61   628.4    3.1      59.625
2014    9       26    14  18    5.60   628.3    3.1      59.608
2014    9       26    14  24    5.60   628.2    3.1      59.591
2014    9       26    14  29    5.60   628.2    3.1      59.573
2014    9       26    14  34    5.60   628.1    3.1      59.555
2014    9       26    14  40    5.60   628.0    3.1      59.537
2014    9       26    14  45    5.60   627.9    3.1      59.518
2014    9       26    14  51    5.59   627.8    3.1      59.500
2014    9       26    14  56    5.59   627.7    3.1      59.481
2014    9       26    15   1    5.59   627.6    3.1      59.462
2014    9       26    15   7    5.59   627.6    3.1      59.443
2014    9       26    15  12    5.59   627.5    3.1      59.423
2014    9       26    15  18    5.58   627.4    3.1      59.404
2014    9       26    15  23    5.58   627.3    3.1      59.385
2014    9       26    15  28    5.58   627.2    3.1      59.366
2014    9       26    15  34    5.58   627.1    3.1      59.347
2014    9       26    15  39    5.58   627.0    3.1      59.328
2014    9       26    15  45    5.58   626.9    3.1      59.310
2014    9       26    15  50    5.57   626.8    3.1      59.291
2014    9       26    15  55    5.57   626.7    3.1      59.273
2014    9       26    16   1    5.57   626.6    3.1      59.256
2014    9       26    16   6    5.57   626.5    3.1      59.238
2014    9       26    16  12    5.57   626.5    3.1      59.221
2014    9       26    16  17    5.57   626.4    3.1      59.205
2014    9       26    16  23    5.56   626.3    3.1      59.188
2014    9       26    16  28    5.56   626.2    3.1      59.172
2014    9       26    16  33    5.56   626.1    3.1      59.157
2014    9       26    16  39    5.56   626.0    3.1      59.142
2014    9       26    16  44    5.56   625.9    3.1      59.127
2014    9       26    16  50    5.56   625.8    3.1      59.112
2014    9       26    16  55    5.55   625.7    3.1      59.098
2014    9       26    17   0    5.55   625.6    3.1      59.084
2014    9       26    17   6    5.55   625.5    3.1      59.070
2014    9       26    17  11    5.55   625.4    3.1      59.056
2014    9       26    17  17    5.55   625.4    3.1      59.042
2014    9       26    17  22    5.55   625.3    3.1      59.029
2014    9       26    17  27    5.54   625.2    3.1      59.015
2014    9       26    17  33    5.54   625.1    3.1      59.001
2014    9       26    17  38    5.54   625.0    3.1      58.988
2014    9       26    17  44    5.54   624.9    3.1      58.974
2014    9       26    17  49    5.54   624.8    3.1      58.960
2014    9       26    17  54    5.54   624.7    3.1      58.946
2014    9       26    18   0    5.53   624.6    3.1      58.932
2014    9       26    18   5    5.53   624.5    3.1      58.917
2014    9       26    18  11    5.53   624.4    3.1      58.903
2014    9       26    18  16    5.53   624.3    3.1      58.888
2014    9       26    18  21    5.53   624.2    3.1      58.873
2014    9       26    18  27    5.52   624.1    3.1      58.857
2014    9       26    18  32    5.52   624.0    3.1      58.842
2014    9       26    18  38    5.52   623.9    3.1      58.827
2014    9       26    18  43    5.52   623.8    3.1      58.811
2014    9       26    18  48    5.52   623.7    3.1      58.795
2014    9       26    18  54    5.52   623.6    3.1      58.780
2014    9       26    18  59    5.51   623.5    3.1      58.764
2014    9       26    19   5    5.51   623.4    3.1      58.749
2014    9       26    19  10    5.51   623.3    3.1      58.733
2014    9       26    19  16    5.51   623.2    3.1      58.718
2014    9       26    19  21    5.51   623.1    3.1      58.703
2014    9       26    19  26    5.51   623.0    3.1      58.688
2014    9       26    19  32    5.50   622.8    3.1      58.674
2014    9       26    19  37    5.50   622.7    3.1      58.660
2014    9       26    19  43    5.50   622.6    3.1      58.645
2014    9       26    19  48    5.50   622.5    3.1      58.632
2014    9       26    19  53    5.50   622.4    3.1      58.618
2014    9       26    19  59    5.49   622.3    3.1      58.605
2014    9       26    20   4    5.49   622.2    3.1      58.592
2014    9       26    20  10    5.49   622.0    3.1      58.579
2014    9       26    20  15    5.49   621.9    3.1      58.567
2014    9       26    20  20    5.49   621.8    3.1      58.554
2014    9       26    20  26    5.49   621.7    3.1      58.542
2014    9       26    20  31    5.48   621.6    3.1      58.529
2014    9       26    20  37    5.48   621.5    3.1      58.517
2014    9       26    20  42    5.48   621.3    3.1      58.504
2014    9       26    20  47    5.48   621.2    3.1      58.491
2014    9       26    20  53    5.48   621.1    3.1      58.478
2014    9       26    20  58    5.48   621.0    3.1      58.465
2014    9       26    21   4    5.47   620.9    3.1      58.451
2014    9       26    21   9    5.47   620.7    3.1      58.438
2014    9       26    21  14    5.47   620.6    3.1      58.424
2014    9       26    21  20    5.47   620.5    3.1      58.410
2014    9       26    21  25    5.47   620.4    3.1      58.395
2014    9       26    21  31    5.47   620.2    3.1      58.380
2014    9       26    21  36    5.46   620.1    3.1      58.365
2014    9       26    21  41    5.46   620.0    3.1      58.350
2014    9       26    21  47    5.46   619.9    3.1      58.334
2014    9       26    21  52    5.46   619.7    3.1      58.318
2014    9       26    21  58    5.46   619.6    3.1      58.302
2014    9       26    22   3    5.46   619.5    3.1      58.286
2014    9       26    22   9    5.45   619.4    3.1      58.269
2014    9       26    22  14    5.45   619.2    3.1      58.252
2014    9       26    22  19    5.45   619.1    3.1      58.235
2014    9       26    22  25    5.45   619.0    3.1      58.217
2014    9       26    22  30    5.45   618.9    3.1      58.199
2014    9       26    22  36    5.44   618.7    3.1      58.181
2014    9       26    22  41    5.44   618.6    3.1      58.162
2014    9       26    22  46    5.44   618.5    3.1      58.143
2014    9       26    22  52    5.44   618.4    3.1      58.125
2014    9       26    22  57    5.44   618.2    3.1      58.106
2014    9       26    23   3    5.44   618.1    3.1      58.087
2014    9       26    23   8    5.43   618.0    3.1      58.068
2014    9       26    23  13    5.43   617.9    3.1      58.049
2014    9       26    23  19    5.43   617.7    3.1      58.030
2014    9       26    23  24    5.43   617.6    3.1      58.011
2014    9       26    23  30    5.43   617.5    3.1      57.992
2014    9       26    23  35    5.43   617.4    3.1      57.973
2014    9       26    23  40    5.42   617.2    3.1      57.954
2014    9       26    23  46    5.42   617.1    3.1      57.935
2014    9       26    23  51    5.42   617.0    3.1      57.917
2014    9       26    23  57    5.42   616.9    3.1      57.898
2014    9       27     0   2    5.42   616.7    3.1      57.880
2014    9       27     0   7    5.41   616.6    3.1      57.862
2014    9       27     0  13    5.41   616.5    3.1      57.844
2014    9       27     0  18    5.41   616.3    3.1      57.826
2014    9       27     0  24    5.41   616.2    3.1      57.809
2014    9       27     0  29    5.41   616.1    3.1      57.791
2014    9       27     0  34    5.41   616.0    3.1      57.774
2014    9       27     0  40    5.40   615.8    3.1      57.757
2014    9       27     0  45    5.40   615.7    3.1      57.739
2014    9       27     0  51    5.40   615.6    3.1      57.722
2014    9       27     0  56    5.40   615.4    3.1      57.705
2014    9       27     1   1    5.40   615.3    3.1      57.688
2014    9       27     1   7    5.40   615.2    3.1      57.671
2014    9       27     1  12    5.39   615.1    3.1      57.654
2014    9       27     1  18    5.39   614.9    3.1      57.637
2014    9       27     1  23    5.39   614.8    3.1      57.620
2014    9       27     1  29    5.39   614.7    3.1      57.602
2014    9       27     1  34    5.39   614.5    3.1      57.585
2014    9       27     1  39    5.39   614.4    3.1      57.567
2014    9       27     1  45    5.38   614.3    3.1      57.548
2014    9       27     1  50    5.38   614.1    3.1      57.530
2014    9       27     1  56    5.38   614.0    3.1      57.511
2014    9       27     2   1    5.38   613.9    3.1      57.492
2014    9       27     2   6    5.38   613.7    3.1      57.473
2014    9       27     2  12    5.37   613.6    3.1      57.453
2014    9       27     2  17    5.37   613.5    3.1      57.433
2014    9       27     2  23    5.37   613.3    3.1      57.413
2014    9       27     2  28    5.37   613.2    3.1      57.393
2014    9       27     2  33    5.37   613.0    3.1      57.373
2014    9       27     2  39    5.37   612.9    3.1      57.352
2014    9       27     2  44    5.36   612.8    3.1      57.332
2014    9       27     2  50    5.36   612.6    3.1      57.312
2014    9       27     2  55    5.36   612.5    3.1      57.291
2014    9       27     3   0    5.36   612.3    3.1      57.271
2014    9       27     3   6    5.36   612.2    3.1      57.250
2014    9       27     3  11    5.36   612.1    3.1      57.230
2014    9       27     3  17    5.35   611.9    3.1      57.210
2014    9       27     3  22    5.35   611.8    3.1      57.190
2014    9       27     3  27    5.35   611.6    3.1      57.170
2014    9       27     3  33    5.35   611.5    3.1      57.150
2014    9       27     3  38    5.35   611.4    3.1      57.130
2014    9       27     3  44    5.34   611.2    3.1      57.110
2014    9       27     3  49    5.34   611.1    3.1      57.090
2014    9       27     3  54    5.34   610.9    3.1      57.071
2014    9       27     4   0    5.34   610.8    3.1      57.051
2014    9       27     4   5    5.34   610.6    3.1      57.032
2014    9       27     4  11    5.34   610.5    3.1      57.013
2014    9       27     4  16    5.33   610.3    3.1      56.994
2014    9       27     4  22    5.33   610.2    3.1      56.975
2014    9       27     4  27    5.33   610.0    3.1      56.957
2014    9       27     4  32    5.33   609.9    3.1      56.939
2014    9       27     4  38    5.33   609.7    3.1      56.921
2014    9       27     4  43    5.33   609.6    3.1      56.903
2014    9       27     4  49    5.32   609.4    3.1      56.886
2014    9       27     4  54    5.32   609.3    3.1      56.868
2014    9       27     4  59    5.32   609.1    3.1      56.852
2014    9       27     5   5    5.32   609.0    3.1      56.835
2014    9       27     5  10    5.32   608.8    3.1      56.819
2014    9       27     5  16    5.32   608.6    3.1      56.803
2014    9       27     5  21    5.31   608.5    3.1      56.788
2014    9       27     5  26    5.31   608.3    3.1      56.772
2014    9       27     5  32    5.31   608.2    3.1      56.757
2014    9       27     5  37    5.31   608.0    3.1      56.743
2014    9       27     5  43    5.31   607.9    3.1      56.728
2014    9       27     5  48    5.31   607.7    3.1      56.713
2014    9       27     5  53    5.30   607.6    3.1      56.699
2014    9       27     5  59    5.30   607.4    3.1      56.684
2014    9       27     6   4    5.30   607.3    3.1      56.670
2014    9       27     6  10    5.30   607.1    3.1      56.655
2014    9       27     6  15    5.30   607.0    3.1      56.641
2014    9       27     6  20    5.30   606.8    3.1      56.626
2014    9       27     6  26    5.29   606.6    3.1      56.611
2014    9       27     6  31    5.29   606.5    3.1      56.596
2014    9       27     6  37    5.29   606.3    3.1      56.581
2014    9       27     6  42    5.29   606.2    3.1      56.565
2014    9       27     6  47    5.29   606.0    3.1      56.550
2014    9       27     6  53    5.29   605.9    3.1      56.534
2014    9       27     6  58    5.29   605.7    3.1      56.518
2014    9       27     7   4    5.28   605.6    3.1      56.502
2014    9       27     7   9    5.28   605.4    3.1      56.486
2014    9       27     7  15    5.28   605.2    3.1      56.469
2014    9       27     7  20    5.28   605.1    3.1      56.453
2014    9       27     7  25    5.28   604.9    3.1      56.436
2014    9       27     7  31    5.28   604.8    3.1      56.420
2014    9       27     7  36    5.27   604.6    3.1      56.403
2014    9       27     7  42    5.27   604.5    3.1      56.387
2014    9       27     7  47    5.27   604.3    3.1      56.370
2014    9       27     7  52    5.27   604.2    3.1      56.354
2014    9       27     7  58    5.27   604.0    3.1      56.337
2014    9       27     8   3    5.27   603.8    3.1      56.321
2014    9       27     8   9    5.26   603.7    3.1      56.305
2014    9       27     8  14    5.26   603.5    3.1      56.289
2014    9       27     8  19    5.26   603.4    3.1      56.273
2014    9       27     8  25    5.26   603.2    3.1      56.257
2014    9       27     8  30    5.26   603.1    3.1      56.241
2014    9       27     8  36    5.26   602.9    3.1      56.225
2014    9       27     8  41    5.26   602.8    3.1      56.210
2014    9       27     8  46    5.25   602.6    3.1      56.194
2014    9       27     8  52    5.25   602.4    3.1      56.179
2014    9       27     8  57    5.25   602.3    3.1      56.163
2014    9       27     9   3    5.25   602.1    3.1      56.148
2014    9       27     9   8    5.25   602.0    3.1      56.132
2014    9       27     9  13    5.25   601.8    3.1      56.117
2014    9       27     9  19    5.24   601.7    3.1      56.102
2014    9       27     9  24    5.24   601.5    3.1      56.086
2014    9       27     9  30    5.24   601.4    3.1      56.071
2014    9       27     9  35    5.24   601.2    3.1      56.055
2014    9       27     9  40    5.24   601.1    3.1      56.039
2014    9       27     9  46    5.24   600.9    3.1      56.023
2014    9       27     9  51    5.24   600.8    3.1      56.007
2014    9       27     9  57    5.23   600.6    3.1      55.991
2014    9       27    10   2    5.23   600.5    3.1      55.974
2014    9       27    10   7    5.23   600.3    3.1      55.958
2014    9       27    10  13    5.23   600.2    3.1      55.941
2014    9       27    10  18    5.23   600.0    3.1      55.923
2014    9       27    10  24    5.23   599.8    3.1      55.906
2014    9       27    10  29    5.22   599.7    3.1      55.888
2014    9       27    10  35    5.22   599.5    3.1      55.870
2014    9       27    10  40    5.22   599.4    3.1      55.852
2014    9       27    10  45    5.22   599.2    3.1      55.833
2014    9       27    10  51    5.22   599.1    3.1      55.814
2014    9       27    10  56    5.22   598.9    3.1      55.794
2014    9       27    11   2    5.22   598.8    3.1      55.775
2014    9       27    11   7    5.21   598.6    3.1      55.755
2014    9       27    11  12    5.21   598.5    3.1      55.735
2014    9       27    11  18    5.21   598.3    3.1      55.715
2014    9       27    11  23    5.21   598.1    3.1      55.695
2014    9       27    11  29    5.21   598.0    3.1      55.675
2014    9       27    11  34    5.21   597.8    3.1      55.654
2014    9       27    11  39    5.20   597.7    3.1      55.634
2014    9       27    11  45    5.20   597.5    3.1      55.613
2014    9       27    11  50    5.20   597.3    3.1      55.593
2014    9       27    11  56    5.20   597.2    3.1      55.573
2014    9       27    12   1    5.20   597.0    3.1      55.553
2014    9       27    12   6    5.20   596.9    3.1      55.533
2014    9       27    12  12    5.20   596.7    3.1      55.514
2014    9       27    12  17    5.19   596.5    3.1      55.494
2014    9       27    12  23    5.19   596.4    3.1      55.475
2014    9       27    12  28    5.19   596.2    3.1      55.456
2014    9       27    12  33    5.19   596.0    3.1      55.438
2014    9       27    12  39    5.19   595.9    3.1      55.419
2014    9       27    12  44    5.19   595.7    3.1      55.402
2014    9       27    12  50    5.18   595.5    3.1      55.384
2014    9       27    12  55    5.18   595.4    3.1      55.367
2014    9       27    13   1    5.18   595.2    3.1      55.351
2014    9       27    13   6    5.18   595.0    3.1      55.335
2014    9       27    13  11    5.18   594.9    3.1      55.319
2014    9       27    13  17    5.18   594.7    3.1      55.304
2014    9       27    13  22    5.18   594.5    3.1      55.289
2014    9       27    13  28    5.17   594.3    3.1      55.275
2014    9       27    13  33    5.17   594.2    3.2      55.261
2014    9       27    13  38    5.17   594.0    3.2      55.247
2014    9       27    13  44    5.17   593.8    3.2      55.234
2014    9       27    13  49    5.17   593.7    3.2      55.221
2014    9       27    13  55    5.17   593.5    3.2      55.209
2014    9       27    14   0    5.17   593.3    3.2      55.197
2014    9       27    14   5    5.17   593.1    3.2      55.185
2014    9       27    14  11    5.16   593.0    3.2      55.174
2014    9       27    14  16    5.16   592.8    3.2      55.163
2014    9       27    14  22    5.16   592.6    3.2      55.151
2014    9       27    14  27    5.16   592.5    3.2      55.141
2014    9       27    14  32    5.16   592.3    3.2      55.130
2014    9       27    14  38    5.16   592.1    3.2      55.119
2014    9       27    14  43    5.16   591.9    3.2      55.108
2014    9       27    14  49    5.15   591.8    3.2      55.098
2014    9       27    14  54    5.15   591.6    3.2      55.087
2014    9       27    14  59    5.15   591.4    3.2      55.076
2014    9       27    15   5    5.15   591.3    3.2      55.066
2014    9       27    15  10    5.15   591.1    3.2      55.055
2014    9       27    15  16    5.15   590.9    3.2      55.044
2014    9       27    15  21    5.15   590.8    3.2      55.033
2014    9       27    15  26    5.15   590.6    3.2      55.022
2014    9       27    15  32    5.14   590.4    3.2      55.011
2014    9       27    15  37    5.14   590.2    3.2      55.000
2014    9       27    15  43    5.14   590.1    3.2      54.989
2014    9       27    15  48    5.14   589.9    3.2      54.977
2014    9       27    15  53    5.14   589.7    3.2      54.965
2014    9       27    15  59    5.14   589.6    3.2      54.953
2014    9       27    16   4    5.14   589.4    3.2      54.941
2014    9       27    16  10    5.14   589.2    3.2      54.929
2014    9       27    16  15    5.13   589.1    3.2      54.917
2014    9       27    16  21    5.13   588.9    3.2      54.905
2014    9       27    16  26    5.13   588.8    3.2      54.893
2014    9       27    16  31    5.13   588.6    3.2      54.880
2014    9       27    16  37    5.13   588.4    3.2      54.868
2014    9       27    16  42    5.13   588.3    3.2      54.856
2014    9       27    16  48    5.13   588.1    3.2      54.843
2014    9       27    16  53    5.13   587.9    3.2      54.831
2014    9       27    16  58    5.13   587.8    3.2      54.818
2014    9       27    17   4    5.12   587.6    3.2      54.806
2014    9       27    17   9    5.12   587.5    3.2      54.793
2014    9       27    17  15    5.12   587.3    3.2      54.780
2014    9       27    17  20    5.12   587.1    3.2      54.767
2014    9       27    17  25    5.12   587.0    3.2      54.754
2014    9       27    17  31    5.12   586.8    3.2      54.741
2014    9       27    17  36    5.12   586.7    3.2      54.728
2014    9       27    17  42    5.12   586.5    3.2      54.715
2014    9       27    17  47    5.11   586.3    3.2      54.701
2014    9       27    17  52    5.11   586.2    3.2      54.688
2014    9       27    17  58    5.11   586.0    3.2      54.674
2014    9       27    18   3    5.11   585.9    3.2      54.660
2014    9       27    18   9    5.11   585.7    3.2      54.646
2014    9       27    18  14    5.11   585.5    3.2      54.632
2014    9       27    18  19    5.11   585.4    3.2      54.618
2014    9       27    18  25    5.10   585.2    3.2      54.604
2014    9       27    18  30    5.10   585.0    3.2      54.590
2014    9       27    18  36    5.10   584.9    3.2      54.575
2014    9       27    18  41    5.10   584.7    3.2      54.561
2014    9       27    18  47    5.10   584.5    3.2      54.547
2014    9       27    18  52    5.10   584.4    3.2      54.532
2014    9       27    18  57    5.10   584.2    3.2      54.518
2014    9       27    19   3    5.10   584.0    3.2      54.503
2014    9       27    19   8    5.09   583.9    3.2      54.489
2014    9       27    19  14    5.09   583.7    3.2      54.474
2014    9       27    19  19    5.09   583.5    3.2      54.460
2014    9       27    19  24    5.09   583.4    3.2      54.446
2014    9       27    19  30    5.09   583.2    3.2      54.432
2014    9       27    19  35    5.09   583.0    3.2      54.417
2014    9       27    19  41    5.09   582.9    3.2      54.403
2014    9       27    19  46    5.09   582.7    3.2      54.389
2014    9       27    19  51    5.08   582.5    3.2      54.375
2014    9       27    19  57    5.08   582.4    3.2      54.361
2014    9       27    20   2    5.08   582.2    3.2      54.347
2014    9       27    20   8    5.08   582.0    3.2      54.334
2014    9       27    20  13    5.08   581.9    3.2      54.320
2014    9       27    20  18    5.08   581.7    3.2      54.307
2014    9       27    20  24    5.08   581.5    3.2      54.293
2014    9       27    20  29    5.08   581.4    3.2      54.280
2014    9       27    20  35    5.08   581.2    3.2      54.267
2014    9       27    20  40    5.07   581.0    3.2      54.255
2014    9       27    20  45    5.07   580.9    3.2      54.242
2014    9       27    20  51    5.07   580.7    3.2      54.230
2014    9       27    20  56    5.07   580.5    3.2      54.218
2014    9       27    21   2    5.07   580.4    3.2      54.206
2014    9       27    21   7    5.07   580.2    3.2      54.194
2014    9       27    21  12    5.07   580.0    3.2      54.183
2014    9       27    21  18    5.07   579.9    3.2      54.171
2014    9       27    21  23    5.07   579.7    3.2      54.160
2014    9       27    21  29    5.06   579.5    3.2      54.150
2014    9       27    21  34    5.06   579.4    3.2      54.139
2014    9       27    21  39    5.06   579.2    3.2      54.129
2014    9       27    21  45    5.06   579.0    3.2      54.118
2014    9       27    21  50    5.06   578.9    3.2      54.108
2014    9       27    21  56    5.06   578.7    3.2      54.098
2014    9       27    22   1    5.06   578.5    3.2      54.088
2014    9       27    22   7    5.06   578.4    3.2      54.079
2014    9       27    22  12    5.06   578.2    3.2      54.069
2014    9       27    22  17    5.06   578.0    3.3      54.059
2014    9       27    22  23    5.05   577.9    3.3      54.050
2014    9       27    22  28    5.05   577.7    3.3      54.041
2014    9       27    22  34    5.05   577.5    3.3      54.032
2014    9       27    22  39    5.05   577.4    3.3      54.023
2014    9       27    22  44    5.05   577.2    3.3      54.014
2014    9       27    22  50    5.05   577.0    3.3      54.005
2014    9       27    22  55    5.05   576.9    3.3      53.996
2014    9       27    23   1    5.05   576.7    3.3      53.987
2014    9       27    23   6    5.05   576.6    3.3      53.978
2014    9       27    23  11    5.05   576.4    3.3      53.969
2014    9       27    23  17    5.04   576.2    3.3      53.960
2014    9       27    23  22    5.04   576.1    3.3      53.951
2014    9       27    23  28    5.04   575.9    3.3      53.942
2014    9       27    23  33    5.04   575.8    3.3      53.933
2014    9       27    23  38    5.04   575.6    3.3      53.924
2014    9       27    23  44    5.04   575.4    3.3      53.915
2014    9       27    23  49    5.04   575.3    3.3      53.906
2014    9       27    23  55    5.04   575.1    3.3      53.897
2014    9       28     0   0    5.04   575.0    3.3      53.887
2014    9       28     0   5    5.04   574.8    3.3      53.878
2014    9       28     0  11    5.04   574.6    3.3      53.868
2014    9       28     0  16    5.03   574.5    3.3      53.858
2014    9       28     0  22    5.03   574.3    3.3      53.849
2014    9       28     0  27    5.03   574.2    3.3      53.839
2014    9       28     0  32    5.03   574.0    3.3      53.829
2014    9       28     0  38    5.03   573.9    3.3      53.819
2014    9       28     0  43    5.03   573.7    3.3      53.808
2014    9       28     0  49    5.03   573.5    3.3      53.798
2014    9       28     0  54    5.03   573.4    3.3      53.788
2014    9       28     1   0    5.03   573.2    3.3      53.777
2014    9       28     1   5    5.03   573.1    3.3      53.766
2014    9       28     1  10    5.02   572.9    3.3      53.755
2014    9       28     1  16    5.02   572.7    3.3      53.745
2014    9       28     1  21    5.02   572.6    3.3      53.734
2014    9       28     1  27    5.02   572.4    3.3      53.723
2014    9       28     1  32    5.02   572.3    3.3      53.712
2014    9       28     1  37    5.02   572.1    3.3      53.700
2014    9       28     1  43    5.02   571.9    3.3      53.690
2014    9       28     1  48    5.02   571.8    3.3      53.678
2014    9       28     1  54    5.02   571.6    3.3      53.667
2014    9       28     1  59    5.02   571.5    3.3      53.656
2014    9       28     2   4    5.02   571.3    3.3      53.645
2014    9       28     2  10    5.01   571.1    3.3      53.634
2014    9       28     2  15    5.01   571.0    3.3      53.623
2014    9       28     2  21    5.01   570.8    3.3      53.612
2014    9       28     2  26    5.01   570.7    3.3      53.601
2014    9       28     2  31    5.01   570.5    3.3      53.590
2014    9       28     2  37    5.01   570.3    3.3      53.579
2014    9       28     2  42    5.01   570.2    3.3      53.568
2014    9       28     2  48    5.01   570.0    3.3      53.557
2014    9       28     2  53    5.01   569.9    3.3      53.547
2014    9       28     2  58    5.01   569.7    3.3      53.536
2014    9       28     3   4    5.01   569.5    3.3      53.525
2014    9       28     3   9    5.00   569.4    3.3      53.514
2014    9       28     3  15    5.00   569.2    3.3      53.503
2014    9       28     3  20    5.00   569.1    3.3      53.492
2014    9       28     3  26    5.00   568.9    3.3      53.480
2014    9       28     3  31    5.00   568.8    3.3      53.469
2014    9       28     3  36    5.00   568.6    3.3      53.458
2014    9       28     3  42    5.00   568.4    3.3      53.447
2014    9       28     3  47    5.00   568.3    3.3      53.435
2014    9       28     3  53    5.00   568.1    3.3      53.423
2014    9       28     3  58    5.00   568.0    3.3      53.412
2014    9       28     4   3    5.00   567.8    3.3      53.400
2014    9       28     4   9    4.99   567.6    3.3      53.388
2014    9       28     4  14    4.99   567.5    3.3      53.376
2014    9       28     4  20    4.99   567.3    3.3      53.364
2014    9       28     4  25    4.99   567.2    3.3      53.351
2014    9       28     4  30    4.99   567.0    3.3      53.339
2014    9       28     4  36    4.99   566.8    3.3      53.326
2014    9       28     4  41    4.99   566.7    3.3      53.313
2014    9       28     4  47    4.99   566.5    3.3      53.300
2014    9       28     4  52    4.99   566.4    3.3      53.287
2014    9       28     4  57    4.99   566.2    3.3      53.274
2014    9       28     5   3    4.99   566.0    3.3      53.261
2014    9       28     5   8    4.99   565.9    3.3      53.247
2014    9       28     5  14    4.98   565.7    3.3      53.234
2014    9       28     5  19    4.98   565.6    3.3      53.220
2014    9       28     5  24    4.98   565.4    3.3      53.207
2014    9       28     5  30    4.98   565.2    3.3      53.193
2014    9       28     5  35    4.98   565.1    3.3      53.179
2014    9       28     5  41    4.98   564.9    3.3      53.166
2014    9       28     5  46    4.98   564.8    3.3      53.152
2014    9       28     5  51    4.98   564.6    3.3      53.138
2014    9       28     5  57    4.98   564.4    3.3      53.125
2014    9       28     6   2    4.98   564.3    3.3      53.111
2014    9       28     6   8    4.98   564.1    3.3      53.098
2014    9       28     6  13    4.98   564.0    3.4      53.084
2014    9       28     6  18    4.97   563.8    3.4      53.071
2014    9       28     6  24    4.97   563.7    3.4      53.058
2014    9       28     6  29    4.97   563.5    3.4      53.045
2014    9       28     6  35    4.97   563.3    3.4      53.032
2014    9       28     6  40    4.97   563.2    3.4      53.020
2014    9       28     6  46    4.97   563.0    3.4      53.008
2014    9       28     6  51    4.97   562.9    3.4      52.995
2014    9       28     6  56    4.97   562.7    3.4      52.983
2014    9       28     7   2    4.97   562.6    3.4      52.971
2014    9       28     7   7    4.97   562.4    3.4      52.959
2014    9       28     7  13    4.97   562.2    3.4      52.948
2014    9       28     7  18    4.97   562.1    3.4      52.936
2014    9       28     7  23    4.97   561.9    3.4      52.925
2014    9       28     7  29    4.97   561.8    3.4      52.914
2014    9       28     7  34    4.97   561.6    3.4      52.903
2014    9       28     7  40    4.96   561.5    3.4      52.892
2014    9       28     7  45    4.96   561.3    3.4      52.881
2014    9       28     7  50    4.96   561.2    3.4      52.870
2014    9       28     7  56    4.96   561.0    3.4      52.859
2014    9       28     8   1    4.96   560.9    3.4      52.848
2014    9       28     8   7    4.96   560.7    3.4      52.837
2014    9       28     8  12    4.96   560.6    3.4      52.827
2014    9       28     8  17    4.96   560.4    3.4      52.816
2014    9       28     8  23    4.96   560.3    3.4      52.805
2014    9       28     8  28    4.96   560.1    3.4      52.794
2014    9       28     8  34    4.96   560.0    3.4      52.783
2014    9       28     8  39    4.96   559.8    3.4      52.772
2014    9       28     8  44    4.96   559.7    3.4      52.761
2014    9       28     8  50    4.96   559.5    3.4      52.750
2014    9       28     8  55    4.96   559.4    3.4      52.739
2014    9       28     9   1    4.95   559.3    3.4      52.728
2014    9       28     9   6    4.95   559.1    3.4      52.717
2014    9       28     9  12    4.95   559.0    3.4      52.705
2014    9       28     9  17    4.95   558.8    3.4      52.694
2014    9       28     9  22    4.95   558.7    3.4      52.682
2014    9       28     9  28    4.95   558.5    3.4      52.671
2014    9       28     9  33    4.95   558.4    3.4      52.659
2014    9       28     9  39    4.95   558.2    3.4      52.647
2014    9       28     9  44    4.95   558.1    3.4      52.635
2014    9       28     9  49    4.95   557.9    3.4      52.623
2014    9       28     9  55    4.95   557.8    3.4      52.611
2014    9       28    10   0    4.95   557.6    3.4      52.598
2014    9       28    10   6    4.95   557.5    3.4      52.586
2014    9       28    10  11    4.94   557.3    3.4      52.573
2014    9       28    10  16    4.94   557.2    3.4      52.560
2014    9       28    10  22    4.94   557.0    3.4      52.548
2014    9       28    10  27    4.94   556.9    3.4      52.535
2014    9       28    10  33    4.94   556.7    3.4      52.522
2014    9       28    10  38    4.94   556.5    3.4      52.508
2014    9       28    10  43    4.94   556.4    3.4      52.495
2014    9       28    10  49    4.94   556.2    3.4      52.482
2014    9       28    10  54    4.94   556.1    3.4      52.469
2014    9       28    11   0    4.94   555.9    3.4      52.456
2014    9       28    11   5    4.94   555.8    3.4      52.443
2014    9       28    11  10    4.94   555.6    3.4      52.430
2014    9       28    11  16    4.94   555.5    3.4      52.417
2014    9       28    11  21    4.94   555.3    3.4      52.404
2014    9       28    11  27    4.93   555.2    3.4      52.391
2014    9       28    11  32    4.93   555.0    3.4      52.378
2014    9       28    11  37    4.93   554.9    3.4      52.365
2014    9       28    11  43    4.93   554.7    3.4      52.353
2014    9       28    11  48    4.93   554.5    3.4      52.340
2014    9       28    11  54    4.93   554.4    3.4      52.328
2014    9       28    11  59    4.93   554.2    3.4      52.315
2014    9       28    12   5    4.93   554.1    3.4      52.302
2014    9       28    12  10    4.93   553.9    3.4      52.290
2014    9       28    12  15    4.93   553.8    3.4      52.277
2014    9       28    12  21    4.93   553.6    3.4      52.265
2014    9       28    12  26    4.93   553.5    3.4      52.252
2014    9       28    12  32    4.93   553.3    3.4      52.240
2014    9       28    12  37    4.93   553.1    3.4      52.227
2014    9       28    12  42    4.93   553.0    3.4      52.214
2014    9       28    12  48    4.92   552.8    3.4      52.200
2014    9       28    12  53    4.92   552.7    3.4      52.186
2014    9       28    12  59    4.92   552.5    3.4      52.172
2014    9       28    13   4    4.92   552.4    3.4      52.158
2014    9       28    13   9    4.92   552.2    3.4      52.143
2014    9       28    13  15    4.92   552.0    3.4      52.128
2014    9       28    13  20    4.92   551.9    3.4      52.112
2014    9       28    13  26    4.92   551.7    3.4      52.096
2014    9       28    13  31    4.92   551.6    3.4      52.080
2014    9       28    13  36    4.92   551.4    3.4      52.063
2014    9       28    13  42    4.92   551.3    3.4      52.046
2014    9       28    13  47    4.92   551.1    3.4      52.029
2014    9       28    13  53    4.92   551.0    3.5      52.011
2014    9       28    13  58    4.92   550.8    3.5      51.994
2014    9       28    14   3    4.92   550.7    3.5      51.976
2014    9       28    14   9    4.92   550.5    3.5      51.958
2014    9       28    14  14    4.91   550.3    3.5      51.940
2014    9       28    14  20    4.91   550.2    3.5      51.922
2014    9       28    14  25    4.91   550.0    3.5      51.904
2014    9       28    14  30    4.91   549.9    3.5      51.885
2014    9       28    14  36    4.91   549.7    3.5      51.867
2014    9       28    14  41    4.91   549.6    3.5      51.849
2014    9       28    14  47    4.91   549.4    3.5      51.830
2014    9       28    14  52    4.91   549.3    3.5      51.812
2014    9       28    14  57    4.91   549.1    3.5      51.794
2014    9       28    15   3    4.91   549.0    3.5      51.776
2014    9       28    15   8    4.91   548.8    3.5      51.757
2014    9       28    15  14    4.91   548.7    3.5      51.739
2014    9       28    15  19    4.91   548.5    3.5      51.721
2014    9       28    15  25    4.91   548.4    3.5      51.703
2014    9       28    15  30    4.91   548.2    3.5      51.685
2014    9       28    15  35    4.91   548.1    3.5      51.667
2014    9       28    15  41    4.91   547.9    3.5      51.649
2014    9       28    15  46    4.91   547.8    3.5      51.632
2014    9       28    15  52    4.91   547.6    3.5      51.614
2014    9       28    15  57    4.90   547.5    3.5      51.597
2014    9       28    16   2    4.90   547.3    3.5      51.579
2014    9       28    16   8    4.90   547.2    3.5      51.562
2014    9       28    16  13    4.90   547.0    3.5      51.545
2014    9       28    16  19    4.90   546.9    3.5      51.529
2014    9       28    16  24    4.90   546.7    3.5      51.512
2014    9       28    16  29    4.90   546.6    3.5      51.495
2014    9       28    16  35    4.90   546.5    3.5      51.479
2014    9       28    16  40    4.90   546.3    3.5      51.463
2014    9       28    16  46    4.90   546.2    3.5      51.447
2014    9       28    16  51    4.90   546.0    3.5      51.432
2014    9       28    16  56    4.90   545.9    3.5      51.417
2014    9       28    17   2    4.90   545.7    3.5      51.401
2014    9       28    17   7    4.90   545.6    3.5      51.387
2014    9       28    17  13    4.90   545.4    3.5      51.372
2014    9       28    17  18    4.90   545.3    3.5      51.358
2014    9       28    17  23    4.90   545.1    3.5      51.343
2014    9       28    17  29    4.89   545.0    3.5      51.329
2014    9       28    17  34    4.89   544.8    3.5      51.315
2014    9       28    17  40    4.89   544.6    3.5      51.301
2014    9       28    17  45    4.89   544.5    3.5      51.287
2014    9       28    17  51    4.89   544.3    3.5      51.273
2014    9       28    17  56    4.89   544.2    3.5      51.260
2014    9       28    18   1    4.89   544.0    3.5      51.246
2014    9       28    18   7    4.89   543.9    3.5      51.232
2014    9       28    18  12    4.89   543.7    3.5      51.218
2014    9       28    18  18    4.89   543.6    3.5      51.205
2014    9       28    18  23    4.89   543.4    3.5      51.191
2014    9       28    18  28    4.89   543.3    3.5      51.177
2014    9       28    18  34    4.89   543.1    3.5      51.163
2014    9       28    18  39    4.89   543.0    3.5      51.149
2014    9       28    18  45    4.89   542.8    3.5      51.135
2014    9       28    18  50    4.89   542.7    3.5      51.121
2014    9       28    18  55    4.89   542.5    3.5      51.107
2014    9       28    19   1    4.89   542.4    3.5      51.093
2014    9       28    19   6    4.88   542.2    3.5      51.078
2014    9       28    19  12    4.88   542.1    3.5      51.064
2014    9       28    19  17    4.88   541.9    3.5      51.050
2014    9       28    19  22    4.88   541.8    3.5      51.036
2014    9       28    19  28    4.88   541.6    3.5      51.021
2014    9       28    19  33    4.88   541.5    3.5      51.007
2014    9       28    19  39    4.88   541.3    3.5      50.993
2014    9       28    19  44    4.88   541.2    3.5      50.979
2014    9       28    19  49    4.88   541.0    3.5      50.965
2014    9       28    19  55    4.88   540.9    3.5      50.952
2014    9       28    20   0    4.88   540.7    3.5      50.938
2014    9       28    20   6    4.88   540.5    3.5      50.924
2014    9       28    20  11    4.88   540.4    3.5      50.911
2014    9       28    20  16    4.88   540.2    3.5      50.897
2014    9       28    20  22    4.88   540.1    3.5      50.883
2014    9       28    20  27    4.88   539.9    3.5      50.870
2014    9       28    20  33    4.88   539.8    3.6      50.856
2014    9       28    20  38    4.88   539.6    3.6      50.841
2014    9       28    20  44    4.88   539.5    3.6      50.826
2014    9       28    20  49    4.88   539.3    3.6      50.810
2014    9       28    20  54    4.87   539.2    3.6      50.794
2014    9       28    21   0    4.87   539.0    3.6      50.777
2014    9       28    21   5    4.87   538.9    3.6      50.760
2014    9       28    21  11    4.87   538.7    3.6      50.742
2014    9       28    21  16    4.87   538.5    3.6      50.723
2014    9       28    21  21    4.87   538.4    3.6      50.704
2014    9       28    21  27    4.87   538.2    3.6      50.685
2014    9       28    21  32    4.87   538.1    3.6      50.665
2014    9       28    21  38    4.87   537.9    3.6      50.644
2014    9       28    21  43    4.87   537.8    3.6      50.623
2014    9       28    21  48    4.87   537.6    3.6      50.602
2014    9       28    21  54    4.87   537.5    3.6      50.580
2014    9       28    21  59    4.87   537.3    3.6      50.558
2014    9       28    22   5    4.87   537.2    3.6      50.536
2014    9       28    22  10    4.87   537.0    3.6      50.513
2014    9       28    22  15    4.87   536.9    3.6      50.490
2014    9       28    22  21    4.87   536.7    3.6      50.467
2014    9       28    22  26    4.87   536.6    3.6      50.444
2014    9       28    22  32    4.87   536.4    3.6      50.420
2014    9       28    22  37    4.87   536.3    3.6      50.396
2014    9       28    22  42    4.87   536.1    3.6      50.372
2014    9       28    22  48    4.87   536.0    3.6      50.348
2014    9       28    22  53    4.86   535.8    3.6      50.323
2014    9       28    22  59    4.86   535.7    3.6      50.299
2014    9       28    23   4    4.86   535.5    3.6      50.275
2014    9       28    23  10    4.86   535.3    3.6      50.250
2014    9       28    23  15    4.86   535.2    3.6      50.225
2014    9       28    23  20    4.86   535.0    3.6      50.201
2014    9       28    23  26    4.86   534.9    3.6      50.176
2014    9       28    23  31    4.86   534.7    3.6      50.152
2014    9       28    23  37    4.86   534.6    3.6      50.127
2014    9       28    23  42    4.86   534.4    3.6      50.103
2014    9       28    23  47    4.86   534.3    3.6      50.078
2014    9       28    23  53    4.86   534.1    3.6      50.054
2014    9       28    23  58    4.86   534.0    3.6      50.031
2014    9       29     0   4    4.86   533.8    3.6      50.007
2014    9       29     0   9    4.86   533.7    3.6      49.984
2014    9       29     0  14    4.86   533.5    3.6      49.961
2014    9       29     0  20    4.86   533.4    3.6      49.938
2014    9       29     0  25    4.86   533.2    3.6      49.916
2014    9       29     0  31    4.86   533.0    3.6      49.894
2014    9       29     0  36    4.86   532.9    3.6      49.873
2014    9       29     0  41    4.85   532.7    3.6      49.852
2014    9       29     0  47    4.85   532.6    3.6      49.832
2014    9       29     0  52    4.85   532.4    3.6      49.812
2014    9       29     0  58    4.85   532.3    3.6      49.793
2014    9       29     1   3    4.85   532.1    3.6      49.774
2014    9       29     1   8    4.85   532.0    3.6      49.756
2014    9       29     1  14    4.85   531.8    3.6      49.738
2014    9       29     1  19    4.85   531.6    3.6      49.721
2014    9       29     1  25    4.85   531.5    3.6      49.704
2014    9       29     1  30    4.85   531.3    3.6      49.687
2014    9       29     1  35    4.85   531.2    3.6      49.671
2014    9       29     1  41    4.85   531.0    3.6      49.655
2014    9       29     1  46    4.85   530.9    3.6      49.639
2014    9       29     1  52    4.85   530.7    3.6      49.623
2014    9       29     1  57    4.85   530.6    3.6      49.608
2014    9       29     2   3    4.85   530.4    3.6      49.592
2014    9       29     2   8    4.85   530.3    3.6      49.577
2014    9       29     2  13    4.85   530.1    3.6      49.562
2014    9       29     2  19    4.85   529.9    3.6      49.546
2014    9       29     2  24    4.85   529.8    3.6      49.531
2014    9       29     2  30    4.85   529.6    3.6      49.515
2014    9       29     2  35    4.85   529.5    3.6      49.499
2014    9       29     2  40    4.85   529.3    3.6      49.483
2014    9       29     2  46    4.85   529.2    3.6      49.467
2014    9       29     2  51    4.85   529.0    3.6      49.451
2014    9       29     2  57    4.85   528.9    3.6      49.435
2014    9       29     3   2    4.84   528.7    3.6      49.418
2014    9       29     3   7    4.84   528.6    3.6      49.401
2014    9       29     3  13    4.84   528.4    3.6      49.385
2014    9       29     3  18    4.84   528.2    3.7      49.368
2014    9       29     3  24    4.84   528.1    3.7      49.351
2014    9       29     3  29    4.84   527.9    3.7      49.334
2014    9       29     3  34    4.84   527.8    3.7      49.316
2014    9       29     3  40    4.84   527.6    3.7      49.299
2014    9       29     3  45    4.84   527.5    3.7      49.282
2014    9       29     3  51    4.84   527.3    3.7      49.265
2014    9       29     3  56    4.84   527.1    3.7      49.248
2014    9       29     4   1    4.84   527.0    3.7      49.231
2014    9       29     4   7    4.84   526.8    3.7      49.213
2014    9       29     4  12    4.84   526.7    3.7      49.196
2014    9       29     4  18    4.84   526.5    3.7      49.178
2014    9       29     4  23    4.84   526.4    3.7      49.161
2014    9       29     4  28    4.84   526.2    3.7      49.143
2014    9       29     4  34    4.84   526.0    3.7      49.125
2014    9       29     4  39    4.84   525.9    3.7      49.106
2014    9       29     4  45    4.84   525.7    3.7      49.088
2014    9       29     4  50    4.84   525.6    3.7      49.069
2014    9       29     4  56    4.84   525.4    3.7      49.050
2014    9       29     5   1    4.84   525.3    3.7      49.030
2014    9       29     5   6    4.84   525.1    3.7      49.011
2014    9       29     5  12    4.84   524.9    3.7      48.991
2014    9       29     5  17    4.84   524.8    3.7      48.971
2014    9       29     5  23    4.84   524.6    3.7      48.950
2014    9       29     5  28    4.84   524.5    3.7      48.929
2014    9       29     5  33    4.84   524.3    3.7      48.907
2014    9       29     5  39    4.83   524.2    3.7      48.885
2014    9       29     5  44    4.83   524.0    3.7      48.863
2014    9       29     5  50    4.83   523.8    3.7      48.840
2014    9       29     5  55    4.83   523.7    3.7      48.816
2014    9       29     6   0    4.83   523.5    3.7      48.792
2014    9       29     6   6    4.83   523.4    3.7      48.768
2014    9       29     6  11    4.83   523.2    3.7      48.743
2014    9       29     6  17    4.83   523.1    3.7      48.718
2014    9       29     6  22    4.83   522.9    3.7      48.693
2014    9       29     6  27    4.83   522.7    3.7      48.667
2014    9       29     6  33    4.83   522.6    3.7      48.641
2014    9       29     6  38    4.83   522.4    3.7      48.614
2014    9       29     6  44    4.83   522.3    3.7      48.588
2014    9       29     6  49    4.83   522.1    3.7      48.561
2014    9       29     6  54    4.83   522.0    3.7      48.534
2014    9       29     7   0    4.83   521.8    3.7      48.507
2014    9       29     7   5    4.83   521.6    3.7      48.480
2014    9       29     7  11    4.83   521.5    3.7      48.452
2014    9       29     7  16    4.83   521.3    3.7      48.425
2014    9       29     7  22    4.83   521.2    3.7      48.397
2014    9       29     7  27    4.83   521.0    3.7      48.369
2014    9       29     7  32    4.83   520.9    3.7      48.341
2014    9       29     7  38    4.83   520.7    3.7      48.313
2014    9       29     7  43    4.83   520.5    3.7      48.285
2014    9       29     7  49    4.83   520.4    3.7      48.257
2014    9       29     7  54    4.83   520.2    3.7      48.229
2014    9       29     7  59    4.82   520.0    3.7      48.201
2014    9       29     8   5    4.82   519.9    3.7      48.173
2014    9       29     8  10    4.82   519.7    3.7      48.145
2014    9       29     8  16    4.82   519.6    3.7      48.117
2014    9       29     8  21    4.82   519.4    3.7      48.089
2014    9       29     8  26    4.82   519.2    3.7      48.062
2014    9       29     8  32    4.82   519.1    3.7      48.035
2014    9       29     8  37    4.82   518.9    3.7      48.008
2014    9       29     8  43    4.82   518.7    3.7      47.981
2014    9       29     8  48    4.82   518.6    3.7      47.955
2014    9       29     8  53    4.82   518.4    3.7      47.929
2014    9       29     8  59    4.82   518.2    3.7      47.903
2014    9       29     9   4    4.82   518.1    3.7      47.878
2014    9       29     9  10    4.82   517.9    3.7      47.854
2014    9       29     9  15    4.82   517.7    3.7      47.830
2014    9       29     9  20    4.82   517.6    3.7      47.806
2014    9       29     9  26    4.82   517.4    3.7      47.782
2014    9       29     9  31    4.82   517.2    3.7      47.760
2014    9       29     9  37    4.82   517.1    3.7      47.737
2014    9       29     9  42    4.82   516.9    3.7      47.716
2014    9       29     9  47    4.82   516.7    3.7      47.694
2014    9       29     9  53    4.82   516.6    3.7      47.673
2014    9       29     9  58    4.82   516.4    3.8      47.653
2014    9       29    10   4    4.82   516.2    3.8      47.632
2014    9       29    10   9    4.82   516.1    3.8      47.612
2014    9       29    10  15    4.82   515.9    3.8      47.593
2014    9       29    10  20    4.82   515.8    3.8      47.573
2014    9       29    10  25    4.82   515.6    3.8      47.554
2014    9       29    10  31    4.82   515.4    3.8      47.535
2014    9       29    10  36    4.82   515.3    3.8      47.516
2014    9       29    10  42    4.82   515.1    3.8      47.497
2014    9       29    10  47    4.82   514.9    3.8      47.478
2014    9       29    10  52    4.82   514.8    3.8      47.459
2014    9       29    10  58    4.82   514.6    3.8      47.440
2014    9       29    11   3    4.82   514.5    3.8      47.420
2014    9       29    11   9    4.82   514.3    3.8      47.401
2014    9       29    11  14    4.82   514.1    3.8      47.381
2014    9       29    11  19    4.82   514.0    3.8      47.361
2014    9       29    11  25    4.82   513.8    3.8      47.341
2014    9       29    11  30    4.82   513.6    3.8      47.321
2014    9       29    11  36    4.81   513.5    3.8      47.301
2014    9       29    11  41    4.81   513.3    3.8      47.281
2014    9       29    11  46    4.81   513.1    3.8      47.260
2014    9       29    11  52    4.81   513.0    3.8      47.240
2014    9       29    11  57    4.81   512.8    3.8      47.219
2014    9       29    12   3    4.81   512.6    3.8      47.198
2014    9       29    12   8    4.81   512.5    3.8      47.178
2014    9       29    12  13    4.81   512.3    3.8      47.157
2014    9       29    12  19    4.81   512.1    3.8      47.136
2014    9       29    12  24    4.81   512.0    3.8      47.116
2014    9       29    12  30    4.81   511.8    3.8      47.095
2014    9       29    12  35    4.81   511.6    3.8      47.074
2014    9       29    12  40    4.81   511.4    3.8      47.053
2014    9       29    12  46    4.81   511.3    3.8      47.033
2014    9       29    12  51    4.81   511.1    3.8      47.012
2014    9       29    12  57    4.81   510.9    3.8      46.990
2014    9       29    13   2    4.81   510.8    3.8      46.969
2014    9       29    13   8    4.81   510.6    3.8      46.947
2014    9       29    13  13    4.81   510.4    3.8      46.925
2014    9       29    13  18    4.81   510.3    3.8      46.903
2014    9       29    13  24    4.81   510.1    3.8      46.880
2014    9       29    13  29    4.81   509.9    3.8      46.857
2014    9       29    13  35    4.81   509.8    3.8      46.833
2014    9       29    13  40    4.81   509.6    3.8      46.809
2014    9       29    13  45    4.81   509.4    3.8      46.785
2014    9       29    13  51    4.81   509.3    3.8      46.761
2014    9       29    13  56    4.81   509.1    3.8      46.736
2014    9       29    14   2    4.81   508.9    3.8      46.711
2014    9       29    14   7    4.81   508.8    3.9      46.685
2014    9       29    14  12    4.81   508.6    3.9      46.660
2014    9       29    14  18    4.81   508.4    3.9      46.634
2014    9       29    14  23    4.81   508.3    3.9      46.608
2014    9       29    14  29    4.81   508.1    3.9      46.581
2014    9       29    14  34    4.81   507.9    3.9      46.554
2014    9       29    14  39    4.81   507.8    3.9      46.527
2014    9       29    14  45    4.81   507.6    3.9      46.500
2014    9       29    14  50    4.81   507.4    3.9      46.473
2014    9       29    14  56    4.81   507.3    3.9      46.445
2014    9       29    15   1    4.81   507.1    3.9      46.417
2014    9       29    15   6    4.81   506.9    3.9      46.389
2014    9       29    15  12    4.81   506.7    3.9      46.361
2014    9       29    15  17    4.81   506.6    3.9      46.333
2014    9       29    15  23    4.81   506.4    3.9      46.304
2014    9       29    15  28    4.81   506.2    3.9      46.276
2014    9       29    15  34    4.81   506.1    3.9      46.248
2014    9       29    15  39    4.81   505.9    3.9      46.219
2014    9       29    15  44    4.81   505.7    3.9      46.190
2014    9       29    15  50    4.81   505.5    3.9      46.162
2014    9       29    15  55    4.81   505.4    3.9      46.133
2014    9       29    16   1    4.81   505.2    3.9      46.104
2014    9       29    16   6    4.81   505.0    3.9      46.076
2014    9       29    16  11    4.81   504.9    3.9      46.047
2014    9       29    16  17    4.81   504.7    3.9      46.019
2014    9       29    16  22    4.81   504.5    3.9      45.991
2014    9       29    16  28    4.81   504.3    3.9      45.963
2014    9       29    16  33    4.81   504.2    3.9      45.935
2014    9       29    16  38    4.81   504.0    3.9      45.908
2014    9       29    16  44    4.81   503.8    3.9      45.881
2014    9       29    16  49    4.81   503.6    3.9      45.853
2014    9       29    16  55    4.81   503.5    3.9      45.827
2014    9       29    17   0    4.81   503.3    3.9      45.800
2014    9       29    17   5    4.81   503.1    3.9      45.774
2014    9       29    17  11    4.81   502.9    3.9      45.748
2014    9       29    17  16    4.81   502.8    3.9      45.722
2014    9       29    17  22    4.81   502.6    3.9      45.696
2014    9       29    17  27    4.81   502.4    3.9      45.671
2014    9       29    17  32    4.81   502.2    3.9      45.646
2014    9       29    17  38    4.81   502.1    3.9      45.621
2014    9       29    17  43    4.81   501.9    3.9      45.596
2014    9       29    17  49    4.81   501.7    3.9      45.572
2014    9       29    17  54    4.81   501.5    3.9      45.548
2014    9       29    17  59    4.81   501.4    3.9      45.524
2014    9       29    18   5    4.81   501.2    3.9      45.500
2014    9       29    18  10    4.81   501.0    3.9      45.476
2014    9       29    18  16    4.81   500.9    4.0      45.452
2014    9       29    18  21    4.81   500.7    4.0      45.428
2014    9       29    18  27    4.81   500.5    4.0      45.404
2014    9       29    18  32    4.81   500.3    4.0      45.380
2014    9       29    18  37    4.81   500.2    4.0      45.356
2014    9       29    18  43    4.81   500.0    4.0      45.332
2014    9       29    18  48    4.81   499.8    4.0      45.307
2014    9       29    18  54    4.81   499.6    4.0      45.283
2014    9       29    18  59    4.81   499.5    4.0      45.259
2014    9       29    19   4    4.81   499.3    4.0      45.235
2014    9       29    19  10    4.81   499.1    4.0      45.210
2014    9       29    19  15    4.81   498.9    4.0      45.186
2014    9       29    19  21    4.81   498.8    4.0      45.161
2014    9       29    19  26    4.81   498.6    4.0      45.136
2014    9       29    19  31    4.81   498.4    4.0      45.111
2014    9       29    19  37    4.81   498.2    4.0      45.087
2014    9       29    19  42    4.81   498.1    4.0      45.062
2014    9       29    19  48    4.81   497.9    4.0      45.037
2014    9       29    19  53    4.81   497.7    4.0      45.012
2014    9       29    19  58    4.81   497.5    4.0      44.987
2014    9       29    20   4    4.81   497.3    4.0      44.962
2014    9       29    20   9    4.81   497.2    4.0      44.936
2014    9       29    20  15    4.81   497.0    4.0      44.911
2014    9       29    20  20    4.81   496.8    4.0      44.886
2014    9       29    20  25    4.81   496.6    4.0      44.860
2014    9       29    20  31    4.82   496.5    4.0      44.835
2014    9       29    20  36    4.82   496.3    4.0      44.809
2014    9       29    20  42    4.82   496.1    4.0      44.783
2014    9       29    20  47    4.82   495.9    4.0      44.757
2014    9       29    20  53    4.82   495.7    4.0      44.731
2014    9       29    20  58    4.82   495.6    4.0      44.705
2014    9       29    21   3    4.82   495.4    4.0      44.678
2014    9       29    21   9    4.82   495.2    4.0      44.652
2014    9       29    21  14    4.82   495.0    4.0      44.625
2014    9       29    21  20    4.82   494.8    4.0      44.599
2014    9       29    21  25    4.82   494.7    4.0      44.572
2014    9       29    21  30    4.82   494.5    4.0      44.545
2014    9       29    21  36    4.82   494.3    4.0      44.518
2014    9       29    21  41    4.82   494.1    4.1      44.490
2014    9       29    21  47    4.82   493.9    4.1      44.463
2014    9       29    21  52    4.82   493.8    4.1      44.436
2014    9       29    21  57    4.82   493.6    4.1      44.408
2014    9       29    22   3    4.82   493.4    4.1      44.381
2014    9       29    22   8    4.82   493.2    4.1      44.354
2014    9       29    22  14    4.82   493.0    4.1      44.326
2014    9       29    22  19    4.82   492.9    4.1      44.299
2014    9       29    22  24    4.82   492.7    4.1      44.272
2014    9       29    22  30    4.82   492.5    4.1      44.244
2014    9       29    22  35    4.82   492.3    4.1      44.217
2014    9       29    22  41    4.82   492.1    4.1      44.189
2014    9       29    22  46    4.82   492.0    4.1      44.162
2014    9       29    22  51    4.83   491.8    4.1      44.135
2014    9       29    22  57    4.83   491.6    4.1      44.108
2014    9       29    23   2    4.83   491.4    4.1      44.081
2014    9       29    23   8    4.83   491.2    4.1      44.054
2014    9       29    23  13    4.83   491.1    4.1      44.027
2014    9       29    23  19    4.83   490.9    4.1      44.000
2014    9       29    23  24    4.83   490.7    4.1      43.973
2014    9       29    23  29    4.83   490.5    4.1      43.946
2014    9       29    23  35    4.83   490.3    4.1      43.919
2014    9       29    23  40    4.83   490.2    4.1      43.892
2014    9       29    23  46    4.83   490.0    4.1      43.866
2014    9       29    23  51    4.83   489.8    4.1      43.839
2014    9       29    23  56    4.83   489.6    4.1      43.812
2014    9       30     0   2    4.83   489.5    4.1      43.786
2014    9       30     0   7    4.83   489.3    4.1      43.759
2014    9       30     0  13    4.83   489.1    4.1      43.732
2014    9       30     0  18    4.83   488.9    4.1      43.706
2014    9       30     0  23    4.83   488.7    4.1      43.679
2014    9       30     0  29    4.84   488.6    4.1      43.653
2014    9       30     0  34    4.84   488.4    4.2      43.626
2014    9       30     0  40    4.84   488.2    4.2      43.599
2014    9       30     0  45    4.84   488.0    4.2      43.573
2014    9       30     0  50    4.84   487.8    4.2      43.546
2014    9       30     0  56    4.84   487.7    4.2      43.520
2014    9       30     1   1    4.84   487.5    4.2      43.493
2014    9       30     1   7    4.84   487.3    4.2      43.467
2014    9       30     1  12    4.84   487.1    4.2      43.440
2014    9       30     1  17    4.84   486.9    4.2      43.414
2014    9       30     1  23    4.84   486.8    4.2      43.387
2014    9       30     1  28    4.84   486.6    4.2      43.361
2014    9       30     1  34    4.84   486.4    4.2      43.334
2014    9       30     1  39    4.84   486.2    4.2      43.307
2014    9       30     1  44    4.85   486.0    4.2      43.281
2014    9       30     1  50    4.85   485.9    4.2      43.254
2014    9       30     1  55    4.85   485.7    4.2      43.227
2014    9       30     2   1    4.85   485.5    4.2      43.201
2014    9       30     2   6    4.85   485.3    4.2      43.174
2014    9       30     2  12    4.85   485.1    4.2      43.147
2014    9       30     2  17    4.85   484.9    4.2      43.120
2014    9       30     2  22    4.85   484.8    4.2      43.093
2014    9       30     2  28    4.85   484.6    4.2      43.066
2014    9       30     2  33    4.85   484.4    4.2      43.039
2014    9       30     2  39    4.85   484.2    4.2      43.012
2014    9       30     2  44    4.85   484.0    4.2      42.985
2014    9       30     2  49    4.85   483.9    4.2      42.958
2014    9       30     2  55    4.86   483.7    4.2      42.931
2014    9       30     3   0    4.86   483.5    4.3      42.904
2014    9       30     3   6    4.86   483.3    4.3      42.877
2014    9       30     3  11    4.86   483.1    4.3      42.850
2014    9       30     3  16    4.86   483.0    4.3      42.823
2014    9       30     3  22    4.86   482.8    4.3      42.796
2014    9       30     3  27    4.86   482.6    4.3      42.769
2014    9       30     3  33    4.86   482.4    4.3      42.742
2014    9       30     3  38    4.86   482.2    4.3      42.715
2014    9       30     3  43    4.86   482.0    4.3      42.689
2014    9       30     3  49    4.87   481.9    4.3      42.662
2014    9       30     3  54    4.87   481.7    4.3      42.636
2014    9       30     4   0    4.87   481.5    4.3      42.609
2014    9       30     4   5    4.87   481.3    4.3      42.583
2014    9       30     4  10    4.87   481.1    4.3      42.556
2014    9       30     4  16    4.87   481.0    4.3      42.531
2014    9       30     4  21    4.87   480.8    4.3      42.505
2014    9       30     4  27    4.87   480.6    4.3      42.479
2014    9       30     4  32    4.87   480.4    4.3      42.453
2014    9       30     4  37    4.88   480.2    4.3      42.428
2014    9       30     4  43    4.88   480.1    4.3      42.403
2014    9       30     4  48    4.88   479.9    4.3      42.378
2014    9       30     4  54    4.88   479.7    4.3      42.353
2014    9       30     4  59    4.88   479.5    4.3      42.329
2014    9       30     5   5    4.88   479.4    4.3      42.304
2014    9       30     5  10    4.88   479.2    4.3      42.280
2014    9       30     5  15    4.89   479.0    4.4      42.256
2014    9       30     5  21    4.89   478.8    4.4      42.232
2014    9       30     5  26    4.89   478.7    4.4      42.208
2014    9       30     5  32    4.89   478.5    4.4      42.184
2014    9       30     5  37    4.89   478.3    4.4      42.161
2014    9       30     5  42    4.89   478.1    4.4      42.137
2014    9       30     5  48    4.89   478.0    4.4      42.114
2014    9       30     5  53    4.90   477.8    4.4      42.090
2014    9       30     5  59    4.90   477.6    4.4      42.067
2014    9       30     6   4    4.90   477.5    4.4      42.043
2014    9       30     6   9    4.90   477.3    4.4      42.020
2014    9       30     6  15    4.90   477.1    4.4      41.997
2014    9       30     6  20    4.90   476.9    4.4      41.974
2014    9       30     6  26    4.90   476.8    4.4      41.950
2014    9       30     6  31    4.91   476.6    4.4      41.927
2014    9       30     6  36    4.91   476.4    4.4      41.903
2014    9       30     6  42    4.91   476.3    4.4      41.880
2014    9       30     6  47    4.91   476.1    4.4      41.857
2014    9       30     6  53    4.91   475.9    4.4      41.833
2014    9       30     6  58    4.91   475.8    4.4      41.810
2014    9       30     7   3    4.92   475.6    4.4      41.786
2014    9       30     7   9    4.92   475.4    4.4      41.763
2014    9       30     7  14    4.92   475.3    4.5      41.739
2014    9       30     7  20    4.92   475.1    4.5      41.716
2014    9       30     7  25    4.92   474.9    4.5      41.692
2014    9       30     7  31    4.92   474.8    4.5      41.669
2014    9       30     7  36    4.93   474.6    4.5      41.645
2014    9       30     7  41    4.93   474.4    4.5      41.621
2014    9       30     7  47    4.93   474.3    4.5      41.598
2014    9       30     7  52    4.93   474.1    4.5      41.574
2014    9       30     7  58    4.93   474.0    4.5      41.551
2014    9       30     8   3    4.93   473.8    4.5      41.528
2014    9       30     8   8    4.94   473.6    4.5      41.504
2014    9       30     8  14    4.94   473.5    4.5      41.481
2014    9       30     8  19    4.94   473.3    4.5      41.458
2014    9       30     8  25    4.94   473.1    4.5      41.435
2014    9       30     8  30    4.94   473.0    4.5      41.413
2014    9       30     8  35    4.94   472.8    4.5      41.390
2014    9       30     8  41    4.95   472.7    4.5      41.368
2014    9       30     8  46    4.95   472.5    4.5      41.346
2014    9       30     8  52    4.95   472.3    4.5      41.324
2014    9       30     8  57    4.95   472.2    4.5      41.302
2014    9       30     9   2    4.95   472.0    4.6      41.281
2014    9       30     9   8    4.96   471.9    4.6      41.259
2014    9       30     9  13    4.96   471.7    4.6      41.238
2014    9       30     9  19    4.96   471.5    4.6      41.218
2014    9       30     9  24    4.96   471.4    4.6      41.197
2014    9       30     9  29    4.96   471.2    4.6      41.177
2014    9       30     9  35    4.96   471.1    4.6      41.157
2014    9       30     9  40    4.97   470.9    4.6      41.137
2014    9       30     9  46    4.97   470.8    4.6      41.118
2014    9       30     9  51    4.97   470.6    4.6      41.099
2014    9       30     9  56    4.97   470.5    4.6      41.080
2014    9       30    10   2    4.97   470.3    4.6      41.062
2014    9       30    10   7    4.98   470.2    4.6      41.043
2014    9       30    10  13    4.98   470.0    4.6      41.025
2014    9       30    10  18    4.98   469.9    4.6      41.007
2014    9       30    10  24    4.98   469.7    4.6      40.989
2014    9       30    10  29    4.99   469.6    4.6      40.972
2014    9       30    10  34    4.99   469.4    4.7      40.954
2014    9       30    10  40    4.99   469.3    4.7      40.937
2014    9       30    10  45    4.99   469.1    4.7      40.920
2014    9       30    10  51    4.99   469.0    4.7      40.904
2014    9       30    10  56    5.00   468.8    4.7      40.887
2014    9       30    11   1    5.00   468.7    4.7      40.871
2014    9       30    11   7    5.00   468.5    4.7      40.855
2014    9       30    11  12    5.00   468.4    4.7      40.839
2014    9       30    11  18    5.00   468.3    4.7      40.823
2014    9       30    11  23    5.01   468.1    4.7      40.808
2014    9       30    11  28    5.01   468.0    4.7      40.792
2014    9       30    11  34    5.01   467.8    4.7      40.777
2014    9       30    11  39    5.01   467.7    4.7      40.762
2014    9       30    11  45    5.02   467.6    4.7      40.747
2014    9       30    11  50    5.02   467.4    4.7      40.733
2014    9       30    11  55    5.02   467.3    4.7      40.718
2014    9       30    12   1    5.02   467.1    4.7      40.703
2014    9       30    12   6    5.03   467.0    4.8      40.688
2014    9       30    12  12    5.03   466.9    4.8      40.674
2014    9       30    12  17    5.03   466.7    4.8      40.660
2014    9       30    12  22    5.03   466.6    4.8      40.645
2014    9       30    12  28    5.04   466.5    4.8      40.631
2014    9       30    12  33    5.04   466.3    4.8      40.616
2014    9       30    12  39    5.04   466.2    4.8      40.602
2014    9       30    12  44    5.04   466.1    4.8      40.587
2014    9       30    12  50    5.05   465.9    4.8      40.573
2014    9       30    12  55    5.05   465.8    4.8      40.559
2014    9       30    13   0    5.05   465.7    4.8      40.544
2014    9       30    13   6    5.05   465.6    4.8      40.530
2014    9       30    13  11    5.06   465.4    4.8      40.516
2014    9       30    13  17    5.06   465.3    4.8      40.501
2014    9       30    13  22    5.06   465.2    4.8      40.487
2014    9       30    13  27    5.06   465.1    4.8      40.472
2014    9       30    13  33    5.07   465.0    4.8      40.458
2014    9       30    13  38    5.07   464.8    4.9      40.443
2014    9       30    13  44    5.07   464.7    4.9      40.428
2014    9       30    13  49    5.07   464.6    4.9      40.414
2014    9       30    13  54    5.08   464.5    4.9      40.399
2014    9       30    14   0    5.08   464.4    4.9      40.384
2014    9       30    14   5    5.08   464.2    4.9      40.370
2014    9       30    14  11    5.08   464.1    4.9      40.355
2014    9       30    14  16    5.09   464.0    4.9      40.340
2014    9       30    14  21    5.09   463.9    4.9      40.325
2014    9       30    14  27    5.09   463.8    4.9      40.310
2014    9       30    14  32    5.09   463.7    4.9      40.295
2014    9       30    14  38    5.10   463.5    4.9      40.280
2014    9       30    14  43    5.10   463.4    4.9      40.265
2014    9       30    14  48    5.10   463.3    4.9      40.251
2014    9       30    14  54    5.11   463.2    4.9      40.236
2014    9       30    14  59    5.11   463.1    4.9      40.221
2014    9       30    15   5    5.11   463.0    4.9      40.206
2014    9       30    15  10    5.11   462.9    5.0      40.191
2014    9       30    15  15    5.12   462.8    5.0      40.177
2014    9       30    15  21    5.12   462.6    5.0      40.163
2014    9       30    15  26    5.12   462.5    5.0      40.148
2014    9       30    15  32    5.12   462.4    5.0      40.134
2014    9       30    15  37    5.13   462.3    5.0      40.120
2014    9       30    15  43    5.13   462.2    5.0      40.106
2014    9       30    15  48    5.13   462.1    5.0      40.093
2014    9       30    15  53    5.13   462.0    5.0      40.080
2014    9       30    15  59    5.14   461.9    5.0      40.067
2014    9       30    16   4    5.14   461.8    5.0      40.054
2014    9       30    16  10    5.14   461.7    5.0      40.041
2014    9       30    16  15    5.14   461.6    5.0      40.029
2014    9       30    16  20    5.15   461.5    5.0      40.018
2014    9       30    16  26    5.15   461.4    5.0      40.007
2014    9       30    16  31    5.15   461.3    5.0      39.996
2014    9       30    16  37    5.16   461.2    5.0      39.986
2014    9       30    16  42    5.16   461.1    5.1      39.976
2014    9       30    16  47    5.16   461.0    5.1      39.967
2014    9       30    16  53    5.16   460.9    5.1      39.958
2014    9       30    16  58    5.17   460.8    5.1      39.950
2014    9       30    17   4    5.17   460.8    5.1      39.942
2014    9       30    17   9    5.17   460.7    5.1      39.935
2014    9       30    17  14    5.17   460.6    5.1      39.928
2014    9       30    17  20    5.18   460.5    5.1      39.921
2014    9       30    17  25    5.18   460.4    5.1      39.915
2014    9       30    17  31    5.18   460.3    5.1      39.908
2014    9       30    17  36    5.18   460.2    5.1      39.902
2014    9       30    17  41    5.19   460.2    5.1      39.896
2014    9       30    17  47    5.19   460.1    5.1      39.889
2014    9       30    17  52    5.19   460.0    5.1      39.883
2014    9       30    17  58    5.20   459.9    5.1      39.877
2014    9       30    18   3    5.20   459.8    5.1      39.870
2014    9       30    18   9    5.20   459.7    5.2      39.864
2014    9       30    18  14    5.20   459.7    5.2      39.858
2014    9       30    18  19    5.21   459.6    5.2      39.851
2014    9       30    18  25    5.21   459.5    5.2      39.845
2014    9       30    18  30    5.21   459.4    5.2      39.839
2014    9       30    18  36    5.21   459.3    5.2      39.832
2014    9       30    18  41    5.22   459.3    5.2      39.826
2014    9       30    18  46    5.22   459.2    5.2      39.819
2014    9       30    18  52    5.22   459.1    5.2      39.813
2014    9       30    18  57    5.22   459.0    5.2      39.806
2014    9       30    19   3    5.23   459.0    5.2      39.799
2014    9       30    19   8    5.23   458.9    5.2      39.792
2014    9       30    19  13    5.23   458.8    5.2      39.785
2014    9       30    19  19    5.23   458.7    5.2      39.778
2014    9       30    19  24    5.24   458.7    5.2      39.770
2014    9       30    19  30    5.24   458.6    5.2      39.763
2014    9       30    19  35    5.24   458.5    5.2      39.755
2014    9       30    19  40    5.25   458.4    5.2      39.747
2014    9       30    19  46    5.25   458.4    5.3      39.739
2014    9       30    19  51    5.25   458.3    5.3      39.731
2014    9       30    19  57    5.25   458.2    5.3      39.723
2014    9       30    20   2    5.26   458.1    5.3      39.714
2014    9       30    20   7    5.26   458.1    5.3      39.706
2014    9       30    20  13    5.26   458.0    5.3      39.697
2014    9       30    20  18    5.26   457.9    5.3      39.689
2014    9       30    20  24    5.27   457.9    5.3      39.681
2014    9       30    20  29    5.27   457.8    5.3      39.672
2014    9       30    20  35    5.27   457.7    5.3      39.664
2014    9       30    20  40    5.28   457.7    5.3      39.655
2014    9       30    20  45    5.28   457.6    5.3      39.647
2014    9       30    20  51    5.28   457.5    5.3      39.639
2014    9       30    20  56    5.28   457.5    5.3      39.630
2014    9       30    21   2    5.29   457.4    5.3      39.622
2014    9       30    21   7    5.29   457.3    5.3      39.614
2014    9       30    21  12    5.29   457.3    5.3      39.606
2014    9       30    21  18    5.29   457.2    5.3      39.598
2014    9       30    21  23    5.30   457.2    5.3      39.590
2014    9       30    21  29    5.30   457.1    5.3      39.582
2014    9       30    21  34    5.30   457.0    5.3      39.575
2014    9       30    21  39    5.30   457.0    5.4      39.567
2014    9       30    21  45    5.31   456.9    5.4      39.560
2014    9       30    21  50    5.31   456.9    5.4      39.553
2014    9       30    21  56    5.31   456.8    5.4      39.546
2014    9       30    22   1    5.31   456.8    5.4      39.538
2014    9       30    22   6    5.32   456.7    5.4      39.531
2014    9       30    22  12    5.32   456.7    5.4      39.524
2014    9       30    22  17    5.32   456.6    5.4      39.517
2014    9       30    22  23    5.32   456.5    5.4      39.510
2014    9       30    22  28    5.33   456.5    5.4      39.503
2014    9       30    22  33    5.33   456.4    5.4      39.496
2014    9       30    22  39    5.33   456.4    5.4      39.490
2014    9       30    22  44    5.33   456.3    5.4      39.483
2014    9       30    22  50    5.34   456.3    5.4      39.476
2014    9       30    22  55    5.34   456.2    5.4      39.469
2014    9       30    23   0    5.34   456.2    5.4      39.463
2014    9       30    23   6    5.34   456.1    5.4      39.456
2014    9       30    23  11    5.35   456.1    5.4      39.450
2014    9       30    23  17    5.35   456.0    5.4      39.443
2014    9       30    23  22    5.35   456.0    5.4      39.437
2014    9       30    23  28    5.35   456.0    5.4      39.431
2014    9       30    23  33    5.36   455.9    5.4      39.425
2014    9       30    23  38    5.36   455.9    5.5      39.419
2014    9       30    23  44    5.36   455.8    5.5      39.413
2014    9       30    23  49    5.36   455.8    5.5      39.407
2014    9       30    23  55    5.37   455.7    5.5      39.401
2014   10        1     0   0    5.37   455.7    5.5      39.396
