year    month   day   hour  minute  B_enl V_enl   n_enl       T_enl
[year] [month] [day] [hour][minute] [nT]  [km/s]  [cm-3]      [kK]
2014    9       22     0   0    6.64   580.8    4.1      51.642
2014    9       22     0   6    6.64   580.7    4.1      51.611
2014    9       22     0  11    6.63   580.7    4.1      51.581
2014    9       22     0  16    6.63   580.7    4.1      51.552
2014    9       22     0  22    6.62   580.7    4.1      51.523
2014    9       22     0  27    6.62   580.6    4.1      51.496
2014    9       22     0  32    6.62   580.6    4.1      51.469
2014    9       22     0  37    6.61   580.6    4.1      51.443
2014    9       22     0  43    6.61   580.6    4.1      51.419
2014    9       22     0  48    6.61   580.6    4.1      51.395
2014    9       22     0  53    6.60   580.5    4.1      51.371
2014    9       22     0  59    6.60   580.5    4.1      51.349
2014    9       22     1   4    6.60   580.5    4.1      51.328
2014    9       22     1   9    6.59   580.5    4.1      51.307
2014    9       22     1  15    6.59   580.4    4.1      51.287
2014    9       22     1  20    6.59   580.4    4.1      51.268
2014    9       22     1  25    6.58   580.4    4.1      51.249
2014    9       22     1  31    6.58   580.4    4.1      51.230
2014    9       22     1  36    6.58   580.4    4.1      51.212
2014    9       22     1  41    6.57   580.3    4.1      51.193
2014    9       22     1  46    6.57   580.3    4.1      51.175
2014    9       22     1  52    6.57   580.3    4.1      51.157
2014    9       22     1  57    6.56   580.3    4.1      51.138
2014    9       22     2   2    6.56   580.2    4.1      51.120
2014    9       22     2   8    6.56   580.2    4.1      51.100
2014    9       22     2  13    6.55   580.2    4.1      51.080
2014    9       22     2  18    6.55   580.1    4.1      51.060
2014    9       22     2  24    6.55   580.1    4.1      51.039
2014    9       22     2  29    6.54   580.1    4.1      51.018
2014    9       22     2  34    6.54   580.0    4.1      50.996
2014    9       22     2  40    6.54   580.0    4.1      50.974
2014    9       22     2  45    6.54   580.0    4.1      50.951
2014    9       22     2  50    6.53   579.9    4.1      50.928
2014    9       22     2  56    6.53   579.9    4.1      50.905
2014    9       22     3   1    6.53   579.8    4.1      50.881
2014    9       22     3   6    6.52   579.8    4.1      50.858
2014    9       22     3  11    6.52   579.8    4.1      50.834
2014    9       22     3  17    6.52   579.7    4.1      50.810
2014    9       22     3  22    6.52   579.7    4.1      50.786
2014    9       22     3  27    6.51   579.6    4.1      50.761
2014    9       22     3  33    6.51   579.6    4.1      50.737
2014    9       22     3  38    6.51   579.6    4.1      50.713
2014    9       22     3  43    6.51   579.5    4.0      50.690
2014    9       22     3  49    6.50   579.5    4.0      50.666
2014    9       22     3  54    6.50   579.4    4.0      50.642
2014    9       22     3  59    6.50   579.4    4.0      50.619
2014    9       22     4   5    6.50   579.3    4.0      50.596
2014    9       22     4  10    6.49   579.3    4.0      50.572
2014    9       22     4  15    6.49   579.3    4.0      50.550
2014    9       22     4  20    6.49   579.2    4.0      50.528
2014    9       22     4  26    6.49   579.2    4.0      50.505
2014    9       22     4  31    6.48   579.1    4.0      50.484
2014    9       22     4  36    6.48   579.1    4.0      50.462
2014    9       22     4  42    6.48   579.0    4.0      50.441
2014    9       22     4  47    6.48   579.0    4.0      50.420
2014    9       22     4  52    6.48   578.9    4.0      50.400
2014    9       22     4  58    6.47   578.9    4.0      50.380
2014    9       22     5   3    6.47   578.9    4.0      50.361
2014    9       22     5   8    6.47   578.8    4.0      50.341
2014    9       22     5  14    6.47   578.8    4.0      50.322
2014    9       22     5  19    6.46   578.7    4.0      50.303
2014    9       22     5  24    6.46   578.7    4.0      50.285
2014    9       22     5  29    6.46   578.6    4.0      50.267
2014    9       22     5  35    6.46   578.6    4.0      50.249
2014    9       22     5  40    6.46   578.5    4.0      50.232
2014    9       22     5  45    6.45   578.5    4.0      50.215
2014    9       22     5  51    6.45   578.4    4.0      50.197
2014    9       22     5  56    6.45   578.4    4.0      50.180
2014    9       22     6   1    6.45   578.3    4.0      50.162
2014    9       22     6   7    6.45   578.3    4.0      50.143
2014    9       22     6  12    6.44   578.2    4.0      50.124
2014    9       22     6  17    6.44   578.2    4.0      50.106
2014    9       22     6  23    6.44   578.1    4.0      50.086
2014    9       22     6  28    6.44   578.1    4.0      50.067
2014    9       22     6  33    6.43   578.0    4.0      50.047
2014    9       22     6  38    6.43   578.0    4.0      50.027
2014    9       22     6  44    6.43   577.9    4.0      50.007
2014    9       22     6  49    6.43   577.9    4.0      49.986
2014    9       22     6  54    6.43   577.8    4.0      49.965
2014    9       22     7   0    6.42   577.8    4.0      49.944
2014    9       22     7   5    6.42   577.7    4.0      49.922
2014    9       22     7  10    6.42   577.7    4.0      49.901
2014    9       22     7  16    6.42   577.6    4.0      49.879
2014    9       22     7  21    6.42   577.6    4.0      49.856
2014    9       22     7  26    6.41   577.5    4.0      49.834
2014    9       22     7  32    6.41   577.4    4.0      49.811
2014    9       22     7  37    6.41   577.4    4.0      49.789
2014    9       22     7  42    6.41   577.3    4.0      49.766
2014    9       22     7  47    6.41   577.3    4.0      49.742
2014    9       22     7  53    6.41   577.2    4.0      49.719
2014    9       22     7  58    6.40   577.2    4.0      49.696
2014    9       22     8   3    6.40   577.1    4.0      49.672
2014    9       22     8   9    6.40   577.1    4.0      49.649
2014    9       22     8  14    6.40   577.0    4.0      49.625
2014    9       22     8  19    6.40   576.9    4.0      49.602
2014    9       22     8  25    6.40   576.9    4.0      49.578
2014    9       22     8  30    6.39   576.8    4.0      49.554
2014    9       22     8  35    6.39   576.8    4.0      49.530
2014    9       22     8  41    6.39   576.7    4.0      49.506
2014    9       22     8  46    6.39   576.7    4.0      49.482
2014    9       22     8  51    6.39   576.6    4.0      49.458
2014    9       22     8  56    6.39   576.6    4.0      49.434
2014    9       22     9   2    6.39   576.5    4.0      49.410
2014    9       22     9   7    6.38   576.5    4.0      49.386
2014    9       22     9  12    6.38   576.4    4.0      49.362
2014    9       22     9  18    6.38   576.3    4.0      49.338
2014    9       22     9  23    6.38   576.3    4.0      49.314
2014    9       22     9  28    6.38   576.2    4.0      49.290
2014    9       22     9  34    6.38   576.2    4.0      49.266
2014    9       22     9  39    6.38   576.1    4.0      49.242
2014    9       22     9  44    6.37   576.1    4.0      49.218
2014    9       22     9  50    6.37   576.0    4.0      49.194
2014    9       22     9  55    6.37   575.9    4.0      49.171
2014    9       22    10   0    6.37   575.9    4.0      49.147
2014    9       22    10   5    6.37   575.8    4.0      49.124
2014    9       22    10  11    6.37   575.8    4.0      49.100
2014    9       22    10  16    6.37   575.7    4.0      49.077
2014    9       22    10  21    6.37   575.7    4.0      49.054
2014    9       22    10  27    6.37   575.6    4.0      49.032
2014    9       22    10  32    6.36   575.6    4.0      49.010
2014    9       22    10  37    6.36   575.5    4.0      48.988
2014    9       22    10  43    6.36   575.4    4.0      48.966
2014    9       22    10  48    6.36   575.4    4.0      48.945
2014    9       22    10  53    6.36   575.3    4.0      48.925
2014    9       22    10  59    6.36   575.3    4.0      48.904
2014    9       22    11   4    6.36   575.2    4.0      48.885
2014    9       22    11   9    6.36   575.2    4.0      48.866
2014    9       22    11  14    6.36   575.1    4.0      48.847
2014    9       22    11  20    6.36   575.1    4.0      48.830
2014    9       22    11  25    6.35   575.0    4.0      48.813
2014    9       22    11  30    6.35   574.9    4.0      48.796
2014    9       22    11  36    6.35   574.9    4.0      48.781
2014    9       22    11  41    6.35   574.8    4.0      48.766
2014    9       22    11  46    6.35   574.8    4.0      48.752
2014    9       22    11  52    6.35   574.7    4.0      48.739
2014    9       22    11  57    6.35   574.7    4.0      48.726
2014    9       22    12   2    6.35   574.6    4.0      48.714
2014    9       22    12   8    6.35   574.6    4.0      48.704
2014    9       22    12  13    6.35   574.5    4.0      48.694
2014    9       22    12  18    6.35   574.5    4.0      48.685
2014    9       22    12  24    6.34   574.5    4.0      48.677
2014    9       22    12  29    6.34   574.4    4.0      48.670
2014    9       22    12  34    6.34   574.4    4.0      48.663
2014    9       22    12  39    6.34   574.3    4.0      48.657
2014    9       22    12  45    6.34   574.3    4.0      48.652
2014    9       22    12  50    6.34   574.2    4.0      48.648
2014    9       22    12  55    6.34   574.2    4.0      48.645
2014    9       22    13   1    6.34   574.1    4.0      48.642
2014    9       22    13   6    6.34   574.1    4.0      48.639
2014    9       22    13  11    6.34   574.0    4.0      48.637
2014    9       22    13  17    6.34   574.0    4.0      48.635
2014    9       22    13  22    6.33   573.9    4.0      48.633
2014    9       22    13  27    6.33   573.9    4.0      48.630
2014    9       22    13  33    6.33   573.8    4.0      48.627
2014    9       22    13  38    6.33   573.8    4.0      48.625
2014    9       22    13  43    6.33   573.7    4.0      48.622
2014    9       22    13  48    6.33   573.7    4.0      48.619
2014    9       22    13  54    6.33   573.6    4.0      48.616
2014    9       22    13  59    6.33   573.6    4.0      48.613
2014    9       22    14   4    6.33   573.5    4.0      48.609
2014    9       22    14  10    6.33   573.5    4.0      48.605
2014    9       22    14  15    6.33   573.4    4.0      48.601
2014    9       22    14  20    6.33   573.4    4.0      48.597
2014    9       22    14  26    6.33   573.3    4.0      48.592
2014    9       22    14  31    6.32   573.3    4.0      48.588
2014    9       22    14  36    6.32   573.2    4.0      48.583
2014    9       22    14  41    6.32   573.2    4.0      48.578
2014    9       22    14  47    6.32   573.1    4.0      48.572
2014    9       22    14  52    6.32   573.0    4.0      48.567
2014    9       22    14  57    6.32   573.0    4.0      48.561
2014    9       22    15   3    6.32   572.9    4.0      48.555
2014    9       22    15   8    6.32   572.9    4.0      48.549
2014    9       22    15  13    6.32   572.8    4.0      48.543
2014    9       22    15  19    6.32   572.8    4.0      48.536
2014    9       22    15  24    6.32   572.7    4.0      48.530
2014    9       22    15  29    6.32   572.7    4.0      48.523
2014    9       22    15  35    6.32   572.6    4.0      48.516
2014    9       22    15  40    6.32   572.6    4.0      48.509
2014    9       22    15  45    6.32   572.5    4.0      48.501
2014    9       22    15  50    6.32   572.5    4.0      48.494
2014    9       22    15  56    6.32   572.5    4.0      48.486
2014    9       22    16   1    6.32   572.4    4.0      48.477
2014    9       22    16   6    6.32   572.4    4.0      48.468
2014    9       22    16  12    6.32   572.3    4.0      48.459
2014    9       22    16  17    6.32   572.3    4.0      48.449
2014    9       22    16  22    6.32   572.2    4.0      48.439
2014    9       22    16  28    6.32   572.2    4.0      48.429
2014    9       22    16  33    6.32   572.1    4.0      48.419
2014    9       22    16  38    6.32   572.1    4.0      48.408
2014    9       22    16  44    6.32   572.1    4.0      48.397
2014    9       22    16  49    6.31   572.0    4.0      48.385
2014    9       22    16  54    6.31   572.0    4.0      48.373
2014    9       22    16  59    6.31   571.9    4.0      48.361
2014    9       22    17   5    6.31   571.9    4.0      48.349
2014    9       22    17  10    6.31   571.8    4.0      48.337
2014    9       22    17  15    6.31   571.8    4.0      48.324
2014    9       22    17  21    6.31   571.8    4.0      48.312
2014    9       22    17  26    6.31   571.7    4.0      48.298
2014    9       22    17  31    6.31   571.7    4.0      48.285
2014    9       22    17  37    6.31   571.6    4.0      48.272
2014    9       22    17  42    6.31   571.6    4.0      48.259
2014    9       22    17  47    6.31   571.5    4.0      48.245
2014    9       22    17  53    6.31   571.5    4.0      48.232
2014    9       22    17  58    6.31   571.5    4.0      48.218
2014    9       22    18   3    6.31   571.4    4.0      48.205
2014    9       22    18   8    6.31   571.4    4.0      48.191
2014    9       22    18  14    6.31   571.3    4.0      48.178
2014    9       22    18  19    6.31   571.3    4.0      48.165
2014    9       22    18  24    6.31   571.2    4.0      48.153
2014    9       22    18  30    6.31   571.2    4.0      48.140
2014    9       22    18  35    6.31   571.2    4.0      48.128
2014    9       22    18  40    6.31   571.1    4.0      48.116
2014    9       22    18  46    6.31   571.1    4.0      48.105
2014    9       22    18  51    6.31   571.0    4.0      48.094
2014    9       22    18  56    6.31   571.0    4.0      48.083
2014    9       22    19   2    6.31   571.0    4.0      48.073
2014    9       22    19   7    6.31   570.9    4.0      48.064
2014    9       22    19  12    6.31   570.9    4.0      48.055
2014    9       22    19  18    6.31   570.9    4.0      48.046
2014    9       22    19  23    6.31   570.8    4.0      48.038
2014    9       22    19  28    6.31   570.8    4.0      48.030
2014    9       22    19  33    6.31   570.7    4.0      48.023
2014    9       22    19  39    6.31   570.7    4.0      48.017
2014    9       22    19  44    6.31   570.7    4.0      48.010
2014    9       22    19  49    6.31   570.6    4.0      48.005
2014    9       22    19  55    6.31   570.6    4.0      47.999
2014    9       22    20   0    6.31   570.6    4.0      47.995
2014    9       22    20   5    6.31   570.5    4.0      47.990
2014    9       22    20  11    6.31   570.5    4.0      47.986
2014    9       22    20  16    6.31   570.4    4.0      47.983
2014    9       22    20  21    6.31   570.4    4.0      47.980
2014    9       22    20  27    6.31   570.4    4.0      47.977
2014    9       22    20  32    6.31   570.3    4.0      47.974
2014    9       22    20  37    6.31   570.3    4.0      47.972
2014    9       22    20  42    6.31   570.3    4.0      47.970
2014    9       22    20  48    6.31   570.2    4.0      47.969
2014    9       22    20  53    6.31   570.2    4.0      47.967
2014    9       22    20  58    6.31   570.2    4.0      47.966
2014    9       22    21   4    6.31   570.1    4.0      47.965
2014    9       22    21   9    6.31   570.1    4.0      47.964
2014    9       22    21  14    6.31   570.1    4.0      47.964
2014    9       22    21  20    6.31   570.0    4.0      47.963
2014    9       22    21  25    6.31   570.0    4.0      47.963
2014    9       22    21  30    6.31   569.9    4.0      47.962
2014    9       22    21  35    6.31   569.9    4.0      47.962
2014    9       22    21  41    6.31   569.9    4.0      47.962
2014    9       22    21  46    6.31   569.8    4.0      47.962
2014    9       22    21  51    6.31   569.8    4.0      47.963
2014    9       22    21  57    6.31   569.8    4.0      47.963
2014    9       22    22   2    6.31   569.7    4.0      47.964
2014    9       22    22   7    6.31   569.7    4.0      47.965
2014    9       22    22  13    6.31   569.7    4.0      47.967
2014    9       22    22  18    6.31   569.6    4.0      47.968
2014    9       22    22  23    6.31   569.6    4.0      47.970
2014    9       22    22  29    6.31   569.6    4.0      47.972
2014    9       22    22  34    6.31   569.5    4.0      47.975
2014    9       22    22  39    6.31   569.5    4.0      47.978
2014    9       22    22  44    6.31   569.5    4.0      47.981
2014    9       22    22  50    6.31   569.5    4.0      47.985
2014    9       22    22  55    6.31   569.4    4.0      47.990
2014    9       22    23   0    6.31   569.4    4.0      47.994
2014    9       22    23   6    6.31   569.4    4.0      47.998
2014    9       22    23  11    6.31   569.4    4.0      48.002
2014    9       22    23  16    6.31   569.3    4.0      48.007
2014    9       22    23  22    6.31   569.3    4.0      48.011
2014    9       22    23  27    6.31   569.3    4.0      48.015
2014    9       22    23  32    6.32   569.3    4.0      48.019
2014    9       22    23  38    6.32   569.2    4.0      48.023
2014    9       22    23  43    6.32   569.2    4.0      48.026
2014    9       22    23  48    6.32   569.2    4.0      48.030
2014    9       22    23  53    6.32   569.2    4.0      48.034
2014    9       22    23  59    6.32   569.2    4.0      48.038
2014    9       23     0   4    6.32   569.2    4.0      48.043
2014    9       23     0   9    6.32   569.1    4.0      48.047
2014    9       23     0  15    6.32   569.1    4.0      48.052
2014    9       23     0  20    6.32   569.1    4.0      48.057
2014    9       23     0  25    6.32   569.1    4.0      48.063
2014    9       23     0  31    6.32   569.1    4.0      48.069
2014    9       23     0  36    6.32   569.1    4.0      48.075
2014    9       23     0  41    6.32   569.1    4.0      48.083
2014    9       23     0  47    6.32   569.0    4.0      48.091
2014    9       23     0  52    6.32   569.0    4.0      48.100
2014    9       23     0  57    6.32   569.0    4.0      48.109
2014    9       23     1   2    6.32   569.0    4.0      48.119
2014    9       23     1   8    6.32   569.0    4.0      48.129
2014    9       23     1  13    6.32   569.0    4.0      48.139
2014    9       23     1  18    6.32   569.0    4.0      48.150
2014    9       23     1  24    6.33   569.0    4.0      48.160
2014    9       23     1  29    6.33   569.0    4.0      48.169
2014    9       23     1  34    6.33   569.0    4.0      48.179
2014    9       23     1  40    6.33   569.0    4.0      48.189
2014    9       23     1  45    6.33   568.9    4.0      48.199
2014    9       23     1  50    6.33   568.9    4.0      48.208
2014    9       23     1  56    6.33   568.9    4.0      48.217
2014    9       23     2   1    6.33   568.9    4.0      48.227
2014    9       23     2   6    6.33   568.9    4.0      48.236
2014    9       23     2  12    6.33   568.9    4.0      48.245
2014    9       23     2  17    6.33   568.9    4.0      48.254
2014    9       23     2  22    6.33   568.9    4.0      48.263
2014    9       23     2  27    6.33   568.9    4.0      48.272
2014    9       23     2  33    6.33   568.9    4.0      48.281
2014    9       23     2  38    6.33   568.9    4.0      48.290
2014    9       23     2  43    6.33   568.9    4.1      48.298
2014    9       23     2  49    6.33   568.9    4.1      48.307
2014    9       23     2  54    6.33   568.9    4.1      48.315
2014    9       23     2  59    6.33   568.9    4.1      48.323
2014    9       23     3   5    6.33   568.9    4.1      48.331
2014    9       23     3  10    6.34   568.8    4.1      48.338
2014    9       23     3  15    6.34   568.8    4.1      48.345
2014    9       23     3  21    6.34   568.8    4.1      48.352
2014    9       23     3  26    6.34   568.8    4.1      48.358
2014    9       23     3  31    6.34   568.8    4.1      48.364
2014    9       23     3  36    6.34   568.8    4.1      48.370
2014    9       23     3  42    6.34   568.8    4.1      48.376
2014    9       23     3  47    6.34   568.8    4.1      48.381
2014    9       23     3  52    6.34   568.8    4.1      48.386
2014    9       23     3  58    6.34   568.8    4.1      48.391
2014    9       23     4   3    6.34   568.8    4.1      48.396
2014    9       23     4   8    6.34   568.8    4.1      48.401
2014    9       23     4  14    6.34   568.8    4.1      48.406
2014    9       23     4  19    6.34   568.8    4.1      48.410
2014    9       23     4  24    6.34   568.8    4.1      48.414
2014    9       23     4  29    6.35   568.8    4.1      48.419
2014    9       23     4  35    6.35   568.8    4.1      48.423
2014    9       23     4  40    6.35   568.8    4.1      48.427
2014    9       23     4  45    6.35   568.8    4.1      48.431
2014    9       23     4  51    6.35   568.8    4.1      48.434
2014    9       23     4  56    6.35   568.8    4.1      48.438
2014    9       23     5   1    6.35   568.8    4.1      48.442
2014    9       23     5   7    6.35   568.8    4.1      48.446
2014    9       23     5  12    6.35   568.8    4.1      48.450
2014    9       23     5  17    6.35   568.8    4.1      48.454
2014    9       23     5  23    6.35   568.8    4.1      48.458
2014    9       23     5  28    6.35   568.8    4.1      48.462
2014    9       23     5  33    6.36   568.8    4.1      48.466
2014    9       23     5  38    6.36   568.8    4.1      48.470
2014    9       23     5  44    6.36   568.8    4.1      48.474
2014    9       23     5  49    6.36   568.8    4.1      48.479
2014    9       23     5  54    6.36   568.9    4.1      48.483
2014    9       23     6   0    6.36   568.9    4.1      48.488
2014    9       23     6   5    6.36   568.9    4.1      48.493
2014    9       23     6  10    6.36   568.9    4.1      48.498
2014    9       23     6  16    6.36   568.9    4.1      48.503
2014    9       23     6  21    6.36   568.9    4.1      48.508
2014    9       23     6  26    6.36   568.9    4.1      48.514
2014    9       23     6  32    6.37   568.9    4.1      48.520
2014    9       23     6  37    6.37   568.9    4.1      48.526
2014    9       23     6  42    6.37   568.9    4.1      48.532
2014    9       23     6  47    6.37   569.0    4.1      48.539
2014    9       23     6  53    6.37   569.0    4.1      48.546
2014    9       23     6  58    6.37   569.0    4.1      48.553
2014    9       23     7   3    6.37   569.0    4.1      48.561
2014    9       23     7   9    6.37   569.0    4.1      48.570
2014    9       23     7  14    6.37   569.0    4.1      48.579
2014    9       23     7  19    6.37   569.1    4.1      48.589
2014    9       23     7  25    6.38   569.1    4.1      48.600
2014    9       23     7  30    6.38   569.1    4.1      48.612
2014    9       23     7  35    6.38   569.1    4.1      48.626
2014    9       23     7  40    6.38   569.1    4.1      48.640
2014    9       23     7  46    6.38   569.2    4.1      48.656
2014    9       23     7  51    6.38   569.2    4.1      48.673
2014    9       23     7  56    6.38   569.2    4.1      48.692
2014    9       23     8   2    6.38   569.2    4.1      48.712
2014    9       23     8   7    6.38   569.3    4.1      48.734
2014    9       23     8  12    6.38   569.3    4.1      48.756
2014    9       23     8  18    6.39   569.3    4.1      48.780
2014    9       23     8  23    6.39   569.4    4.1      48.805
2014    9       23     8  28    6.39   569.4    4.1      48.831
2014    9       23     8  33    6.39   569.4    4.1      48.859
2014    9       23     8  39    6.39   569.5    4.1      48.889
2014    9       23     8  44    6.39   569.5    4.1      48.920
2014    9       23     8  49    6.39   569.5    4.1      48.952
2014    9       23     8  55    6.39   569.6    4.1      48.985
2014    9       23     9   0    6.39   569.6    4.1      49.018
2014    9       23     9   5    6.40   569.7    4.1      49.051
2014    9       23     9  11    6.40   569.7    4.1      49.084
2014    9       23     9  16    6.40   569.7    4.1      49.117
2014    9       23     9  21    6.40   569.8    4.1      49.150
2014    9       23     9  26    6.40   569.8    4.1      49.182
2014    9       23     9  32    6.40   569.9    4.1      49.215
2014    9       23     9  37    6.40   569.9    4.1      49.246
2014    9       23     9  42    6.40   570.0    4.1      49.277
2014    9       23     9  48    6.40   570.0    4.1      49.307
2014    9       23     9  53    6.40   570.1    4.1      49.336
2014    9       23     9  58    6.41   570.1    4.1      49.364
2014    9       23    10   4    6.41   570.2    4.1      49.391
2014    9       23    10   9    6.41   570.2    4.1      49.417
2014    9       23    10  14    6.41   570.2    4.1      49.443
2014    9       23    10  19    6.41   570.3    4.1      49.467
2014    9       23    10  25    6.41   570.3    4.1      49.491
2014    9       23    10  30    6.41   570.4    4.1      49.514
2014    9       23    10  35    6.41   570.4    4.1      49.537
2014    9       23    10  41    6.41   570.5    4.1      49.559
2014    9       23    10  46    6.42   570.5    4.1      49.580
2014    9       23    10  51    6.42   570.6    4.1      49.600
2014    9       23    10  57    6.42   570.6    4.1      49.620
2014    9       23    11   2    6.42   570.7    4.1      49.639
2014    9       23    11   7    6.42   570.7    4.1      49.658
2014    9       23    11  13    6.42   570.8    4.1      49.676
2014    9       23    11  18    6.42   570.9    4.1      49.694
2014    9       23    11  23    6.42   570.9    4.1      49.711
2014    9       23    11  28    6.42   571.0    4.1      49.728
2014    9       23    11  34    6.42   571.0    4.1      49.744
2014    9       23    11  39    6.43   571.1    4.1      49.760
2014    9       23    11  44    6.43   571.1    4.1      49.775
2014    9       23    11  50    6.43   571.2    4.1      49.790
2014    9       23    11  55    6.43   571.2    4.1      49.805
2014    9       23    12   0    6.43   571.3    4.1      49.819
2014    9       23    12   6    6.43   571.3    4.1      49.833
2014    9       23    12  11    6.43   571.4    4.1      49.846
2014    9       23    12  16    6.43   571.4    4.1      49.859
2014    9       23    12  22    6.43   571.5    4.1      49.872
2014    9       23    12  27    6.43   571.6    4.1      49.884
2014    9       23    12  32    6.44   571.6    4.1      49.896
2014    9       23    12  38    6.44   571.7    4.1      49.908
2014    9       23    12  43    6.44   571.7    4.1      49.919
2014    9       23    12  48    6.44   571.8    4.1      49.930
2014    9       23    12  53    6.44   571.8    4.1      49.941
2014    9       23    12  59    6.44   571.9    4.1      49.951
2014    9       23    13   4    6.44   572.0    4.1      49.961
2014    9       23    13   9    6.44   572.0    4.1      49.971
2014    9       23    13  15    6.44   572.1    4.1      49.981
2014    9       23    13  20    6.44   572.1    4.1      49.991
2014    9       23    13  25    6.45   572.2    4.1      50.000
2014    9       23    13  31    6.45   572.2    4.1      50.010
2014    9       23    13  36    6.45   572.3    4.1      50.019
2014    9       23    13  41    6.45   572.3    4.1      50.029
2014    9       23    13  47    6.45   572.4    4.1      50.038
2014    9       23    13  52    6.45   572.4    4.1      50.048
2014    9       23    13  57    6.45   572.5    4.1      50.057
2014    9       23    14   2    6.45   572.5    4.1      50.067
2014    9       23    14   8    6.45   572.6    4.1      50.077
2014    9       23    14  13    6.45   572.7    4.1      50.088
2014    9       23    14  18    6.46   572.7    4.1      50.099
2014    9       23    14  24    6.46   572.8    4.1      50.110
2014    9       23    14  29    6.46   572.8    4.1      50.122
2014    9       23    14  34    6.46   572.9    4.1      50.134
2014    9       23    14  40    6.46   572.9    4.1      50.147
2014    9       23    14  45    6.46   573.0    4.1      50.161
2014    9       23    14  50    6.46   573.0    4.1      50.175
2014    9       23    14  56    6.46   573.1    4.1      50.190
2014    9       23    15   1    6.46   573.1    4.1      50.206
2014    9       23    15   6    6.47   573.2    4.1      50.224
2014    9       23    15  12    6.47   573.2    4.1      50.242
2014    9       23    15  17    6.47   573.3    4.1      50.262
2014    9       23    15  22    6.47   573.4    4.1      50.283
2014    9       23    15  27    6.47   573.4    4.1      50.306
2014    9       23    15  33    6.47   573.5    4.1      50.331
2014    9       23    15  38    6.47   573.5    4.1      50.358
2014    9       23    15  43    6.47   573.6    4.1      50.387
2014    9       23    15  49    6.48   573.7    4.1      50.418
2014    9       23    15  54    6.48   573.8    4.1      50.452
2014    9       23    15  59    6.48   573.8    4.1      50.488
2014    9       23    16   5    6.48   573.9    4.1      50.527
2014    9       23    16  10    6.48   574.0    4.1      50.567
2014    9       23    16  15    6.48   574.1    4.1      50.608
2014    9       23    16  21    6.48   574.2    4.1      50.650
2014    9       23    16  26    6.48   574.3    4.1      50.692
2014    9       23    16  31    6.49   574.4    4.1      50.733
2014    9       23    16  36    6.49   574.4    4.1      50.774
2014    9       23    16  42    6.49   574.5    4.1      50.814
2014    9       23    16  47    6.49   574.6    4.1      50.854
2014    9       23    16  52    6.49   574.7    4.1      50.894
2014    9       23    16  58    6.49   574.8    4.1      50.932
2014    9       23    17   3    6.49   574.9    4.1      50.970
2014    9       23    17   8    6.49   575.0    4.1      51.008
2014    9       23    17  14    6.49   575.1    4.1      51.044
2014    9       23    17  19    6.50   575.2    4.1      51.081
2014    9       23    17  24    6.50   575.3    4.1      51.117
2014    9       23    17  30    6.50   575.4    4.1      51.152
2014    9       23    17  35    6.50   575.4    4.1      51.187
2014    9       23    17  40    6.50   575.5    4.1      51.221
2014    9       23    17  46    6.50   575.6    4.1      51.255
2014    9       23    17  51    6.50   575.7    4.1      51.288
2014    9       23    17  56    6.50   575.8    4.1      51.320
2014    9       23    18   1    6.50   575.9    4.1      51.351
2014    9       23    18   7    6.51   576.0    4.1      51.382
2014    9       23    18  12    6.51   576.1    4.1      51.411
2014    9       23    18  17    6.51   576.2    4.1      51.440
2014    9       23    18  23    6.51   576.3    4.1      51.469
2014    9       23    18  28    6.51   576.4    4.1      51.497
2014    9       23    18  33    6.51   576.5    4.1      51.524
2014    9       23    18  39    6.51   576.6    4.1      51.550
2014    9       23    18  44    6.51   576.7    4.1      51.577
2014    9       23    18  49    6.51   576.8    4.1      51.602
2014    9       23    18  55    6.51   576.9    4.1      51.627
2014    9       23    19   0    6.51   577.0    4.1      51.651
2014    9       23    19   5    6.52   577.1    4.1      51.676
2014    9       23    19  10    6.52   577.2    4.1      51.699
2014    9       23    19  16    6.52   577.3    4.1      51.722
2014    9       23    19  21    6.52   577.4    4.1      51.745
2014    9       23    19  26    6.52   577.5    4.1      51.768
2014    9       23    19  32    6.52   577.6    4.1      51.790
2014    9       23    19  37    6.52   577.7    4.1      51.812
2014    9       23    19  42    6.52   577.8    4.1      51.834
2014    9       23    19  48    6.52   577.9    4.1      51.855
2014    9       23    19  53    6.52   578.0    4.1      51.877
2014    9       23    19  58    6.52   578.1    4.1      51.898
2014    9       23    20   4    6.52   578.2    4.1      51.919
2014    9       23    20   9    6.53   578.3    4.1      51.939
2014    9       23    20  14    6.53   578.4    4.1      51.960
2014    9       23    20  19    6.53   578.5    4.1      51.980
2014    9       23    20  25    6.53   578.6    4.1      52.001
2014    9       23    20  30    6.53   578.7    4.1      52.021
2014    9       23    20  35    6.53   578.8    4.1      52.041
2014    9       23    20  41    6.53   578.9    4.1      52.062
2014    9       23    20  46    6.53   579.0    4.1      52.082
2014    9       23    20  51    6.53   579.1    4.1      52.102
2014    9       23    20  57    6.53   579.2    4.1      52.122
2014    9       23    21   2    6.53   579.3    4.1      52.142
2014    9       23    21   7    6.54   579.4    4.1      52.162
2014    9       23    21  13    6.54   579.5    4.1      52.182
2014    9       23    21  18    6.54   579.6    4.1      52.203
2014    9       23    21  23    6.54   579.7    4.1      52.223
2014    9       23    21  29    6.54   579.8    4.1      52.244
2014    9       23    21  34    6.54   579.9    4.1      52.264
2014    9       23    21  39    6.54   580.0    4.1      52.285
2014    9       23    21  44    6.54   580.1    4.1      52.306
2014    9       23    21  50    6.54   580.2    4.1      52.328
2014    9       23    21  55    6.54   580.4    4.1      52.349
2014    9       23    22   0    6.54   580.5    4.1      52.371
2014    9       23    22   6    6.55   580.6    4.1      52.394
2014    9       23    22  11    6.55   580.7    4.1      52.416
2014    9       23    22  16    6.55   580.8    4.1      52.440
2014    9       23    22  22    6.55   580.9    4.1      52.463
2014    9       23    22  27    6.55   581.0    4.1      52.487
2014    9       23    22  32    6.55   581.1    4.1      52.512
2014    9       23    22  38    6.55   581.2    4.1      52.538
2014    9       23    22  43    6.55   581.3    4.1      52.564
2014    9       23    22  48    6.55   581.4    4.1      52.591
2014    9       23    22  53    6.56   581.5    4.1      52.619
2014    9       23    22  59    6.56   581.6    4.1      52.648
2014    9       23    23   4    6.56   581.7    4.1      52.677
2014    9       23    23   9    6.56   581.8    4.1      52.709
2014    9       23    23  15    6.56   582.0    4.1      52.742
2014    9       23    23  20    6.56   582.1    4.1      52.777
2014    9       23    23  25    6.56   582.2    4.1      52.814
2014    9       23    23  31    6.56   582.3    4.1      52.852
2014    9       23    23  36    6.57   582.5    4.1      52.891
2014    9       23    23  41    6.57   582.6    4.1      52.931
2014    9       23    23  47    6.57   582.7    4.1      52.972
2014    9       23    23  52    6.57   582.8    4.1      53.014
2014    9       23    23  57    6.57   583.0    4.1      53.056
2014    9       24     0   3    6.57   583.1    4.1      53.098
2014    9       24     0   8    6.57   583.2    4.1      53.140
2014    9       24     0  13    6.57   583.4    4.1      53.182
2014    9       24     0  18    6.57   583.5    4.1      53.223
2014    9       24     0  24    6.57   583.6    4.1      53.265
2014    9       24     0  29    6.58   583.8    4.1      53.306
2014    9       24     0  34    6.58   583.9    4.1      53.348
2014    9       24     0  40    6.58   584.0    4.1      53.389
2014    9       24     0  45    6.58   584.2    4.1      53.430
2014    9       24     0  50    6.58   584.3    4.1      53.471
2014    9       24     0  56    6.58   584.4    4.1      53.512
2014    9       24     1   1    6.58   584.6    4.1      53.553
2014    9       24     1   6    6.58   584.7    4.1      53.594
2014    9       24     1  12    6.58   584.9    4.1      53.634
2014    9       24     1  17    6.58   585.0    4.1      53.675
2014    9       24     1  22    6.58   585.1    4.1      53.714
2014    9       24     1  27    6.59   585.3    4.1      53.753
2014    9       24     1  33    6.59   585.4    4.1      53.791
2014    9       24     1  38    6.59   585.6    4.1      53.829
2014    9       24     1  43    6.59   585.7    4.1      53.865
2014    9       24     1  49    6.59   585.9    4.1      53.901
2014    9       24     1  54    6.59   586.0    4.1      53.936
2014    9       24     1  59    6.59   586.1    4.1      53.971
2014    9       24     2   5    6.59   586.3    4.1      54.005
2014    9       24     2  10    6.59   586.4    4.1      54.038
2014    9       24     2  15    6.59   586.6    4.1      54.070
2014    9       24     2  21    6.59   586.7    4.0      54.102
2014    9       24     2  26    6.59   586.9    4.0      54.134
2014    9       24     2  31    6.59   587.0    4.0      54.165
2014    9       24     2  36    6.60   587.2    4.0      54.195
2014    9       24     2  42    6.60   587.3    4.0      54.225
2014    9       24     2  47    6.60   587.5    4.0      54.255
2014    9       24     2  52    6.60   587.6    4.0      54.284
2014    9       24     2  58    6.60   587.8    4.0      54.313
2014    9       24     3   3    6.60   587.9    4.0      54.342
2014    9       24     3   8    6.60   588.1    4.0      54.370
2014    9       24     3  14    6.60   588.2    4.0      54.398
2014    9       24     3  19    6.60   588.4    4.0      54.426
2014    9       24     3  24    6.60   588.5    4.0      54.454
2014    9       24     3  30    6.60   588.7    4.0      54.481
2014    9       24     3  35    6.60   588.8    4.0      54.509
2014    9       24     3  40    6.60   589.0    4.0      54.536
2014    9       24     3  46    6.60   589.1    4.0      54.563
2014    9       24     3  51    6.60   589.3    4.0      54.590
2014    9       24     3  56    6.61   589.4    4.0      54.617
2014    9       24     4   1    6.61   589.6    4.0      54.644
2014    9       24     4   7    6.61   589.7    4.0      54.670
2014    9       24     4  12    6.61   589.9    4.0      54.697
2014    9       24     4  17    6.61   590.0    4.0      54.724
2014    9       24     4  23    6.61   590.2    4.0      54.750
2014    9       24     4  28    6.61   590.4    4.0      54.776
2014    9       24     4  33    6.61   590.5    4.0      54.803
2014    9       24     4  39    6.61   590.7    4.0      54.829
2014    9       24     4  44    6.61   590.8    4.0      54.856
2014    9       24     4  49    6.61   591.0    4.0      54.882
2014    9       24     4  55    6.61   591.1    4.0      54.908
2014    9       24     5   0    6.61   591.3    4.0      54.934
2014    9       24     5   5    6.61   591.4    4.0      54.961
2014    9       24     5  10    6.62   591.6    4.0      54.987
2014    9       24     5  16    6.62   591.8    4.0      55.013
2014    9       24     5  21    6.62   591.9    4.0      55.040
2014    9       24     5  26    6.62   592.1    4.0      55.066
2014    9       24     5  32    6.62   592.2    4.0      55.092
2014    9       24     5  37    6.62   592.4    4.0      55.119
2014    9       24     5  42    6.62   592.6    4.0      55.145
2014    9       24     5  48    6.62   592.7    4.0      55.172
2014    9       24     5  53    6.62   592.9    4.0      55.199
2014    9       24     5  58    6.62   593.0    4.0      55.226
2014    9       24     6   4    6.62   593.2    4.0      55.254
2014    9       24     6   9    6.62   593.4    4.0      55.283
2014    9       24     6  14    6.62   593.5    4.0      55.312
2014    9       24     6  20    6.62   593.7    4.0      55.342
2014    9       24     6  25    6.63   593.9    4.0      55.373
2014    9       24     6  30    6.63   594.0    4.0      55.405
2014    9       24     6  35    6.63   594.2    4.0      55.439
2014    9       24     6  41    6.63   594.4    4.0      55.474
2014    9       24     6  46    6.63   594.6    4.0      55.512
2014    9       24     6  51    6.63   594.7    4.0      55.550
2014    9       24     6  57    6.63   594.9    4.0      55.590
2014    9       24     7   2    6.63   595.1    4.0      55.630
2014    9       24     7   7    6.63   595.2    4.0      55.671
2014    9       24     7  13    6.63   595.4    4.0      55.712
2014    9       24     7  18    6.63   595.6    4.0      55.753
2014    9       24     7  23    6.63   595.8    4.0      55.794
2014    9       24     7  29    6.63   595.9    4.0      55.836
2014    9       24     7  34    6.63   596.1    4.0      55.877
2014    9       24     7  39    6.63   596.3    4.0      55.919
2014    9       24     7  44    6.63   596.4    4.0      55.961
2014    9       24     7  50    6.63   596.6    4.0      56.003
2014    9       24     7  55    6.63   596.8    3.9      56.045
2014    9       24     8   0    6.63   596.9    3.9      56.088
2014    9       24     8   6    6.63   597.1    3.9      56.130
2014    9       24     8  11    6.63   597.3    3.9      56.173
2014    9       24     8  16    6.63   597.5    3.9      56.217
2014    9       24     8  22    6.63   597.6    3.9      56.261
2014    9       24     8  27    6.63   597.8    3.9      56.305
2014    9       24     8  32    6.63   598.0    3.9      56.350
2014    9       24     8  38    6.63   598.1    3.9      56.394
2014    9       24     8  43    6.63   598.3    3.9      56.438
2014    9       24     8  48    6.63   598.5    3.9      56.482
2014    9       24     8  54    6.63   598.7    3.9      56.525
2014    9       24     8  59    6.63   598.8    3.9      56.566
2014    9       24     9   4    6.64   599.0    3.9      56.607
2014    9       24     9   9    6.64   599.2    3.9      56.648
2014    9       24     9  15    6.64   599.4    3.9      56.687
2014    9       24     9  20    6.64   599.5    3.9      56.725
2014    9       24     9  25    6.64   599.7    3.9      56.763
2014    9       24     9  31    6.64   599.9    3.9      56.800
2014    9       24     9  36    6.64   600.1    3.9      56.836
2014    9       24     9  41    6.64   600.2    3.9      56.872
2014    9       24     9  47    6.64   600.4    3.9      56.907
2014    9       24     9  52    6.64   600.6    3.9      56.941
2014    9       24     9  57    6.64   600.8    3.9      56.975
2014    9       24    10   3    6.64   600.9    3.9      57.008
2014    9       24    10   8    6.64   601.1    3.9      57.041
2014    9       24    10  13    6.64   601.3    3.9      57.073
2014    9       24    10  18    6.64   601.5    3.9      57.105
2014    9       24    10  24    6.64   601.6    3.9      57.136
2014    9       24    10  29    6.64   601.8    3.9      57.167
2014    9       24    10  34    6.64   602.0    3.9      57.198
2014    9       24    10  40    6.64   602.2    3.9      57.229
2014    9       24    10  45    6.64   602.3    3.9      57.259
2014    9       24    10  50    6.64   602.5    3.9      57.289
2014    9       24    10  56    6.64   602.7    3.9      57.319
2014    9       24    11   1    6.64   602.9    3.9      57.349
2014    9       24    11   6    6.64   603.0    3.9      57.378
2014    9       24    11  12    6.64   603.2    3.9      57.408
2014    9       24    11  17    6.64   603.4    3.8      57.437
2014    9       24    11  22    6.64   603.6    3.8      57.466
2014    9       24    11  27    6.64   603.8    3.8      57.494
2014    9       24    11  33    6.64   603.9    3.8      57.523
2014    9       24    11  38    6.64   604.1    3.8      57.551
2014    9       24    11  43    6.63   604.3    3.8      57.579
2014    9       24    11  49    6.63   604.5    3.8      57.607
2014    9       24    11  54    6.63   604.6    3.8      57.635
2014    9       24    11  59    6.63   604.8    3.8      57.662
2014    9       24    12   5    6.63   605.0    3.8      57.689
2014    9       24    12  10    6.63   605.2    3.8      57.716
2014    9       24    12  15    6.63   605.4    3.8      57.743
2014    9       24    12  21    6.63   605.5    3.8      57.769
2014    9       24    12  26    6.63   605.7    3.8      57.795
2014    9       24    12  31    6.63   605.9    3.8      57.821
2014    9       24    12  37    6.63   606.1    3.8      57.847
2014    9       24    12  42    6.63   606.2    3.8      57.873
2014    9       24    12  47    6.63   606.4    3.8      57.898
2014    9       24    12  52    6.63   606.6    3.8      57.924
2014    9       24    12  58    6.63   606.7    3.8      57.949
2014    9       24    13   3    6.63   606.9    3.8      57.974
2014    9       24    13   8    6.63   607.1    3.8      57.999
2014    9       24    13  14    6.63   607.3    3.8      58.025
2014    9       24    13  19    6.63   607.4    3.8      58.050
2014    9       24    13  24    6.63   607.6    3.8      58.076
2014    9       24    13  30    6.63   607.8    3.8      58.102
2014    9       24    13  35    6.63   608.0    3.8      58.128
2014    9       24    13  40    6.63   608.1    3.8      58.154
2014    9       24    13  46    6.63   608.3    3.8      58.181
2014    9       24    13  51    6.63   608.5    3.8      58.208
2014    9       24    13  56    6.63   608.6    3.8      58.236
2014    9       24    14   1    6.62   608.8    3.8      58.265
2014    9       24    14   7    6.62   609.0    3.8      58.295
2014    9       24    14  12    6.62   609.1    3.8      58.325
2014    9       24    14  17    6.62   609.3    3.8      58.356
2014    9       24    14  23    6.62   609.5    3.8      58.388
2014    9       24    14  28    6.62   609.6    3.8      58.420
2014    9       24    14  33    6.62   609.8    3.8      58.453
2014    9       24    14  39    6.62   610.0    3.8      58.487
2014    9       24    14  44    6.62   610.1    3.8      58.520
2014    9       24    14  49    6.62   610.3    3.8      58.555
2014    9       24    14  55    6.62   610.5    3.8      58.590
2014    9       24    15   0    6.62   610.6    3.7      58.625
2014    9       24    15   5    6.62   610.8    3.7      58.660
2014    9       24    15  11    6.62   611.0    3.7      58.696
2014    9       24    15  16    6.61   611.1    3.7      58.731
2014    9       24    15  21    6.61   611.3    3.7      58.767
2014    9       24    15  26    6.61   611.4    3.7      58.803
2014    9       24    15  32    6.61   611.6    3.7      58.838
2014    9       24    15  37    6.61   611.8    3.7      58.873
2014    9       24    15  42    6.61   611.9    3.7      58.908
2014    9       24    15  48    6.61   612.1    3.7      58.943
2014    9       24    15  53    6.61   612.2    3.7      58.978
2014    9       24    15  58    6.61   612.4    3.7      59.012
2014    9       24    16   4    6.61   612.5    3.7      59.046
2014    9       24    16   9    6.61   612.7    3.7      59.079
2014    9       24    16  14    6.60   612.8    3.7      59.111
2014    9       24    16  20    6.60   613.0    3.7      59.143
2014    9       24    16  25    6.60   613.1    3.7      59.175
2014    9       24    16  30    6.60   613.3    3.7      59.205
2014    9       24    16  35    6.60   613.4    3.7      59.235
2014    9       24    16  41    6.60   613.6    3.7      59.265
2014    9       24    16  46    6.60   613.7    3.7      59.294
2014    9       24    16  51    6.60   613.9    3.7      59.322
2014    9       24    16  57    6.60   614.0    3.7      59.350
2014    9       24    17   2    6.60   614.2    3.7      59.377
2014    9       24    17   7    6.59   614.3    3.7      59.404
2014    9       24    17  13    6.59   614.5    3.7      59.431
2014    9       24    17  18    6.59   614.6    3.7      59.457
2014    9       24    17  23    6.59   614.7    3.7      59.482
2014    9       24    17  29    6.59   614.9    3.7      59.508
2014    9       24    17  34    6.59   615.0    3.7      59.533
2014    9       24    17  39    6.59   615.2    3.7      59.558
2014    9       24    17  44    6.59   615.3    3.7      59.582
2014    9       24    17  50    6.59   615.4    3.7      59.606
2014    9       24    17  55    6.59   615.6    3.7      59.631
2014    9       24    18   0    6.58   615.7    3.7      59.655
2014    9       24    18   6    6.58   615.8    3.7      59.679
2014    9       24    18  11    6.58   616.0    3.6      59.703
2014    9       24    18  16    6.58   616.1    3.6      59.726
2014    9       24    18  22    6.58   616.2    3.6      59.750
2014    9       24    18  27    6.58   616.4    3.6      59.773
2014    9       24    18  32    6.58   616.5    3.6      59.797
2014    9       24    18  38    6.58   616.7    3.6      59.821
2014    9       24    18  43    6.58   616.8    3.6      59.844
2014    9       24    18  48    6.57   616.9    3.6      59.868
2014    9       24    18  53    6.57   617.1    3.6      59.891
2014    9       24    18  59    6.57   617.2    3.6      59.914
2014    9       24    19   4    6.57   617.3    3.6      59.937
2014    9       24    19   9    6.57   617.5    3.6      59.960
2014    9       24    19  15    6.57   617.6    3.6      59.983
2014    9       24    19  20    6.57   617.7    3.6      60.006
2014    9       24    19  25    6.57   617.9    3.6      60.028
2014    9       24    19  31    6.56   618.0    3.6      60.050
2014    9       24    19  36    6.56   618.1    3.6      60.072
2014    9       24    19  41    6.56   618.3    3.6      60.093
2014    9       24    19  47    6.56   618.4    3.6      60.113
2014    9       24    19  52    6.56   618.5    3.6      60.134
2014    9       24    19  57    6.56   618.6    3.6      60.154
2014    9       24    20   3    6.56   618.8    3.6      60.174
2014    9       24    20   8    6.56   618.9    3.6      60.193
2014    9       24    20  13    6.55   619.0    3.6      60.212
2014    9       24    20  18    6.55   619.2    3.6      60.231
2014    9       24    20  24    6.55   619.3    3.6      60.250
2014    9       24    20  29    6.55   619.4    3.6      60.268
2014    9       24    20  34    6.55   619.5    3.6      60.286
2014    9       24    20  40    6.55   619.7    3.6      60.304
2014    9       24    20  45    6.55   619.8    3.6      60.322
2014    9       24    20  50    6.54   619.9    3.6      60.340
2014    9       24    20  56    6.54   620.0    3.6      60.357
2014    9       24    21   1    6.54   620.2    3.6      60.374
2014    9       24    21   6    6.54   620.3    3.6      60.392
2014    9       24    21  12    6.54   620.4    3.6      60.409
2014    9       24    21  17    6.54   620.5    3.6      60.426
2014    9       24    21  22    6.54   620.6    3.6      60.443
2014    9       24    21  27    6.53   620.8    3.6      60.461
2014    9       24    21  33    6.53   620.9    3.6      60.478
2014    9       24    21  38    6.53   621.0    3.6      60.495
2014    9       24    21  43    6.53   621.1    3.6      60.512
2014    9       24    21  49    6.53   621.2    3.6      60.530
2014    9       24    21  54    6.53   621.4    3.6      60.547
2014    9       24    21  59    6.52   621.5    3.6      60.565
2014    9       24    22   5    6.52   621.6    3.6      60.583
2014    9       24    22  10    6.52   621.7    3.6      60.600
2014    9       24    22  15    6.52   621.8    3.5      60.618
2014    9       24    22  21    6.52   621.9    3.5      60.636
2014    9       24    22  26    6.52   622.0    3.5      60.653
2014    9       24    22  31    6.52   622.1    3.5      60.671
2014    9       24    22  37    6.51   622.2    3.5      60.688
2014    9       24    22  42    6.51   622.4    3.5      60.705
2014    9       24    22  47    6.51   622.5    3.5      60.722
2014    9       24    22  52    6.51   622.6    3.5      60.739
2014    9       24    22  58    6.51   622.7    3.5      60.755
2014    9       24    23   3    6.51   622.8    3.5      60.771
2014    9       24    23   8    6.50   622.9    3.5      60.787
2014    9       24    23  14    6.50   623.0    3.5      60.803
2014    9       24    23  19    6.50   623.1    3.5      60.818
2014    9       24    23  24    6.50   623.2    3.5      60.833
2014    9       24    23  30    6.50   623.3    3.5      60.848
2014    9       24    23  35    6.50   623.4    3.5      60.862
2014    9       24    23  40    6.50   623.5    3.5      60.876
2014    9       24    23  46    6.49   623.6    3.5      60.890
2014    9       24    23  51    6.49   623.6    3.5      60.904
2014    9       24    23  56    6.49   623.7    3.5      60.918
2014    9       25     0   1    6.49   623.8    3.5      60.932
2014    9       25     0   7    6.49   623.9    3.5      60.945
2014    9       25     0  12    6.49   624.0    3.5      60.959
2014    9       25     0  17    6.48   624.1    3.5      60.972
2014    9       25     0  23    6.48   624.2    3.5      60.986
2014    9       25     0  28    6.48   624.3    3.5      60.999
2014    9       25     0  33    6.48   624.4    3.5      61.013
2014    9       25     0  39    6.48   624.4    3.5      61.026
2014    9       25     0  44    6.48   624.5    3.5      61.040
2014    9       25     0  49    6.48   624.6    3.5      61.054
2014    9       25     0  55    6.47   624.7    3.5      61.067
2014    9       25     1   0    6.47   624.8    3.5      61.081
2014    9       25     1   5    6.47   624.9    3.5      61.095
2014    9       25     1  10    6.47   624.9    3.5      61.109
2014    9       25     1  16    6.47   625.0    3.5      61.123
2014    9       25     1  21    6.47   625.1    3.5      61.137
2014    9       25     1  26    6.46   625.2    3.5      61.152
2014    9       25     1  32    6.46   625.2    3.5      61.166
2014    9       25     1  37    6.46   625.3    3.5      61.181
2014    9       25     1  42    6.46   625.4    3.5      61.196
2014    9       25     1  48    6.46   625.5    3.5      61.212
2014    9       25     1  53    6.46   625.5    3.5      61.227
2014    9       25     1  58    6.45   625.6    3.5      61.243
2014    9       25     2   4    6.45   625.7    3.5      61.258
2014    9       25     2   9    6.45   625.8    3.5      61.274
2014    9       25     2  14    6.45   625.8    3.5      61.291
2014    9       25     2  19    6.45   625.9    3.5      61.307
2014    9       25     2  25    6.45   626.0    3.5      61.324
2014    9       25     2  30    6.45   626.1    3.5      61.340
2014    9       25     2  35    6.44   626.1    3.5      61.357
2014    9       25     2  41    6.44   626.2    3.5      61.373
2014    9       25     2  46    6.44   626.3    3.5      61.389
2014    9       25     2  51    6.44   626.4    3.5      61.404
2014    9       25     2  57    6.44   626.4    3.5      61.419
2014    9       25     3   2    6.44   626.5    3.4      61.433
2014    9       25     3   7    6.43   626.6    3.4      61.447
2014    9       25     3  13    6.43   626.7    3.4      61.461
2014    9       25     3  18    6.43   626.7    3.4      61.475
2014    9       25     3  23    6.43   626.8    3.4      61.488
2014    9       25     3  29    6.43   626.9    3.4      61.500
2014    9       25     3  34    6.43   626.9    3.4      61.512
2014    9       25     3  39    6.42   627.0    3.4      61.524
2014    9       25     3  44    6.42   627.1    3.4      61.535
2014    9       25     3  50    6.42   627.2    3.4      61.545
2014    9       25     3  55    6.42   627.2    3.4      61.556
2014    9       25     4   0    6.42   627.3    3.4      61.566
2014    9       25     4   6    6.42   627.4    3.4      61.575
2014    9       25     4  11    6.42   627.4    3.4      61.584
2014    9       25     4  16    6.41   627.5    3.4      61.592
2014    9       25     4  22    6.41   627.6    3.4      61.600
2014    9       25     4  27    6.41   627.6    3.4      61.608
2014    9       25     4  32    6.41   627.7    3.4      61.616
2014    9       25     4  38    6.41   627.8    3.4      61.623
2014    9       25     4  43    6.41   627.8    3.4      61.629
2014    9       25     4  48    6.40   627.9    3.4      61.636
2014    9       25     4  53    6.40   628.0    3.4      61.642
2014    9       25     4  59    6.40   628.0    3.4      61.647
2014    9       25     5   4    6.40   628.1    3.4      61.653
2014    9       25     5   9    6.40   628.2    3.4      61.657
2014    9       25     5  15    6.40   628.2    3.4      61.662
2014    9       25     5  20    6.39   628.3    3.4      61.667
2014    9       25     5  25    6.39   628.4    3.4      61.671
2014    9       25     5  31    6.39   628.4    3.4      61.676
2014    9       25     5  36    6.39   628.5    3.4      61.680
2014    9       25     5  41    6.39   628.5    3.4      61.684
2014    9       25     5  47    6.39   628.6    3.4      61.688
2014    9       25     5  52    6.38   628.7    3.4      61.693
2014    9       25     5  57    6.38   628.7    3.4      61.697
2014    9       25     6   3    6.38   628.8    3.4      61.702
2014    9       25     6   8    6.38   628.8    3.4      61.706
2014    9       25     6  13    6.38   628.9    3.4      61.711
2014    9       25     6  18    6.38   628.9    3.4      61.717
2014    9       25     6  24    6.37   629.0    3.4      61.722
2014    9       25     6  29    6.37   629.0    3.4      61.728
2014    9       25     6  34    6.37   629.1    3.4      61.734
2014    9       25     6  40    6.37   629.1    3.4      61.740
2014    9       25     6  45    6.37   629.2    3.4      61.747
2014    9       25     6  50    6.37   629.2    3.4      61.755
2014    9       25     6  56    6.36   629.3    3.4      61.762
2014    9       25     7   1    6.36   629.3    3.4      61.770
2014    9       25     7   6    6.36   629.4    3.4      61.779
2014    9       25     7  12    6.36   629.4    3.4      61.787
2014    9       25     7  17    6.36   629.5    3.4      61.796
2014    9       25     7  22    6.36   629.5    3.4      61.806
2014    9       25     7  27    6.35   629.6    3.4      61.815
2014    9       25     7  33    6.35   629.6    3.4      61.825
2014    9       25     7  38    6.35   629.7    3.4      61.835
2014    9       25     7  43    6.35   629.7    3.4      61.845
2014    9       25     7  49    6.35   629.8    3.4      61.856
2014    9       25     7  54    6.35   629.8    3.4      61.867
2014    9       25     7  59    6.34   629.9    3.4      61.879
2014    9       25     8   5    6.34   629.9    3.4      61.890
2014    9       25     8  10    6.34   629.9    3.4      61.902
2014    9       25     8  15    6.34   630.0    3.4      61.914
2014    9       25     8  21    6.34   630.0    3.4      61.926
2014    9       25     8  26    6.33   630.1    3.4      61.938
2014    9       25     8  31    6.33   630.1    3.4      61.951
2014    9       25     8  36    6.33   630.1    3.4      61.965
2014    9       25     8  42    6.33   630.2    3.4      61.978
2014    9       25     8  47    6.33   630.2    3.4      61.992
2014    9       25     8  52    6.33   630.3    3.4      62.005
2014    9       25     8  58    6.32   630.3    3.4      62.018
2014    9       25     9   3    6.32   630.3    3.4      62.031
2014    9       25     9   8    6.32   630.4    3.4      62.044
2014    9       25     9  14    6.32   630.4    3.4      62.056
2014    9       25     9  19    6.32   630.5    3.4      62.068
2014    9       25     9  24    6.32   630.5    3.4      62.080
2014    9       25     9  30    6.31   630.6    3.4      62.092
2014    9       25     9  35    6.31   630.6    3.4      62.103
2014    9       25     9  40    6.31   630.6    3.3      62.113
2014    9       25     9  45    6.31   630.7    3.3      62.123
2014    9       25     9  51    6.31   630.7    3.3      62.132
2014    9       25     9  56    6.31   630.8    3.3      62.139
2014    9       25    10   1    6.30   630.8    3.3      62.147
2014    9       25    10   7    6.30   630.8    3.3      62.153
2014    9       25    10  12    6.30   630.9    3.3      62.159
2014    9       25    10  17    6.30   630.9    3.3      62.164
2014    9       25    10  23    6.30   630.9    3.3      62.168
2014    9       25    10  28    6.29   631.0    3.3      62.172
2014    9       25    10  33    6.29   631.0    3.3      62.175
2014    9       25    10  39    6.29   631.1    3.3      62.178
2014    9       25    10  44    6.29   631.1    3.3      62.180
2014    9       25    10  49    6.29   631.1    3.3      62.181
2014    9       25    10  54    6.28   631.2    3.3      62.182
2014    9       25    11   0    6.28   631.2    3.3      62.183
2014    9       25    11   5    6.28   631.2    3.3      62.183
2014    9       25    11  10    6.28   631.2    3.3      62.182
2014    9       25    11  16    6.28   631.3    3.3      62.182
2014    9       25    11  21    6.28   631.3    3.3      62.181
2014    9       25    11  26    6.27   631.3    3.3      62.180
2014    9       25    11  32    6.27   631.4    3.3      62.178
2014    9       25    11  37    6.27   631.4    3.3      62.177
2014    9       25    11  42    6.27   631.4    3.3      62.176
2014    9       25    11  48    6.27   631.4    3.3      62.174
2014    9       25    11  53    6.26   631.5    3.3      62.173
2014    9       25    11  58    6.26   631.5    3.3      62.172
2014    9       25    12   4    6.26   631.5    3.3      62.171
2014    9       25    12   9    6.26   631.5    3.3      62.170
2014    9       25    12  14    6.26   631.6    3.3      62.170
2014    9       25    12  19    6.25   631.6    3.3      62.171
2014    9       25    12  25    6.25   631.6    3.3      62.171
2014    9       25    12  30    6.25   631.6    3.3      62.172
2014    9       25    12  35    6.25   631.7    3.3      62.174
2014    9       25    12  41    6.25   631.7    3.3      62.176
2014    9       25    12  46    6.25   631.7    3.3      62.179
2014    9       25    12  51    6.24   631.7    3.3      62.183
2014    9       25    12  57    6.24   631.8    3.3      62.187
2014    9       25    13   2    6.24   631.8    3.3      62.191
2014    9       25    13   7    6.24   631.8    3.3      62.195
2014    9       25    13  13    6.24   631.8    3.3      62.199
2014    9       25    13  18    6.23   631.9    3.3      62.203
2014    9       25    13  23    6.23   631.9    3.3      62.206
2014    9       25    13  28    6.23   631.9    3.3      62.210
2014    9       25    13  34    6.23   631.9    3.3      62.214
2014    9       25    13  39    6.23   631.9    3.3      62.218
2014    9       25    13  44    6.22   632.0    3.3      62.221
2014    9       25    13  50    6.22   632.0    3.3      62.225
2014    9       25    13  55    6.22   632.0    3.3      62.230
2014    9       25    14   0    6.22   632.0    3.3      62.234
2014    9       25    14   6    6.22   632.1    3.3      62.239
2014    9       25    14  11    6.21   632.1    3.3      62.244
2014    9       25    14  16    6.21   632.1    3.3      62.249
2014    9       25    14  22    6.21   632.1    3.3      62.254
2014    9       25    14  27    6.21   632.1    3.3      62.259
2014    9       25    14  32    6.21   632.1    3.3      62.264
2014    9       25    14  37    6.21   632.2    3.3      62.270
2014    9       25    14  43    6.20   632.2    3.3      62.275
2014    9       25    14  48    6.20   632.2    3.3      62.280
2014    9       25    14  53    6.20   632.2    3.3      62.285
2014    9       25    14  59    6.20   632.2    3.3      62.290
2014    9       25    15   4    6.20   632.2    3.3      62.294
2014    9       25    15   9    6.19   632.3    3.3      62.298
2014    9       25    15  15    6.19   632.3    3.3      62.300
2014    9       25    15  20    6.19   632.3    3.3      62.303
2014    9       25    15  25    6.19   632.3    3.3      62.304
2014    9       25    15  31    6.19   632.3    3.3      62.306
2014    9       25    15  36    6.18   632.3    3.3      62.306
2014    9       25    15  41    6.18   632.3    3.3      62.306
2014    9       25    15  46    6.18   632.3    3.3      62.305
2014    9       25    15  52    6.18   632.4    3.3      62.304
2014    9       25    15  57    6.18   632.4    3.3      62.302
2014    9       25    16   2    6.17   632.4    3.3      62.299
2014    9       25    16   8    6.17   632.4    3.3      62.296
2014    9       25    16  13    6.17   632.4    3.3      62.293
2014    9       25    16  18    6.17   632.4    3.3      62.289
2014    9       25    16  24    6.17   632.4    3.3      62.285
2014    9       25    16  29    6.16   632.4    3.2      62.280
2014    9       25    16  34    6.16   632.4    3.2      62.275
2014    9       25    16  40    6.16   632.4    3.2      62.269
2014    9       25    16  45    6.16   632.4    3.2      62.264
2014    9       25    16  50    6.15   632.4    3.2      62.258
2014    9       25    16  56    6.15   632.4    3.2      62.252
2014    9       25    17   1    6.15   632.4    3.2      62.245
2014    9       25    17   6    6.15   632.4    3.2      62.239
2014    9       25    17  11    6.15   632.4    3.2      62.232
2014    9       25    17  17    6.14   632.4    3.2      62.225
2014    9       25    17  22    6.14   632.4    3.2      62.218
2014    9       25    17  27    6.14   632.4    3.2      62.211
2014    9       25    17  33    6.14   632.4    3.2      62.205
2014    9       25    17  38    6.14   632.4    3.2      62.198
2014    9       25    17  43    6.13   632.4    3.2      62.191
2014    9       25    17  49    6.13   632.4    3.2      62.184
2014    9       25    17  54    6.13   632.4    3.2      62.178
2014    9       25    17  59    6.13   632.4    3.2      62.171
2014    9       25    18   5    6.12   632.4    3.2      62.165
2014    9       25    18  10    6.12   632.4    3.2      62.160
2014    9       25    18  15    6.12   632.4    3.2      62.154
2014    9       25    18  20    6.12   632.4    3.2      62.149
2014    9       25    18  26    6.12   632.3    3.2      62.144
2014    9       25    18  31    6.11   632.3    3.2      62.139
2014    9       25    18  36    6.11   632.3    3.2      62.135
2014    9       25    18  42    6.11   632.3    3.2      62.132
2014    9       25    18  47    6.11   632.3    3.2      62.129
2014    9       25    18  52    6.10   632.3    3.2      62.126
2014    9       25    18  58    6.10   632.3    3.2      62.123
2014    9       25    19   3    6.10   632.2    3.2      62.121
2014    9       25    19   8    6.10   632.2    3.2      62.119
2014    9       25    19  14    6.10   632.2    3.2      62.118
2014    9       25    19  19    6.09   632.2    3.2      62.117
2014    9       25    19  24    6.09   632.2    3.2      62.116
2014    9       25    19  30    6.09   632.2    3.2      62.115
2014    9       25    19  35    6.09   632.2    3.2      62.114
2014    9       25    19  40    6.09   632.2    3.2      62.114
2014    9       25    19  45    6.08   632.1    3.2      62.113
2014    9       25    19  51    6.08   632.1    3.2      62.112
2014    9       25    19  56    6.08   632.1    3.2      62.112
2014    9       25    20   1    6.08   632.1    3.2      62.111
2014    9       25    20   7    6.07   632.1    3.2      62.110
2014    9       25    20  12    6.07   632.1    3.2      62.107
2014    9       25    20  17    6.07   632.1    3.2      62.103
2014    9       25    20  23    6.07   632.1    3.2      62.099
2014    9       25    20  28    6.07   632.0    3.2      62.094
2014    9       25    20  33    6.06   632.0    3.2      62.089
2014    9       25    20  39    6.06   632.0    3.2      62.083
2014    9       25    20  44    6.06   632.0    3.2      62.076
2014    9       25    20  49    6.06   632.0    3.2      62.069
2014    9       25    20  54    6.05   632.0    3.2      62.061
2014    9       25    21   0    6.05   632.0    3.2      62.053
2014    9       25    21   5    6.05   631.9    3.2      62.044
2014    9       25    21  10    6.05   631.9    3.2      62.035
2014    9       25    21  16    6.05   631.9    3.2      62.025
2014    9       25    21  21    6.04   631.9    3.2      62.016
2014    9       25    21  26    6.04   631.9    3.2      62.005
2014    9       25    21  32    6.04   631.9    3.2      61.995
2014    9       25    21  37    6.04   631.8    3.2      61.984
2014    9       25    21  42    6.03   631.8    3.2      61.974
2014    9       25    21  48    6.03   631.8    3.2      61.963
2014    9       25    21  53    6.03   631.8    3.2      61.952
2014    9       25    21  58    6.03   631.8    3.2      61.941
2014    9       25    22   3    6.02   631.7    3.2      61.929
2014    9       25    22   9    6.02   631.7    3.2      61.919
2014    9       25    22  14    6.02   631.7    3.2      61.907
2014    9       25    22  19    6.02   631.7    3.2      61.897
2014    9       25    22  25    6.01   631.6    3.2      61.886
2014    9       25    22  30    6.01   631.6    3.2      61.875
2014    9       25    22  35    6.01   631.6    3.2      61.865
2014    9       25    22  41    6.01   631.6    3.2      61.855
2014    9       25    22  46    6.00   631.5    3.2      61.845
2014    9       25    22  51    6.00   631.5    3.2      61.835
2014    9       25    22  57    6.00   631.5    3.2      61.826
2014    9       25    23   2    6.00   631.4    3.2      61.817
2014    9       25    23   7    5.99   631.4    3.2      61.808
2014    9       25    23  12    5.99   631.4    3.2      61.800
2014    9       25    23  18    5.99   631.3    3.2      61.791
2014    9       25    23  23    5.99   631.3    3.2      61.784
2014    9       25    23  28    5.98   631.3    3.2      61.776
2014    9       25    23  34    5.98   631.2    3.2      61.769
2014    9       25    23  39    5.98   631.2    3.2      61.762
2014    9       25    23  44    5.98   631.2    3.2      61.755
2014    9       25    23  50    5.97   631.1    3.2      61.748
2014    9       25    23  55    5.97   631.1    3.2      61.741
2014    9       26     0   0    5.97   631.0    3.2      61.735
2014    9       26     0   6    5.96   631.0    3.2      61.728
2014    9       26     0  11    5.96   630.9    3.2      61.722
2014    9       26     0  16    5.96   630.9    3.2      61.715
2014    9       26     0  21    5.96   630.8    3.2      61.709
2014    9       26     0  27    5.95   630.8    3.2      61.702
2014    9       26     0  32    5.95   630.7    3.2      61.696
2014    9       26     0  37    5.95   630.7    3.2      61.689
2014    9       26     0  43    5.95   630.6    3.2      61.681
2014    9       26     0  48    5.94   630.6    3.2      61.674
2014    9       26     0  53    5.94   630.5    3.2      61.666
2014    9       26     0  59    5.94   630.4    3.2      61.658
2014    9       26     1   4    5.93   630.4    3.1      61.650
2014    9       26     1   9    5.93   630.3    3.1      61.641
2014    9       26     1  15    5.93   630.3    3.1      61.632
2014    9       26     1  20    5.93   630.2    3.1      61.622
2014    9       26     1  25    5.92   630.1    3.1      61.612
2014    9       26     1  30    5.92   630.1    3.1      61.601
2014    9       26     1  36    5.92   630.0    3.1      61.589
2014    9       26     1  41    5.92   629.9    3.1      61.577
2014    9       26     1  46    5.91   629.9    3.1      61.563
2014    9       26     1  52    5.91   629.8    3.1      61.550
2014    9       26     1  57    5.91   629.7    3.1      61.536
2014    9       26     2   2    5.91   629.7    3.1      61.521
2014    9       26     2   8    5.90   629.6    3.1      61.506
2014    9       26     2  13    5.90   629.5    3.1      61.490
2014    9       26     2  18    5.90   629.5    3.1      61.474
2014    9       26     2  24    5.90   629.4    3.1      61.457
2014    9       26     2  29    5.89   629.3    3.1      61.440
2014    9       26     2  34    5.89   629.2    3.1      61.422
2014    9       26     2  40    5.89   629.2    3.1      61.404
2014    9       26     2  45    5.89   629.1    3.1      61.386
2014    9       26     2  50    5.88   629.0    3.1      61.368
2014    9       26     2  55    5.88   629.0    3.1      61.349
2014    9       26     3   1    5.88   628.9    3.1      61.330
2014    9       26     3   6    5.88   628.8    3.1      61.311
2014    9       26     3  11    5.87   628.7    3.1      61.292
2014    9       26     3  17    5.87   628.7    3.1      61.272
2014    9       26     3  22    5.87   628.6    3.1      61.253
2014    9       26     3  27    5.87   628.5    3.1      61.233
2014    9       26     3  33    5.86   628.5    3.1      61.214
2014    9       26     3  38    5.86   628.4    3.1      61.194
2014    9       26     3  43    5.86   628.3    3.1      61.175
2014    9       26     3  49    5.86   628.2    3.1      61.155
2014    9       26     3  54    5.85   628.2    3.1      61.136
2014    9       26     3  59    5.85   628.1    3.1      61.116
2014    9       26     4   4    5.85   628.0    3.1      61.097
2014    9       26     4  10    5.85   627.9    3.1      61.078
2014    9       26     4  15    5.84   627.9    3.1      61.059
2014    9       26     4  20    5.84   627.8    3.1      61.040
2014    9       26     4  26    5.84   627.7    3.1      61.021
2014    9       26     4  31    5.83   627.6    3.1      61.003
2014    9       26     4  36    5.83   627.6    3.1      60.985
2014    9       26     4  42    5.83   627.5    3.1      60.967
2014    9       26     4  47    5.83   627.4    3.1      60.950
2014    9       26     4  52    5.82   627.3    3.1      60.933
2014    9       26     4  58    5.82   627.2    3.1      60.916
2014    9       26     5   3    5.82   627.2    3.1      60.900
2014    9       26     5   8    5.81   627.1    3.1      60.884
2014    9       26     5  13    5.81   627.0    3.1      60.868
2014    9       26     5  19    5.81   626.9    3.1      60.854
2014    9       26     5  24    5.81   626.8    3.1      60.839
2014    9       26     5  29    5.80   626.8    3.1      60.825
2014    9       26     5  35    5.80   626.7    3.1      60.812
2014    9       26     5  40    5.80   626.6    3.1      60.799
2014    9       26     5  45    5.80   626.5    3.1      60.786
2014    9       26     5  51    5.79   626.4    3.1      60.774
2014    9       26     5  56    5.79   626.3    3.1      60.762
2014    9       26     6   1    5.79   626.3    3.1      60.750
2014    9       26     6   7    5.78   626.2    3.1      60.739
2014    9       26     6  12    5.78   626.1    3.1      60.727
2014    9       26     6  17    5.78   626.0    3.1      60.716
2014    9       26     6  22    5.78   625.9    3.1      60.704
2014    9       26     6  28    5.77   625.8    3.1      60.693
2014    9       26     6  33    5.77   625.8    3.1      60.681
2014    9       26     6  38    5.77   625.7    3.1      60.668
2014    9       26     6  44    5.76   625.6    3.1      60.656
2014    9       26     6  49    5.76   625.5    3.1      60.642
2014    9       26     6  54    5.76   625.4    3.1      60.628
2014    9       26     7   0    5.76   625.3    3.1      60.613
2014    9       26     7   5    5.75   625.2    3.1      60.597
2014    9       26     7  10    5.75   625.1    3.1      60.581
2014    9       26     7  16    5.75   625.0    3.1      60.564
2014    9       26     7  21    5.74   624.9    3.1      60.545
2014    9       26     7  26    5.74   624.8    3.1      60.526
2014    9       26     7  31    5.74   624.7    3.1      60.507
2014    9       26     7  37    5.74   624.6    3.1      60.486
2014    9       26     7  42    5.73   624.5    3.1      60.464
2014    9       26     7  47    5.73   624.3    3.1      60.442
2014    9       26     7  53    5.73   624.2    3.1      60.419
2014    9       26     7  58    5.72   624.1    3.1      60.395
2014    9       26     8   3    5.72   624.0    3.1      60.370
2014    9       26     8   9    5.72   623.9    3.1      60.345
2014    9       26     8  14    5.72   623.8    3.1      60.319
2014    9       26     8  19    5.71   623.7    3.1      60.292
2014    9       26     8  25    5.71   623.5    3.1      60.265
2014    9       26     8  30    5.71   623.4    3.1      60.237
2014    9       26     8  35    5.70   623.3    3.1      60.209
2014    9       26     8  41    5.70   623.2    3.1      60.180
2014    9       26     8  46    5.70   623.1    3.1      60.151
2014    9       26     8  51    5.70   622.9    3.1      60.121
2014    9       26     8  56    5.69   622.8    3.1      60.091
2014    9       26     9   2    5.69   622.7    3.1      60.061
2014    9       26     9   7    5.69   622.6    3.1      60.030
2014    9       26     9  12    5.69   622.5    3.1      59.998
2014    9       26     9  18    5.68   622.3    3.1      59.967
2014    9       26     9  23    5.68   622.2    3.1      59.935
2014    9       26     9  28    5.68   622.1    3.1      59.903
2014    9       26     9  34    5.67   621.9    3.1      59.870
2014    9       26     9  39    5.67   621.8    3.1      59.837
2014    9       26     9  44    5.67   621.7    3.1      59.804
2014    9       26     9  50    5.67   621.6    3.1      59.771
2014    9       26     9  55    5.66   621.4    3.1      59.737
2014    9       26    10   0    5.66   621.3    3.0      59.704
2014    9       26    10   5    5.66   621.2    3.0      59.669
2014    9       26    10  11    5.66   621.0    3.0      59.635
2014    9       26    10  16    5.65   620.9    3.0      59.601
2014    9       26    10  21    5.65   620.8    3.0      59.567
2014    9       26    10  27    5.65   620.6    3.0      59.532
2014    9       26    10  32    5.64   620.5    3.0      59.498
2014    9       26    10  37    5.64   620.3    3.0      59.464
2014    9       26    10  43    5.64   620.2    3.0      59.429
2014    9       26    10  48    5.64   620.1    3.0      59.395
2014    9       26    10  53    5.63   619.9    3.0      59.361
2014    9       26    10  59    5.63   619.8    3.0      59.328
2014    9       26    11   4    5.63   619.6    3.0      59.295
2014    9       26    11   9    5.62   619.5    3.0      59.262
2014    9       26    11  14    5.62   619.3    3.0      59.230
2014    9       26    11  20    5.62   619.2    3.0      59.199
2014    9       26    11  25    5.62   619.0    3.0      59.168
2014    9       26    11  30    5.61   618.9    3.0      59.138
2014    9       26    11  36    5.61   618.8    3.0      59.108
2014    9       26    11  41    5.61   618.6    3.0      59.079
2014    9       26    11  46    5.61   618.5    3.0      59.051
2014    9       26    11  52    5.60   618.3    3.0      59.023
2014    9       26    11  57    5.60   618.2    3.0      58.996
2014    9       26    12   2    5.60   618.0    3.0      58.970
2014    9       26    12   8    5.60   617.9    3.0      58.944
2014    9       26    12  13    5.59   617.7    3.0      58.919
2014    9       26    12  18    5.59   617.6    3.0      58.895
2014    9       26    12  23    5.59   617.5    3.0      58.871
2014    9       26    12  29    5.58   617.3    3.0      58.847
2014    9       26    12  34    5.58   617.2    3.0      58.824
2014    9       26    12  39    5.58   617.0    3.0      58.802
2014    9       26    12  45    5.58   616.9    3.0      58.779
2014    9       26    12  50    5.57   616.7    3.0      58.757
2014    9       26    12  55    5.57   616.6    3.0      58.736
2014    9       26    13   1    5.57   616.4    3.0      58.714
2014    9       26    13   6    5.57   616.3    3.0      58.692
2014    9       26    13  11    5.56   616.1    3.0      58.671
2014    9       26    13  17    5.56   616.0    3.0      58.649
2014    9       26    13  22    5.56   615.9    3.0      58.627
2014    9       26    13  27    5.56   615.7    3.0      58.605
2014    9       26    13  32    5.55   615.6    3.0      58.583
2014    9       26    13  38    5.55   615.4    3.0      58.560
2014    9       26    13  43    5.55   615.3    3.0      58.537
2014    9       26    13  48    5.55   615.1    3.0      58.514
2014    9       26    13  54    5.54   614.9    3.0      58.490
2014    9       26    13  59    5.54   614.8    3.0      58.466
2014    9       26    14   4    5.54   614.6    3.0      58.442
2014    9       26    14  10    5.53   614.5    3.0      58.417
2014    9       26    14  15    5.53   614.3    3.0      58.392
2014    9       26    14  20    5.53   614.2    3.0      58.366
2014    9       26    14  26    5.53   614.0    3.0      58.340
2014    9       26    14  31    5.52   613.9    3.0      58.314
2014    9       26    14  36    5.52   613.7    3.0      58.288
2014    9       26    14  41    5.52   613.5    3.0      58.261
2014    9       26    14  47    5.52   613.4    3.0      58.233
2014    9       26    14  52    5.51   613.2    3.0      58.205
2014    9       26    14  57    5.51   613.1    3.0      58.178
2014    9       26    15   3    5.51   612.9    3.0      58.149
2014    9       26    15   8    5.51   612.7    3.0      58.121
2014    9       26    15  13    5.50   612.6    3.0      58.092
2014    9       26    15  19    5.50   612.4    3.0      58.063
2014    9       26    15  24    5.50   612.2    3.0      58.034
2014    9       26    15  29    5.49   612.1    3.0      58.005
2014    9       26    15  35    5.49   611.9    3.0      57.976
2014    9       26    15  40    5.49   611.7    3.0      57.947
2014    9       26    15  45    5.49   611.6    3.0      57.918
2014    9       26    15  51    5.48   611.4    3.0      57.888
2014    9       26    15  56    5.48   611.2    3.0      57.859
2014    9       26    16   1    5.48   611.1    3.0      57.830
2014    9       26    16   6    5.48   610.9    3.0      57.801
2014    9       26    16  12    5.47   610.7    3.0      57.772
2014    9       26    16  17    5.47   610.5    3.0      57.743
2014    9       26    16  22    5.47   610.4    3.0      57.714
2014    9       26    16  28    5.47   610.2    3.0      57.685
2014    9       26    16  33    5.46   610.0    3.0      57.656
2014    9       26    16  38    5.46   609.8    3.0      57.628
2014    9       26    16  44    5.46   609.7    3.0      57.599
2014    9       26    16  49    5.45   609.5    3.0      57.571
2014    9       26    16  54    5.45   609.3    3.0      57.543
2014    9       26    17   0    5.45   609.1    3.0      57.515
2014    9       26    17   5    5.45   609.0    3.0      57.487
2014    9       26    17  10    5.44   608.8    3.0      57.459
2014    9       26    17  15    5.44   608.6    3.0      57.431
2014    9       26    17  21    5.44   608.4    3.0      57.403
2014    9       26    17  26    5.44   608.3    3.0      57.375
2014    9       26    17  31    5.43   608.1    3.0      57.347
2014    9       26    17  37    5.43   607.9    3.0      57.319
2014    9       26    17  42    5.43   607.7    3.0      57.291
2014    9       26    17  47    5.43   607.6    3.0      57.263
2014    9       26    17  53    5.42   607.4    3.0      57.235
2014    9       26    17  58    5.42   607.2    3.0      57.207
2014    9       26    18   3    5.42   607.0    3.0      57.179
2014    9       26    18   9    5.42   606.8    3.0      57.151
2014    9       26    18  14    5.41   606.7    3.0      57.123
2014    9       26    18  19    5.41   606.5    3.0      57.094
2014    9       26    18  24    5.41   606.3    3.0      57.065
2014    9       26    18  30    5.41   606.1    3.0      57.036
2014    9       26    18  35    5.40   606.0    3.0      57.007
2014    9       26    18  40    5.40   605.8    3.0      56.977
2014    9       26    18  46    5.40   605.6    3.0      56.947
2014    9       26    18  51    5.40   605.4    3.0      56.918
2014    9       26    18  56    5.40   605.2    3.0      56.887
2014    9       26    19   2    5.39   605.1    3.0      56.857
2014    9       26    19   7    5.39   604.9    3.0      56.826
2014    9       26    19  12    5.39   604.7    3.0      56.795
2014    9       26    19  18    5.39   604.5    3.0      56.764
2014    9       26    19  23    5.38   604.4    3.0      56.733
2014    9       26    19  28    5.38   604.2    3.0      56.702
2014    9       26    19  33    5.38   604.0    3.0      56.670
2014    9       26    19  39    5.38   603.8    3.0      56.638
2014    9       26    19  44    5.37   603.7    3.0      56.606
2014    9       26    19  49    5.37   603.5    3.0      56.574
2014    9       26    19  55    5.37   603.3    3.0      56.542
2014    9       26    20   0    5.37   603.1    3.0      56.509
2014    9       26    20   5    5.36   602.9    3.0      56.476
2014    9       26    20  11    5.36   602.8    3.0      56.443
2014    9       26    20  16    5.36   602.6    3.0      56.410
2014    9       26    20  21    5.36   602.4    3.0      56.377
2014    9       26    20  27    5.35   602.2    3.0      56.344
2014    9       26    20  32    5.35   602.1    3.0      56.310
2014    9       26    20  37    5.35   601.9    3.0      56.277
2014    9       26    20  42    5.35   601.7    3.0      56.243
2014    9       26    20  48    5.34   601.5    3.0      56.209
2014    9       26    20  53    5.34   601.3    3.0      56.175
2014    9       26    20  58    5.34   601.2    3.0      56.141
2014    9       26    21   4    5.34   601.0    3.0      56.107
2014    9       26    21   9    5.33   600.8    3.0      56.072
2014    9       26    21  14    5.33   600.6    3.0      56.038
2014    9       26    21  20    5.33   600.4    3.0      56.004
2014    9       26    21  25    5.33   600.3    3.0      55.970
2014    9       26    21  30    5.32   600.1    3.0      55.935
2014    9       26    21  36    5.32   599.9    3.0      55.901
2014    9       26    21  41    5.32   599.7    3.0      55.867
2014    9       26    21  46    5.32   599.5    3.0      55.833
2014    9       26    21  51    5.31   599.3    3.0      55.799
2014    9       26    21  57    5.31   599.2    3.0      55.765
2014    9       26    22   2    5.31   599.0    3.0      55.732
2014    9       26    22   7    5.31   598.8    3.0      55.698
2014    9       26    22  13    5.30   598.6    3.0      55.665
2014    9       26    22  18    5.30   598.4    3.0      55.632
2014    9       26    22  23    5.30   598.2    3.0      55.599
2014    9       26    22  29    5.30   598.0    3.0      55.567
2014    9       26    22  34    5.29   597.8    3.0      55.535
2014    9       26    22  39    5.29   597.6    3.0      55.504
2014    9       26    22  45    5.29   597.5    3.0      55.473
2014    9       26    22  50    5.29   597.3    3.0      55.442
2014    9       26    22  55    5.28   597.1    3.0      55.411
2014    9       26    23   0    5.28   596.9    3.0      55.382
2014    9       26    23   6    5.28   596.7    3.0      55.352
2014    9       26    23  11    5.28   596.5    3.0      55.323
2014    9       26    23  16    5.27   596.3    3.0      55.294
2014    9       26    23  22    5.27   596.1    3.0      55.266
2014    9       26    23  27    5.27   595.9    3.0      55.238
2014    9       26    23  32    5.27   595.7    3.0      55.210
2014    9       26    23  38    5.26   595.5    3.0      55.183
2014    9       26    23  43    5.26   595.3    3.0      55.156
2014    9       26    23  48    5.26   595.2    3.0      55.129
2014    9       26    23  54    5.26   595.0    3.0      55.103
2014    9       26    23  59    5.26   594.8    3.0      55.076
2014    9       27     0   4    5.25   594.6    3.0      55.050
2014    9       27     0  10    5.25   594.4    3.0      55.023
2014    9       27     0  15    5.25   594.2    3.0      54.995
2014    9       27     0  20    5.25   594.0    3.0      54.968
2014    9       27     0  25    5.24   593.8    3.0      54.939
2014    9       27     0  31    5.24   593.6    3.0      54.911
2014    9       27     0  36    5.24   593.4    3.0      54.882
2014    9       27     0  41    5.24   593.2    3.0      54.853
2014    9       27     0  47    5.23   593.0    3.0      54.823
2014    9       27     0  52    5.23   592.9    3.0      54.792
2014    9       27     0  57    5.23   592.7    3.0      54.761
2014    9       27     1   3    5.23   592.5    3.0      54.729
2014    9       27     1   8    5.22   592.3    3.0      54.697
2014    9       27     1  13    5.22   592.1    3.0      54.664
2014    9       27     1  19    5.22   591.9    3.0      54.631
2014    9       27     1  24    5.22   591.7    3.0      54.597
2014    9       27     1  29    5.21   591.5    3.0      54.563
2014    9       27     1  34    5.21   591.3    3.0      54.529
2014    9       27     1  40    5.21   591.1    3.0      54.494
2014    9       27     1  45    5.21   590.9    3.0      54.459
2014    9       27     1  50    5.20   590.7    3.0      54.424
2014    9       27     1  56    5.20   590.4    3.0      54.389
2014    9       27     2   1    5.20   590.2    3.0      54.354
2014    9       27     2   6    5.20   590.0    3.0      54.319
2014    9       27     2  12    5.20   589.8    3.0      54.283
2014    9       27     2  17    5.19   589.6    3.0      54.248
2014    9       27     2  22    5.19   589.4    3.0      54.212
2014    9       27     2  28    5.19   589.2    3.0      54.176
2014    9       27     2  33    5.19   589.0    3.0      54.140
2014    9       27     2  38    5.18   588.8    3.0      54.105
2014    9       27     2  43    5.18   588.6    3.0      54.069
2014    9       27     2  49    5.18   588.4    3.0      54.033
2014    9       27     2  54    5.18   588.2    3.0      53.998
2014    9       27     2  59    5.17   588.0    3.0      53.962
2014    9       27     3   5    5.17   587.8    3.0      53.926
2014    9       27     3  10    5.17   587.5    3.0      53.891
2014    9       27     3  15    5.17   587.3    3.0      53.855
2014    9       27     3  21    5.16   587.1    3.0      53.819
2014    9       27     3  26    5.16   586.9    3.0      53.783
2014    9       27     3  31    5.16   586.7    3.0      53.747
2014    9       27     3  37    5.16   586.5    3.0      53.711
2014    9       27     3  42    5.16   586.3    3.0      53.676
2014    9       27     3  47    5.15   586.1    3.0      53.640
2014    9       27     3  52    5.15   585.9    3.0      53.604
2014    9       27     3  58    5.15   585.7    3.0      53.569
2014    9       27     4   3    5.15   585.5    3.0      53.533
2014    9       27     4   8    5.14   585.2    3.0      53.498
2014    9       27     4  14    5.14   585.0    3.0      53.463
2014    9       27     4  19    5.14   584.8    3.0      53.428
2014    9       27     4  24    5.14   584.6    3.0      53.394
2014    9       27     4  30    5.13   584.4    3.0      53.360
2014    9       27     4  35    5.13   584.2    3.0      53.326
2014    9       27     4  40    5.13   584.0    3.0      53.293
2014    9       27     4  46    5.13   583.8    3.0      53.261
2014    9       27     4  51    5.13   583.6    3.0      53.229
2014    9       27     4  56    5.12   583.4    3.0      53.198
2014    9       27     5   1    5.12   583.2    3.0      53.167
2014    9       27     5   7    5.12   583.0    3.0      53.137
2014    9       27     5  12    5.12   582.8    3.0      53.108
2014    9       27     5  17    5.12   582.6    3.0      53.079
2014    9       27     5  23    5.11   582.4    3.0      53.051
2014    9       27     5  28    5.11   582.2    3.0      53.024
2014    9       27     5  33    5.11   582.0    3.0      52.997
2014    9       27     5  39    5.11   581.8    3.0      52.971
2014    9       27     5  44    5.11   581.6    3.0      52.945
2014    9       27     5  49    5.10   581.4    3.0      52.919
2014    9       27     5  55    5.10   581.2    3.0      52.893
2014    9       27     6   0    5.10   581.0    3.0      52.867
2014    9       27     6   5    5.10   580.9    3.0      52.841
2014    9       27     6  10    5.09   580.7    3.0      52.814
2014    9       27     6  16    5.09   580.5    3.0      52.786
2014    9       27     6  21    5.09   580.3    3.0      52.759
2014    9       27     6  26    5.09   580.1    3.0      52.730
2014    9       27     6  32    5.08   579.9    3.0      52.702
2014    9       27     6  37    5.08   579.7    3.0      52.672
2014    9       27     6  42    5.08   579.5    3.0      52.642
2014    9       27     6  48    5.08   579.2    3.0      52.611
2014    9       27     6  53    5.07   579.0    3.0      52.581
2014    9       27     6  58    5.07   578.8    3.0      52.549
2014    9       27     7   4    5.07   578.6    3.0      52.518
2014    9       27     7   9    5.07   578.4    3.0      52.486
2014    9       27     7  14    5.07   578.2    3.0      52.454
2014    9       27     7  19    5.06   578.0    3.0      52.422
2014    9       27     7  25    5.06   577.8    3.0      52.390
2014    9       27     7  30    5.06   577.5    3.0      52.358
2014    9       27     7  35    5.06   577.3    3.0      52.327
2014    9       27     7  41    5.05   577.1    3.0      52.295
2014    9       27     7  46    5.05   576.9    3.0      52.264
2014    9       27     7  51    5.05   576.7    3.0      52.233
2014    9       27     7  57    5.05   576.5    3.0      52.202
2014    9       27     8   2    5.04   576.2    3.0      52.172
2014    9       27     8   7    5.04   576.0    3.0      52.142
2014    9       27     8  13    5.04   575.8    3.0      52.112
2014    9       27     8  18    5.04   575.6    3.0      52.083
2014    9       27     8  23    5.04   575.4    3.0      52.054
2014    9       27     8  29    5.03   575.2    3.0      52.024
2014    9       27     8  34    5.03   574.9    3.0      51.994
2014    9       27     8  39    5.03   574.7    3.0      51.963
2014    9       27     8  44    5.03   574.5    3.0      51.931
2014    9       27     8  50    5.02   574.3    3.0      51.900
2014    9       27     8  55    5.02   574.1    3.0      51.868
2014    9       27     9   0    5.02   573.9    3.0      51.836
2014    9       27     9   6    5.02   573.7    3.0      51.804
2014    9       27     9  11    5.01   573.4    3.0      51.772
2014    9       27     9  16    5.01   573.2    3.0      51.739
2014    9       27     9  22    5.01   573.0    3.0      51.705
2014    9       27     9  27    5.01   572.8    3.0      51.670
2014    9       27     9  32    5.01   572.6    3.0      51.635
2014    9       27     9  38    5.00   572.4    3.0      51.600
2014    9       27     9  43    5.00   572.2    3.0      51.564
2014    9       27     9  48    5.00   572.0    3.0      51.527
2014    9       27     9  53    5.00   571.7    3.0      51.491
2014    9       27     9  59    4.99   571.5    3.0      51.454
2014    9       27    10   4    4.99   571.3    3.0      51.417
2014    9       27    10   9    4.99   571.1    3.0      51.380
2014    9       27    10  15    4.99   570.9    3.0      51.343
2014    9       27    10  20    4.99   570.7    3.0      51.305
2014    9       27    10  25    4.98   570.5    3.0      51.268
2014    9       27    10  31    4.98   570.3    3.0      51.230
2014    9       27    10  36    4.98   570.0    3.0      51.193
2014    9       27    10  41    4.98   569.8    3.0      51.155
2014    9       27    10  46    4.98   569.6    3.0      51.118
2014    9       27    10  52    4.97   569.4    3.0      51.080
2014    9       27    10  57    4.97   569.2    3.0      51.042
2014    9       27    11   2    4.97   569.0    3.0      51.003
2014    9       27    11   8    4.97   568.8    3.0      50.965
2014    9       27    11  13    4.96   568.5    3.0      50.926
2014    9       27    11  18    4.96   568.3    3.0      50.887
2014    9       27    11  24    4.96   568.1    3.0      50.847
2014    9       27    11  29    4.96   567.9    3.0      50.808
2014    9       27    11  34    4.96   567.7    3.0      50.767
2014    9       27    11  40    4.95   567.5    3.0      50.727
2014    9       27    11  45    4.95   567.2    3.0      50.686
2014    9       27    11  50    4.95   567.0    3.0      50.644
2014    9       27    11  55    4.95   566.8    3.0      50.602
2014    9       27    12   1    4.94   566.6    3.0      50.560
2014    9       27    12   6    4.94   566.3    3.0      50.517
2014    9       27    12  11    4.94   566.1    3.0      50.473
2014    9       27    12  17    4.94   565.9    3.0      50.429
2014    9       27    12  22    4.93   565.6    3.0      50.385
2014    9       27    12  27    4.93   565.4    3.0      50.341
2014    9       27    12  33    4.93   565.2    3.0      50.296
2014    9       27    12  38    4.93   564.9    3.0      50.251
2014    9       27    12  43    4.92   564.7    3.0      50.206
2014    9       27    12  49    4.92   564.4    3.0      50.161
2014    9       27    12  54    4.92   564.2    3.0      50.116
2014    9       27    12  59    4.92   563.9    3.0      50.072
2014    9       27    13   4    4.91   563.7    3.0      50.028
2014    9       27    13  10    4.91   563.4    3.0      49.984
2014    9       27    13  15    4.91   563.2    3.0      49.941
2014    9       27    13  20    4.91   562.9    3.0      49.899
2014    9       27    13  26    4.91   562.7    3.0      49.858
2014    9       27    13  31    4.90   562.4    3.0      49.818
2014    9       27    13  36    4.90   562.2    3.0      49.779
2014    9       27    13  42    4.90   561.9    3.0      49.742
2014    9       27    13  47    4.90   561.7    3.0      49.706
2014    9       27    13  52    4.90   561.5    3.0      49.673
2014    9       27    13  58    4.89   561.2    3.0      49.641
2014    9       27    14   3    4.89   561.0    3.0      49.611
2014    9       27    14   8    4.89   560.7    3.0      49.583
2014    9       27    14  14    4.89   560.5    3.0      49.556
2014    9       27    14  19    4.89   560.3    3.0      49.532
2014    9       27    14  24    4.89   560.0    3.0      49.510
2014    9       27    14  29    4.88   559.8    3.0      49.490
2014    9       27    14  35    4.88   559.6    3.0      49.472
2014    9       27    14  40    4.88   559.4    3.0      49.455
2014    9       27    14  45    4.88   559.1    3.0      49.440
2014    9       27    14  51    4.88   558.9    3.0      49.425
2014    9       27    14  56    4.88   558.7    3.0      49.409
2014    9       27    15   1    4.87   558.5    3.0      49.394
2014    9       27    15   7    4.87   558.3    3.0      49.378
2014    9       27    15  12    4.87   558.1    3.0      49.362
2014    9       27    15  17    4.87   557.9    3.0      49.346
2014    9       27    15  23    4.87   557.6    3.0      49.330
2014    9       27    15  28    4.86   557.4    3.0      49.313
2014    9       27    15  33    4.86   557.2    3.0      49.296
2014    9       27    15  38    4.86   557.0    3.0      49.277
2014    9       27    15  44    4.86   556.8    3.0      49.258
2014    9       27    15  49    4.86   556.6    3.0      49.238
2014    9       27    15  54    4.85   556.4    3.0      49.216
2014    9       27    16   0    4.85   556.2    3.0      49.194
2014    9       27    16   5    4.85   555.9    3.0      49.170
2014    9       27    16  10    4.85   555.7    3.0      49.145
2014    9       27    16  16    4.85   555.5    3.1      49.118
2014    9       27    16  21    4.84   555.3    3.1      49.091
2014    9       27    16  26    4.84   555.0    3.1      49.063
2014    9       27    16  32    4.84   554.8    3.1      49.034
2014    9       27    16  37    4.84   554.6    3.1      49.004
2014    9       27    16  42    4.84   554.3    3.1      48.973
2014    9       27    16  47    4.83   554.1    3.1      48.941
2014    9       27    16  53    4.83   553.9    3.1      48.908
2014    9       27    16  58    4.83   553.6    3.1      48.876
2014    9       27    17   3    4.83   553.4    3.1      48.842
2014    9       27    17   9    4.82   553.1    3.1      48.809
2014    9       27    17  14    4.82   552.9    3.1      48.775
2014    9       27    17  19    4.82   552.6    3.1      48.740
2014    9       27    17  25    4.82   552.4    3.1      48.706
2014    9       27    17  30    4.82   552.1    3.1      48.671
2014    9       27    17  35    4.81   551.9    3.1      48.637
2014    9       27    17  41    4.81   551.7    3.1      48.602
2014    9       27    17  46    4.81   551.4    3.1      48.568
2014    9       27    17  51    4.81   551.2    3.1      48.534
2014    9       27    17  56    4.81   550.9    3.1      48.500
2014    9       27    18   2    4.80   550.7    3.1      48.466
2014    9       27    18   7    4.80   550.4    3.1      48.432
2014    9       27    18  12    4.80   550.2    3.1      48.397
2014    9       27    18  18    4.80   550.0    3.1      48.361
2014    9       27    18  23    4.80   549.7    3.1      48.325
2014    9       27    18  28    4.79   549.5    3.1      48.289
2014    9       27    18  34    4.79   549.2    3.1      48.253
2014    9       27    18  39    4.79   549.0    3.1      48.216
2014    9       27    18  44    4.79   548.7    3.1      48.179
2014    9       27    18  49    4.79   548.5    3.1      48.142
2014    9       27    18  55    4.78   548.3    3.1      48.105
2014    9       27    19   0    4.78   548.0    3.1      48.067
2014    9       27    19   5    4.78   547.8    3.1      48.029
2014    9       27    19  11    4.78   547.5    3.1      47.991
2014    9       27    19  16    4.78   547.3    3.1      47.953
2014    9       27    19  21    4.78   547.0    3.1      47.914
2014    9       27    19  27    4.77   546.8    3.1      47.876
2014    9       27    19  32    4.77   546.6    3.1      47.837
2014    9       27    19  37    4.77   546.3    3.1      47.799
2014    9       27    19  43    4.77   546.1    3.1      47.760
2014    9       27    19  48    4.77   545.8    3.1      47.722
2014    9       27    19  53    4.76   545.6    3.1      47.684
2014    9       27    19  58    4.76   545.4    3.1      47.647
2014    9       27    20   4    4.76   545.1    3.1      47.610
2014    9       27    20   9    4.76   544.9    3.1      47.574
2014    9       27    20  14    4.76   544.6    3.1      47.538
2014    9       27    20  20    4.76   544.4    3.1      47.502
2014    9       27    20  25    4.75   544.2    3.1      47.467
2014    9       27    20  30    4.75   543.9    3.1      47.433
2014    9       27    20  36    4.75   543.7    3.1      47.399
2014    9       27    20  41    4.75   543.4    3.1      47.366
2014    9       27    20  46    4.75   543.2    3.1      47.333
2014    9       27    20  52    4.75   543.0    3.1      47.301
2014    9       27    20  57    4.74   542.7    3.1      47.269
2014    9       27    21   2    4.74   542.5    3.1      47.237
2014    9       27    21   8    4.74   542.3    3.1      47.206
2014    9       27    21  13    4.74   542.0    3.1      47.175
2014    9       27    21  18    4.74   541.8    3.1      47.144
2014    9       27    21  23    4.74   541.6    3.1      47.114
2014    9       27    21  29    4.73   541.3    3.1      47.084
2014    9       27    21  34    4.73   541.1    3.1      47.053
2014    9       27    21  39    4.73   540.9    3.1      47.023
2014    9       27    21  45    4.73   540.6    3.1      46.993
2014    9       27    21  50    4.73   540.4    3.1      46.962
2014    9       27    21  55    4.72   540.1    3.1      46.932
2014    9       27    22   1    4.72   539.9    3.1      46.902
2014    9       27    22   6    4.72   539.6    3.1      46.871
2014    9       27    22  11    4.72   539.4    3.1      46.841
2014    9       27    22  17    4.72   539.1    3.1      46.811
2014    9       27    22  22    4.72   538.9    3.1      46.781
2014    9       27    22  27    4.71   538.6    3.1      46.751
2014    9       27    22  32    4.71   538.4    3.1      46.721
2014    9       27    22  38    4.71   538.1    3.1      46.691
2014    9       27    22  43    4.71   537.9    3.1      46.662
2014    9       27    22  48    4.71   537.6    3.1      46.633
2014    9       27    22  54    4.70   537.4    3.1      46.605
2014    9       27    22  59    4.70   537.1    3.1      46.577
2014    9       27    23   4    4.70   536.8    3.1      46.548
2014    9       27    23  10    4.70   536.6    3.1      46.520
2014    9       27    23  15    4.70   536.3    3.1      46.492
2014    9       27    23  20    4.70   536.1    3.1      46.465
2014    9       27    23  26    4.69   535.8    3.1      46.437
2014    9       27    23  31    4.69   535.6    3.1      46.410
2014    9       27    23  36    4.69   535.3    3.1      46.384
2014    9       27    23  41    4.69   535.1    3.1      46.358
2014    9       27    23  47    4.69   534.8    3.1      46.332
2014    9       27    23  52    4.69   534.6    3.1      46.306
2014    9       27    23  57    4.69   534.3    3.1      46.281
2014    9       28     0   3    4.68   534.1    3.1      46.256
2014    9       28     0   8    4.68   533.9    3.1      46.231
2014    9       28     0  13    4.68   533.6    3.1      46.207
2014    9       28     0  19    4.68   533.4    3.1      46.182
2014    9       28     0  24    4.68   533.1    3.1      46.157
2014    9       28     0  29    4.68   532.9    3.1      46.133
2014    9       28     0  35    4.68   532.7    3.1      46.108
2014    9       28     0  40    4.67   532.4    3.1      46.084
2014    9       28     0  45    4.67   532.2    3.2      46.059
2014    9       28     0  50    4.67   532.0    3.2      46.033
2014    9       28     0  56    4.67   531.7    3.2      46.008
2014    9       28     1   1    4.67   531.5    3.2      45.983
2014    9       28     1   6    4.67   531.2    3.2      45.956
2014    9       28     1  12    4.67   531.0    3.2      45.930
2014    9       28     1  17    4.66   530.8    3.2      45.902
2014    9       28     1  22    4.66   530.5    3.2      45.875
2014    9       28     1  28    4.66   530.3    3.2      45.846
2014    9       28     1  33    4.66   530.0    3.2      45.818
2014    9       28     1  38    4.66   529.8    3.2      45.788
2014    9       28     1  44    4.66   529.5    3.2      45.758
2014    9       28     1  49    4.66   529.3    3.2      45.728
2014    9       28     1  54    4.65   529.1    3.2      45.697
2014    9       28     1  59    4.65   528.8    3.2      45.666
2014    9       28     2   5    4.65   528.6    3.2      45.634
2014    9       28     2  10    4.65   528.3    3.2      45.602
2014    9       28     2  15    4.65   528.1    3.2      45.569
2014    9       28     2  21    4.65   527.8    3.2      45.536
2014    9       28     2  26    4.64   527.6    3.2      45.503
2014    9       28     2  31    4.64   527.4    3.2      45.469
2014    9       28     2  37    4.64   527.1    3.2      45.435
2014    9       28     2  42    4.64   526.9    3.2      45.400
2014    9       28     2  47    4.64   526.6    3.2      45.366
2014    9       28     2  53    4.64   526.4    3.2      45.331
2014    9       28     2  58    4.64   526.1    3.2      45.297
2014    9       28     3   3    4.63   525.9    3.2      45.262
2014    9       28     3   8    4.63   525.6    3.2      45.228
2014    9       28     3  14    4.63   525.4    3.2      45.193
2014    9       28     3  19    4.63   525.1    3.2      45.159
2014    9       28     3  24    4.63   524.9    3.2      45.125
2014    9       28     3  30    4.63   524.7    3.2      45.092
2014    9       28     3  35    4.63   524.4    3.2      45.059
2014    9       28     3  40    4.62   524.2    3.2      45.026
2014    9       28     3  46    4.62   523.9    3.2      44.994
2014    9       28     3  51    4.62   523.7    3.2      44.962
2014    9       28     3  56    4.62   523.4    3.2      44.931
2014    9       28     4   2    4.62   523.2    3.2      44.900
2014    9       28     4   7    4.62   523.0    3.2      44.869
2014    9       28     4  12    4.62   522.7    3.2      44.839
2014    9       28     4  17    4.62   522.5    3.2      44.810
2014    9       28     4  23    4.61   522.3    3.2      44.781
2014    9       28     4  28    4.61   522.0    3.2      44.753
2014    9       28     4  33    4.61   521.8    3.2      44.725
2014    9       28     4  39    4.61   521.5    3.2      44.697
2014    9       28     4  44    4.61   521.3    3.2      44.670
2014    9       28     4  49    4.61   521.1    3.2      44.644
2014    9       28     4  55    4.61   520.8    3.2      44.618
2014    9       28     5   0    4.61   520.6    3.2      44.592
2014    9       28     5   5    4.60   520.4    3.2      44.567
2014    9       28     5  11    4.60   520.1    3.2      44.542
2014    9       28     5  16    4.60   519.9    3.2      44.518
2014    9       28     5  21    4.60   519.7    3.2      44.494
2014    9       28     5  26    4.60   519.4    3.2      44.471
2014    9       28     5  32    4.60   519.2    3.2      44.448
2014    9       28     5  37    4.60   519.0    3.2      44.425
2014    9       28     5  42    4.60   518.7    3.2      44.403
2014    9       28     5  48    4.59   518.5    3.2      44.380
2014    9       28     5  53    4.59   518.2    3.2      44.358
2014    9       28     5  58    4.59   518.0    3.2      44.335
2014    9       28     6   4    4.59   517.8    3.3      44.313
2014    9       28     6   9    4.59   517.6    3.3      44.290
2014    9       28     6  14    4.59   517.3    3.3      44.268
2014    9       28     6  20    4.59   517.1    3.3      44.245
2014    9       28     6  25    4.59   516.9    3.3      44.222
2014    9       28     6  30    4.59   516.6    3.3      44.199
2014    9       28     6  36    4.58   516.4    3.3      44.175
2014    9       28     6  41    4.58   516.2    3.3      44.151
2014    9       28     6  46    4.58   515.9    3.3      44.127
2014    9       28     6  51    4.58   515.7    3.3      44.102
2014    9       28     6  57    4.58   515.5    3.3      44.077
2014    9       28     7   2    4.58   515.2    3.3      44.051
2014    9       28     7   7    4.58   515.0    3.3      44.026
2014    9       28     7  13    4.58   514.8    3.3      43.999
2014    9       28     7  18    4.58   514.5    3.3      43.973
2014    9       28     7  23    4.57   514.3    3.3      43.946
2014    9       28     7  29    4.57   514.1    3.3      43.919
2014    9       28     7  34    4.57   513.8    3.3      43.891
2014    9       28     7  39    4.57   513.6    3.3      43.864
2014    9       28     7  44    4.57   513.4    3.3      43.836
2014    9       28     7  50    4.57   513.1    3.3      43.807
2014    9       28     7  55    4.57   512.9    3.3      43.779
2014    9       28     8   0    4.57   512.7    3.3      43.750
2014    9       28     8   6    4.57   512.4    3.3      43.721
2014    9       28     8  11    4.56   512.2    3.3      43.691
2014    9       28     8  16    4.56   512.0    3.3      43.662
2014    9       28     8  22    4.56   511.7    3.3      43.632
2014    9       28     8  27    4.56   511.5    3.3      43.602
2014    9       28     8  32    4.56   511.3    3.3      43.571
2014    9       28     8  38    4.56   511.0    3.3      43.540
2014    9       28     8  43    4.56   510.8    3.3      43.509
2014    9       28     8  48    4.56   510.6    3.3      43.477
2014    9       28     8  53    4.56   510.3    3.3      43.446
2014    9       28     8  59    4.55   510.1    3.3      43.413
2014    9       28     9   4    4.55   509.9    3.3      43.381
2014    9       28     9   9    4.55   509.6    3.3      43.348
2014    9       28     9  15    4.55   509.4    3.3      43.315
2014    9       28     9  20    4.55   509.2    3.3      43.281
2014    9       28     9  25    4.55   508.9    3.3      43.248
2014    9       28     9  31    4.55   508.7    3.3      43.214
2014    9       28     9  36    4.55   508.5    3.3      43.180
2014    9       28     9  41    4.55   508.2    3.3      43.146
2014    9       28     9  47    4.54   508.0    3.3      43.111
2014    9       28     9  52    4.54   507.8    3.3      43.077
2014    9       28     9  57    4.54   507.5    3.3      43.042
2014    9       28    10   2    4.54   507.3    3.3      43.008
2014    9       28    10   8    4.54   507.0    3.3      42.973
2014    9       28    10  13    4.54   506.8    3.3      42.938
2014    9       28    10  18    4.54   506.6    3.3      42.904
2014    9       28    10  24    4.54   506.3    3.3      42.869
2014    9       28    10  29    4.54   506.1    3.3      42.835
2014    9       28    10  34    4.54   505.9    3.3      42.800
2014    9       28    10  40    4.53   505.6    3.3      42.766
2014    9       28    10  45    4.53   505.4    3.3      42.731
2014    9       28    10  50    4.53   505.2    3.3      42.697
2014    9       28    10  56    4.53   504.9    3.3      42.664
2014    9       28    11   1    4.53   504.7    3.3      42.630
2014    9       28    11   6    4.53   504.4    3.3      42.597
2014    9       28    11  11    4.53   504.2    3.4      42.564
2014    9       28    11  17    4.53   504.0    3.4      42.531
2014    9       28    11  22    4.53   503.7    3.4      42.499
2014    9       28    11  27    4.53   503.5    3.4      42.467
2014    9       28    11  33    4.52   503.3    3.4      42.436
2014    9       28    11  38    4.52   503.0    3.4      42.405
2014    9       28    11  43    4.52   502.8    3.4      42.374
2014    9       28    11  49    4.52   502.6    3.4      42.344
2014    9       28    11  54    4.52   502.3    3.4      42.315
2014    9       28    11  59    4.52   502.1    3.4      42.286
2014    9       28    12   5    4.52   501.9    3.4      42.257
2014    9       28    12  10    4.52   501.7    3.4      42.229
2014    9       28    12  15    4.52   501.4    3.4      42.201
2014    9       28    12  20    4.52   501.2    3.4      42.174
2014    9       28    12  26    4.52   501.0    3.4      42.147
2014    9       28    12  31    4.52   500.8    3.4      42.121
2014    9       28    12  36    4.51   500.5    3.4      42.095
2014    9       28    12  42    4.51   500.3    3.4      42.069
2014    9       28    12  47    4.51   500.1    3.4      42.044
2014    9       28    12  52    4.51   499.8    3.4      42.019
2014    9       28    12  58    4.51   499.6    3.4      41.994
2014    9       28    13   3    4.51   499.4    3.4      41.970
2014    9       28    13   8    4.51   499.2    3.4      41.946
2014    9       28    13  14    4.51   498.9    3.4      41.922
2014    9       28    13  19    4.51   498.7    3.4      41.898
2014    9       28    13  24    4.51   498.5    3.4      41.875
2014    9       28    13  30    4.51   498.3    3.4      41.852
2014    9       28    13  35    4.51   498.0    3.4      41.828
2014    9       28    13  40    4.50   497.8    3.4      41.805
2014    9       28    13  45    4.50   497.6    3.4      41.782
2014    9       28    13  51    4.50   497.4    3.4      41.759
2014    9       28    13  56    4.50   497.1    3.4      41.736
2014    9       28    14   1    4.50   496.9    3.4      41.714
2014    9       28    14   7    4.50   496.7    3.4      41.690
2014    9       28    14  12    4.50   496.5    3.4      41.667
2014    9       28    14  17    4.50   496.2    3.4      41.644
2014    9       28    14  23    4.50   496.0    3.4      41.621
2014    9       28    14  28    4.50   495.8    3.4      41.597
2014    9       28    14  33    4.50   495.6    3.5      41.574
2014    9       28    14  39    4.50   495.4    3.5      41.550
2014    9       28    14  44    4.50   495.1    3.5      41.526
2014    9       28    14  49    4.49   494.9    3.5      41.502
2014    9       28    14  54    4.49   494.7    3.5      41.477
2014    9       28    15   0    4.49   494.5    3.5      41.453
2014    9       28    15   5    4.49   494.2    3.5      41.428
2014    9       28    15  10    4.49   494.0    3.5      41.403
2014    9       28    15  16    4.49   493.8    3.5      41.378
2014    9       28    15  21    4.49   493.6    3.5      41.352
2014    9       28    15  26    4.49   493.4    3.5      41.326
2014    9       28    15  32    4.49   493.1    3.5      41.300
2014    9       28    15  37    4.49   492.9    3.5      41.274
2014    9       28    15  42    4.49   492.7    3.5      41.248
2014    9       28    15  47    4.49   492.5    3.5      41.221
2014    9       28    15  53    4.48   492.2    3.5      41.194
2014    9       28    15  58    4.48   492.0    3.5      41.167
2014    9       28    16   3    4.48   491.8    3.5      41.139
2014    9       28    16   9    4.48   491.6    3.5      41.111
2014    9       28    16  14    4.48   491.4    3.5      41.084
2014    9       28    16  19    4.48   491.2    3.5      41.056
2014    9       28    16  25    4.48   490.9    3.5      41.027
2014    9       28    16  30    4.48   490.7    3.5      40.999
2014    9       28    16  35    4.48   490.5    3.5      40.970
2014    9       28    16  41    4.48   490.3    3.5      40.941
2014    9       28    16  46    4.48   490.1    3.5      40.912
2014    9       28    16  51    4.48   489.9    3.5      40.882
2014    9       28    16  56    4.48   489.6    3.5      40.853
2014    9       28    17   2    4.47   489.4    3.5      40.823
2014    9       28    17   7    4.47   489.2    3.5      40.793
2014    9       28    17  12    4.47   489.0    3.5      40.762
2014    9       28    17  18    4.47   488.8    3.5      40.732
2014    9       28    17  23    4.47   488.6    3.5      40.701
2014    9       28    17  28    4.47   488.4    3.5      40.670
2014    9       28    17  34    4.47   488.1    3.5      40.639
2014    9       28    17  39    4.47   487.9    3.5      40.607
2014    9       28    17  44    4.47   487.7    3.5      40.575
2014    9       28    17  50    4.47   487.5    3.5      40.543
2014    9       28    17  55    4.47   487.3    3.5      40.511
2014    9       28    18   0    4.47   487.1    3.5      40.478
2014    9       28    18   5    4.46   486.9    3.5      40.445
2014    9       28    18  11    4.46   486.7    3.5      40.412
2014    9       28    18  16    4.46   486.4    3.5      40.379
2014    9       28    18  21    4.46   486.2    3.5      40.346
2014    9       28    18  27    4.46   486.0    3.5      40.312
2014    9       28    18  32    4.46   485.8    3.5      40.278
2014    9       28    18  37    4.46   485.6    3.5      40.244
2014    9       28    18  43    4.46   485.4    3.5      40.210
2014    9       28    18  48    4.46   485.1    3.5      40.176
2014    9       28    18  53    4.46   484.9    3.5      40.141
2014    9       28    18  59    4.46   484.7    3.6      40.107
2014    9       28    19   4    4.45   484.5    3.6      40.072
2014    9       28    19   9    4.45   484.3    3.6      40.038
2014    9       28    19  14    4.45   484.0    3.6      40.003
2014    9       28    19  20    4.45   483.8    3.6      39.968
2014    9       28    19  25    4.45   483.6    3.6      39.934
2014    9       28    19  30    4.45   483.4    3.6      39.900
2014    9       28    19  36    4.45   483.2    3.6      39.865
2014    9       28    19  41    4.45   482.9    3.6      39.831
2014    9       28    19  46    4.45   482.7    3.6      39.797
2014    9       28    19  52    4.45   482.5    3.6      39.764
2014    9       28    19  57    4.45   482.3    3.6      39.730
2014    9       28    20   2    4.44   482.1    3.6      39.697
2014    9       28    20   8    4.44   481.8    3.6      39.664
2014    9       28    20  13    4.44   481.6    3.6      39.631
2014    9       28    20  18    4.44   481.4    3.6      39.599
2014    9       28    20  24    4.44   481.2    3.6      39.566
2014    9       28    20  29    4.44   480.9    3.6      39.535
2014    9       28    20  34    4.44   480.7    3.6      39.503
2014    9       28    20  39    4.44   480.5    3.6      39.472
2014    9       28    20  45    4.44   480.3    3.6      39.442
2014    9       28    20  50    4.44   480.1    3.6      39.411
2014    9       28    20  55    4.44   479.8    3.6      39.382
2014    9       28    21   1    4.44   479.6    3.6      39.352
2014    9       28    21   6    4.43   479.4    3.6      39.323
2014    9       28    21  11    4.43   479.2    3.6      39.294
2014    9       28    21  17    4.43   479.0    3.6      39.265
2014    9       28    21  22    4.43   478.7    3.6      39.236
2014    9       28    21  27    4.43   478.5    3.6      39.208
2014    9       28    21  33    4.43   478.3    3.6      39.180
2014    9       28    21  38    4.43   478.1    3.6      39.152
2014    9       28    21  43    4.43   477.9    3.6      39.124
2014    9       28    21  48    4.43   477.7    3.6      39.096
2014    9       28    21  54    4.43   477.4    3.6      39.068
2014    9       28    21  59    4.43   477.2    3.6      39.041
2014    9       28    22   4    4.43   477.0    3.6      39.013
2014    9       28    22  10    4.43   476.8    3.6      38.986
2014    9       28    22  15    4.43   476.6    3.6      38.958
2014    9       28    22  20    4.42   476.3    3.6      38.930
2014    9       28    22  26    4.42   476.1    3.6      38.903
2014    9       28    22  31    4.42   475.9    3.6      38.875
2014    9       28    22  36    4.42   475.7    3.6      38.848
2014    9       28    22  42    4.42   475.5    3.6      38.820
2014    9       28    22  47    4.42   475.2    3.6      38.792
2014    9       28    22  52    4.42   475.0    3.7      38.765
2014    9       28    22  57    4.42   474.8    3.7      38.737
2014    9       28    23   3    4.42   474.6    3.7      38.709
2014    9       28    23   8    4.42   474.4    3.7      38.681
2014    9       28    23  13    4.42   474.1    3.7      38.654
2014    9       28    23  19    4.42   473.9    3.7      38.626
2014    9       28    23  24    4.42   473.7    3.7      38.599
2014    9       28    23  29    4.42   473.5    3.7      38.571
2014    9       28    23  35    4.41   473.3    3.7      38.543
2014    9       28    23  40    4.41   473.0    3.7      38.516
2014    9       28    23  45    4.41   472.8    3.7      38.488
2014    9       28    23  50    4.41   472.6    3.7      38.460
2014    9       28    23  56    4.41   472.4    3.7      38.433
2014    9       29     0   1    4.41   472.2    3.7      38.405
2014    9       29     0   6    4.41   471.9    3.7      38.377
2014    9       29     0  12    4.41   471.7    3.7      38.350
2014    9       29     0  17    4.41   471.5    3.7      38.322
2014    9       29     0  22    4.41   471.3    3.7      38.294
2014    9       29     0  28    4.41   471.1    3.7      38.267
2014    9       29     0  33    4.41   470.9    3.7      38.239
2014    9       29     0  38    4.41   470.7    3.7      38.212
2014    9       29     0  44    4.41   470.4    3.7      38.184
2014    9       29     0  49    4.41   470.2    3.7      38.156
2014    9       29     0  54    4.40   470.0    3.7      38.129
2014    9       29     0  59    4.40   469.8    3.7      38.101
2014    9       29     1   5    4.40   469.6    3.7      38.073
2014    9       29     1  10    4.40   469.4    3.7      38.045
2014    9       29     1  15    4.40   469.2    3.7      38.018
2014    9       29     1  21    4.40   468.9    3.7      37.990
2014    9       29     1  26    4.40   468.7    3.7      37.962
2014    9       29     1  31    4.40   468.5    3.7      37.934
2014    9       29     1  37    4.40   468.3    3.7      37.906
2014    9       29     1  42    4.40   468.1    3.7      37.877
2014    9       29     1  47    4.40   467.9    3.7      37.849
2014    9       29     1  53    4.40   467.7    3.7      37.821
2014    9       29     1  58    4.40   467.5    3.7      37.792
2014    9       29     2   3    4.40   467.3    3.7      37.764
2014    9       29     2   8    4.39   467.1    3.8      37.735
2014    9       29     2  14    4.39   466.9    3.8      37.706
2014    9       29     2  19    4.39   466.6    3.8      37.677
2014    9       29     2  24    4.39   466.4    3.8      37.647
2014    9       29     2  30    4.39   466.2    3.8      37.618
2014    9       29     2  35    4.39   466.0    3.8      37.588
2014    9       29     2  40    4.39   465.8    3.8      37.559
2014    9       29     2  46    4.39   465.6    3.8      37.529
2014    9       29     2  51    4.39   465.4    3.8      37.498
2014    9       29     2  56    4.39   465.2    3.8      37.468
2014    9       29     3   2    4.39   465.0    3.8      37.437
2014    9       29     3   7    4.39   464.8    3.8      37.407
2014    9       29     3  12    4.38   464.6    3.8      37.376
2014    9       29     3  18    4.38   464.4    3.8      37.345
2014    9       29     3  23    4.38   464.1    3.8      37.313
2014    9       29     3  28    4.38   463.9    3.8      37.282
2014    9       29     3  33    4.38   463.7    3.8      37.250
2014    9       29     3  39    4.38   463.5    3.8      37.218
2014    9       29     3  44    4.38   463.3    3.8      37.187
2014    9       29     3  49    4.38   463.1    3.8      37.155
2014    9       29     3  55    4.38   462.9    3.8      37.123
2014    9       29     4   0    4.38   462.7    3.8      37.090
2014    9       29     4   5    4.38   462.5    3.8      37.058
2014    9       29     4  11    4.38   462.2    3.8      37.026
2014    9       29     4  16    4.37   462.0    3.8      36.993
2014    9       29     4  21    4.37   461.8    3.8      36.961
2014    9       29     4  27    4.37   461.6    3.8      36.929
2014    9       29     4  32    4.37   461.4    3.8      36.896
2014    9       29     4  37    4.37   461.2    3.8      36.864
2014    9       29     4  42    4.37   461.0    3.8      36.831
2014    9       29     4  48    4.37   460.8    3.8      36.799
2014    9       29     4  53    4.37   460.5    3.8      36.767
2014    9       29     4  58    4.37   460.3    3.8      36.734
2014    9       29     5   4    4.37   460.1    3.8      36.702
2014    9       29     5   9    4.37   459.9    3.8      36.670
2014    9       29     5  14    4.37   459.7    3.8      36.638
2014    9       29     5  20    4.36   459.5    3.8      36.606
2014    9       29     5  25    4.36   459.2    3.8      36.574
2014    9       29     5  30    4.36   459.0    3.8      36.542
2014    9       29     5  36    4.36   458.8    3.8      36.511
2014    9       29     5  41    4.36   458.6    3.8      36.479
2014    9       29     5  46    4.36   458.4    3.8      36.448
2014    9       29     5  51    4.36   458.2    3.8      36.417
2014    9       29     5  57    4.36   457.9    3.8      36.386
2014    9       29     6   2    4.36   457.7    3.8      36.355
2014    9       29     6   7    4.36   457.5    3.8      36.325
2014    9       29     6  13    4.36   457.3    3.9      36.294
2014    9       29     6  18    4.36   457.1    3.9      36.264
2014    9       29     6  23    4.36   456.9    3.9      36.234
2014    9       29     6  29    4.35   456.6    3.9      36.204
2014    9       29     6  34    4.35   456.4    3.9      36.174
2014    9       29     6  39    4.35   456.2    3.9      36.145
2014    9       29     6  44    4.35   456.0    3.9      36.115
2014    9       29     6  50    4.35   455.8    3.9      36.086
2014    9       29     6  55    4.35   455.6    3.9      36.056
2014    9       29     7   0    4.35   455.3    3.9      36.027
2014    9       29     7   6    4.35   455.1    3.9      35.998
2014    9       29     7  11    4.35   454.9    3.9      35.969
2014    9       29     7  16    4.35   454.7    3.9      35.940
2014    9       29     7  22    4.35   454.5    3.9      35.911
2014    9       29     7  27    4.35   454.3    3.9      35.882
2014    9       29     7  32    4.35   454.1    3.9      35.854
2014    9       29     7  38    4.35   453.8    3.9      35.825
2014    9       29     7  43    4.35   453.6    3.9      35.796
2014    9       29     7  48    4.34   453.4    3.9      35.767
2014    9       29     7  53    4.34   453.2    3.9      35.738
2014    9       29     7  59    4.34   453.0    3.9      35.709
2014    9       29     8   4    4.34   452.8    3.9      35.681
2014    9       29     8   9    4.34   452.6    3.9      35.652
2014    9       29     8  15    4.34   452.3    3.9      35.623
2014    9       29     8  20    4.34   452.1    3.9      35.594
2014    9       29     8  25    4.34   451.9    3.9      35.565
2014    9       29     8  31    4.34   451.7    3.9      35.536
2014    9       29     8  36    4.34   451.5    3.9      35.507
2014    9       29     8  41    4.34   451.3    3.9      35.479
2014    9       29     8  47    4.34   451.1    3.9      35.450
2014    9       29     8  52    4.34   450.9    3.9      35.421
2014    9       29     8  57    4.34   450.6    3.9      35.392
2014    9       29     9   2    4.34   450.4    3.9      35.364
2014    9       29     9   8    4.34   450.2    3.9      35.335
2014    9       29     9  13    4.34   450.0    3.9      35.306
2014    9       29     9  18    4.33   449.8    4.0      35.278
2014    9       29     9  24    4.33   449.6    4.0      35.249
2014    9       29     9  29    4.33   449.4    4.0      35.220
2014    9       29     9  34    4.33   449.2    4.0      35.191
2014    9       29     9  40    4.33   449.0    4.0      35.162
2014    9       29     9  45    4.33   448.7    4.0      35.133
2014    9       29     9  50    4.33   448.5    4.0      35.105
2014    9       29     9  56    4.33   448.3    4.0      35.076
2014    9       29    10   1    4.33   448.1    4.0      35.047
2014    9       29    10   6    4.33   447.9    4.0      35.018
2014    9       29    10  12    4.33   447.7    4.0      34.989
2014    9       29    10  17    4.33   447.5    4.0      34.960
2014    9       29    10  22    4.33   447.3    4.0      34.931
2014    9       29    10  27    4.33   447.1    4.0      34.902
2014    9       29    10  33    4.33   446.9    4.0      34.873
2014    9       29    10  38    4.33   446.7    4.0      34.844
2014    9       29    10  43    4.32   446.4    4.0      34.815
2014    9       29    10  49    4.32   446.2    4.0      34.786
2014    9       29    10  54    4.32   446.0    4.0      34.757
2014    9       29    10  59    4.32   445.8    4.0      34.728
2014    9       29    11   5    4.32   445.6    4.0      34.699
2014    9       29    11  10    4.32   445.4    4.0      34.669
2014    9       29    11  15    4.32   445.2    4.0      34.640
2014    9       29    11  21    4.32   445.0    4.0      34.611
2014    9       29    11  26    4.32   444.8    4.0      34.582
2014    9       29    11  31    4.32   444.6    4.0      34.553
2014    9       29    11  36    4.32   444.3    4.0      34.524
2014    9       29    11  42    4.32   444.1    4.0      34.495
2014    9       29    11  47    4.32   443.9    4.0      34.466
2014    9       29    11  52    4.32   443.7    4.0      34.437
2014    9       29    11  58    4.32   443.5    4.0      34.407
2014    9       29    12   3    4.32   443.3    4.0      34.378
2014    9       29    12   8    4.31   443.1    4.0      34.349
2014    9       29    12  14    4.31   442.9    4.1      34.320
2014    9       29    12  19    4.31   442.7    4.1      34.291
2014    9       29    12  24    4.31   442.4    4.1      34.262
2014    9       29    12  30    4.31   442.2    4.1      34.233
2014    9       29    12  35    4.31   442.0    4.1      34.203
2014    9       29    12  40    4.31   441.8    4.1      34.174
2014    9       29    12  45    4.31   441.6    4.1      34.145
2014    9       29    12  51    4.31   441.4    4.1      34.116
2014    9       29    12  56    4.31   441.2    4.1      34.086
2014    9       29    13   1    4.31   441.0    4.1      34.057
2014    9       29    13   7    4.31   440.8    4.1      34.028
2014    9       29    13  12    4.31   440.5    4.1      33.998
2014    9       29    13  17    4.31   440.3    4.1      33.969
2014    9       29    13  23    4.31   440.1    4.1      33.940
2014    9       29    13  28    4.31   439.9    4.1      33.910
2014    9       29    13  33    4.31   439.7    4.1      33.881
2014    9       29    13  39    4.31   439.5    4.1      33.851
2014    9       29    13  44    4.30   439.3    4.1      33.822
2014    9       29    13  49    4.30   439.1    4.1      33.792
2014    9       29    13  54    4.30   438.8    4.1      33.763
2014    9       29    14   0    4.30   438.6    4.1      33.733
2014    9       29    14   5    4.30   438.4    4.1      33.703
2014    9       29    14  10    4.30   438.2    4.1      33.673
2014    9       29    14  16    4.30   438.0    4.1      33.644
2014    9       29    14  21    4.30   437.8    4.1      33.614
2014    9       29    14  26    4.30   437.6    4.1      33.584
2014    9       29    14  32    4.30   437.4    4.1      33.554
2014    9       29    14  37    4.30   437.1    4.1      33.525
2014    9       29    14  42    4.30   436.9    4.1      33.495
2014    9       29    14  47    4.30   436.7    4.1      33.465
2014    9       29    14  53    4.30   436.5    4.1      33.435
2014    9       29    14  58    4.30   436.3    4.1      33.405
2014    9       29    15   3    4.30   436.1    4.1      33.376
2014    9       29    15   9    4.30   435.9    4.2      33.346
2014    9       29    15  14    4.30   435.6    4.2      33.316
2014    9       29    15  19    4.29   435.4    4.2      33.286
2014    9       29    15  25    4.29   435.2    4.2      33.256
2014    9       29    15  30    4.29   435.0    4.2      33.226
2014    9       29    15  35    4.29   434.8    4.2      33.196
2014    9       29    15  41    4.29   434.6    4.2      33.167
2014    9       29    15  46    4.29   434.4    4.2      33.137
2014    9       29    15  51    4.29   434.2    4.2      33.107
2014    9       29    15  56    4.29   433.9    4.2      33.077
2014    9       29    16   2    4.29   433.7    4.2      33.048
2014    9       29    16   7    4.29   433.5    4.2      33.018
2014    9       29    16  12    4.29   433.3    4.2      32.989
2014    9       29    16  18    4.29   433.1    4.2      32.959
2014    9       29    16  23    4.29   432.9    4.2      32.929
2014    9       29    16  28    4.29   432.7    4.2      32.900
2014    9       29    16  34    4.29   432.5    4.2      32.870
2014    9       29    16  39    4.29   432.2    4.2      32.841
2014    9       29    16  44    4.29   432.0    4.2      32.811
2014    9       29    16  50    4.29   431.8    4.2      32.782
2014    9       29    16  55    4.29   431.6    4.2      32.753
2014    9       29    17   0    4.29   431.4    4.2      32.723
2014    9       29    17   6    4.29   431.2    4.2      32.694
2014    9       29    17  11    4.28   431.0    4.2      32.665
2014    9       29    17  16    4.28   430.8    4.2      32.636
2014    9       29    17  21    4.28   430.6    4.2      32.606
2014    9       29    17  27    4.28   430.3    4.2      32.577
2014    9       29    17  32    4.28   430.1    4.2      32.548
2014    9       29    17  37    4.28   429.9    4.2      32.519
2014    9       29    17  43    4.28   429.7    4.2      32.490
2014    9       29    17  48    4.28   429.5    4.2      32.461
2014    9       29    17  53    4.28   429.3    4.2      32.431
2014    9       29    17  59    4.28   429.1    4.3      32.402
2014    9       29    18   4    4.28   428.9    4.3      32.373
2014    9       29    18   9    4.28   428.7    4.3      32.344
2014    9       29    18  15    4.28   428.4    4.3      32.315
2014    9       29    18  20    4.28   428.2    4.3      32.286
2014    9       29    18  25    4.28   428.0    4.3      32.257
2014    9       29    18  30    4.28   427.8    4.3      32.228
2014    9       29    18  36    4.28   427.6    4.3      32.199
2014    9       29    18  41    4.28   427.4    4.3      32.170
2014    9       29    18  46    4.28   427.2    4.3      32.141
2014    9       29    18  52    4.28   427.0    4.3      32.112
2014    9       29    18  57    4.28   426.8    4.3      32.083
2014    9       29    19   2    4.28   426.6    4.3      32.054
2014    9       29    19   8    4.28   426.3    4.3      32.026
2014    9       29    19  13    4.28   426.1    4.3      31.997
2014    9       29    19  18    4.27   425.9    4.3      31.968
2014    9       29    19  24    4.27   425.7    4.3      31.939
2014    9       29    19  29    4.27   425.5    4.3      31.910
2014    9       29    19  34    4.27   425.3    4.3      31.882
2014    9       29    19  39    4.27   425.1    4.3      31.853
2014    9       29    19  45    4.27   424.9    4.3      31.824
2014    9       29    19  50    4.27   424.7    4.3      31.796
2014    9       29    19  55    4.27   424.5    4.3      31.767
2014    9       29    20   1    4.27   424.2    4.3      31.739
2014    9       29    20   6    4.27   424.0    4.3      31.710
2014    9       29    20  11    4.27   423.8    4.3      31.682
2014    9       29    20  17    4.27   423.6    4.3      31.653
2014    9       29    20  22    4.27   423.4    4.3      31.625
2014    9       29    20  27    4.27   423.2    4.4      31.596
2014    9       29    20  33    4.27   423.0    4.4      31.568
2014    9       29    20  38    4.27   422.8    4.4      31.540
2014    9       29    20  43    4.27   422.6    4.4      31.512
2014    9       29    20  48    4.27   422.4    4.4      31.483
2014    9       29    20  54    4.27   422.2    4.4      31.455
2014    9       29    20  59    4.27   421.9    4.4      31.427
2014    9       29    21   4    4.27   421.7    4.4      31.398
2014    9       29    21  10    4.27   421.5    4.4      31.370
2014    9       29    21  15    4.27   421.3    4.4      31.342
2014    9       29    21  20    4.27   421.1    4.4      31.314
2014    9       29    21  26    4.27   420.9    4.4      31.286
2014    9       29    21  31    4.27   420.7    4.4      31.257
2014    9       29    21  36    4.27   420.5    4.4      31.229
2014    9       29    21  41    4.27   420.3    4.4      31.201
2014    9       29    21  47    4.27   420.1    4.4      31.173
2014    9       29    21  52    4.27   419.9    4.4      31.144
2014    9       29    21  57    4.27   419.6    4.4      31.116
2014    9       29    22   3    4.27   419.4    4.4      31.088
2014    9       29    22   8    4.27   419.2    4.4      31.059
2014    9       29    22  13    4.27   419.0    4.4      31.031
2014    9       29    22  19    4.26   418.8    4.4      31.003
2014    9       29    22  24    4.26   418.6    4.4      30.974
2014    9       29    22  29    4.26   418.4    4.4      30.946
2014    9       29    22  35    4.26   418.2    4.4      30.918
2014    9       29    22  40    4.26   418.0    4.4      30.889
2014    9       29    22  45    4.26   417.8    4.5      30.861
2014    9       29    22  50    4.26   417.5    4.5      30.832
2014    9       29    22  56    4.26   417.3    4.5      30.804
2014    9       29    23   1    4.26   417.1    4.5      30.775
2014    9       29    23   6    4.26   416.9    4.5      30.747
2014    9       29    23  12    4.26   416.7    4.5      30.718
2014    9       29    23  17    4.26   416.5    4.5      30.690
2014    9       29    23  22    4.26   416.3    4.5      30.661
2014    9       29    23  28    4.26   416.1    4.5      30.633
2014    9       29    23  33    4.26   415.9    4.5      30.604
2014    9       29    23  38    4.26   415.7    4.5      30.576
2014    9       29    23  44    4.26   415.4    4.5      30.547
2014    9       29    23  49    4.26   415.2    4.5      30.519
2014    9       29    23  54    4.26   415.0    4.5      30.491
2014    9       30    24   0    4.26   414.8    4.5      30.462
2014    9       30     0   5    4.26   414.6    4.5      30.434
2014    9       30     0  10    4.26   414.4    4.5      30.406
2014    9       30     0  15    4.26   414.2    4.5      30.377
2014    9       30     0  21    4.26   414.0    4.5      30.349
2014    9       30     0  26    4.26   413.8    4.5      30.321
2014    9       30     0  31    4.26   413.5    4.5      30.293
2014    9       30     0  37    4.26   413.3    4.5      30.265
2014    9       30     0  42    4.26   413.1    4.5      30.237
2014    9       30     0  47    4.26   412.9    4.5      30.209
2014    9       30     0  53    4.26   412.7    4.5      30.181
2014    9       30     0  58    4.26   412.5    4.5      30.153
2014    9       30     1   3    4.26   412.3    4.6      30.125
2014    9       30     1   9    4.26   412.1    4.6      30.097
2014    9       30     1  14    4.26   411.9    4.6      30.070
2014    9       30     1  19    4.26   411.6    4.6      30.042
2014    9       30     1  24    4.26   411.4    4.6      30.014
2014    9       30     1  30    4.26   411.2    4.6      29.987
2014    9       30     1  35    4.26   411.0    4.6      29.959
2014    9       30     1  40    4.26   410.8    4.6      29.931
2014    9       30     1  46    4.26   410.6    4.6      29.904
2014    9       30     1  51    4.26   410.4    4.6      29.877
2014    9       30     1  56    4.26   410.2    4.6      29.849
2014    9       30     2   2    4.26   410.0    4.6      29.822
2014    9       30     2   7    4.26   409.8    4.6      29.794
2014    9       30     2  12    4.26   409.6    4.6      29.767
2014    9       30     2  18    4.26   409.3    4.6      29.740
2014    9       30     2  23    4.26   409.1    4.6      29.713
2014    9       30     2  28    4.26   408.9    4.6      29.686
2014    9       30     2  33    4.26   408.7    4.6      29.658
2014    9       30     2  39    4.26   408.5    4.6      29.631
2014    9       30     2  44    4.26   408.3    4.6      29.604
2014    9       30     2  49    4.26   408.1    4.6      29.577
2014    9       30     2  55    4.26   407.9    4.6      29.550
2014    9       30     3   0    4.26   407.7    4.6      29.523
2014    9       30     3   5    4.26   407.5    4.6      29.496
2014    9       30     3  11    4.26   407.3    4.6      29.469
2014    9       30     3  16    4.26   407.1    4.7      29.442
2014    9       30     3  21    4.26   406.8    4.7      29.415
2014    9       30     3  27    4.26   406.6    4.7      29.388
2014    9       30     3  32    4.26   406.4    4.7      29.361
2014    9       30     3  37    4.26   406.2    4.7      29.334
2014    9       30     3  42    4.26   406.0    4.7      29.308
2014    9       30     3  48    4.26   405.8    4.7      29.281
2014    9       30     3  53    4.26   405.6    4.7      29.254
2014    9       30     3  58    4.26   405.4    4.7      29.227
2014    9       30     4   4    4.26   405.2    4.7      29.201
2014    9       30     4   9    4.26   405.0    4.7      29.174
2014    9       30     4  14    4.26   404.8    4.7      29.147
2014    9       30     4  20    4.26   404.6    4.7      29.121
2014    9       30     4  25    4.26   404.3    4.7      29.094
2014    9       30     4  30    4.26   404.1    4.7      29.068
2014    9       30     4  35    4.26   403.9    4.7      29.041
2014    9       30     4  41    4.26   403.7    4.7      29.015
2014    9       30     4  46    4.26   403.5    4.7      28.989
2014    9       30     4  51    4.26   403.3    4.7      28.962
2014    9       30     4  57    4.26   403.1    4.7      28.936
2014    9       30     5   2    4.26   402.9    4.7      28.910
2014    9       30     5   7    4.26   402.7    4.7      28.884
2014    9       30     5  13    4.26   402.5    4.8      28.858
2014    9       30     5  18    4.26   402.3    4.8      28.832
2014    9       30     5  23    4.26   402.1    4.8      28.806
2014    9       30     5  29    4.26   401.9    4.8      28.780
2014    9       30     5  34    4.26   401.6    4.8      28.755
2014    9       30     5  39    4.26   401.4    4.8      28.729
2014    9       30     5  44    4.26   401.2    4.8      28.703
2014    9       30     5  50    4.26   401.0    4.8      28.678
2014    9       30     5  55    4.26   400.8    4.8      28.652
2014    9       30     6   0    4.26   400.6    4.8      28.627
2014    9       30     6   6    4.26   400.4    4.8      28.602
2014    9       30     6  11    4.26   400.2    4.8      28.576
2014    9       30     6  16    4.26   400.0    4.8      28.551
2014    9       30     6  22    4.26   399.8    4.8      28.526
2014    9       30     6  27    4.26   399.6    4.8      28.501
2014    9       30     6  32    4.26   399.4    4.8      28.476
2014    9       30     6  38    4.26   399.2    4.8      28.451
2014    9       30     6  43    4.26   399.0    4.8      28.426
2014    9       30     6  48    4.26   398.7    4.8      28.401
2014    9       30     6  53    4.26   398.5    4.8      28.377
2014    9       30     6  59    4.26   398.3    4.8      28.352
2014    9       30     7   4    4.27   398.1    4.9      28.327
2014    9       30     7   9    4.27   397.9    4.9      28.303
2014    9       30     7  15    4.27   397.7    4.9      28.278
2014    9       30     7  20    4.27   397.5    4.9      28.253
2014    9       30     7  25    4.27   397.3    4.9      28.229
2014    9       30     7  31    4.27   397.1    4.9      28.204
2014    9       30     7  36    4.27   396.9    4.9      28.180
2014    9       30     7  41    4.27   396.7    4.9      28.155
2014    9       30     7  47    4.27   396.5    4.9      28.131
2014    9       30     7  52    4.27   396.3    4.9      28.107
2014    9       30     7  57    4.27   396.1    4.9      28.082
2014    9       30     8   3    4.27   395.8    4.9      28.058
2014    9       30     8   8    4.27   395.6    4.9      28.034
2014    9       30     8  13    4.27   395.4    4.9      28.009
2014    9       30     8  18    4.27   395.2    4.9      27.985
2014    9       30     8  24    4.27   395.0    4.9      27.961
2014    9       30     8  29    4.27   394.8    4.9      27.937
2014    9       30     8  34    4.27   394.6    4.9      27.913
2014    9       30     8  40    4.27   394.4    4.9      27.889
2014    9       30     8  45    4.27   394.2    4.9      27.865
2014    9       30     8  50    4.27   394.0    4.9      27.841
2014    9       30     8  56    4.27   393.8    5.0      27.817
2014    9       30     9   1    4.27   393.6    5.0      27.793
2014    9       30     9   6    4.27   393.4    5.0      27.769
2014    9       30     9  12    4.28   393.1    5.0      27.745
2014    9       30     9  17    4.28   392.9    5.0      27.721
2014    9       30     9  22    4.28   392.7    5.0      27.697
2014    9       30     9  27    4.28   392.5    5.0      27.673
2014    9       30     9  33    4.28   392.3    5.0      27.650
2014    9       30     9  38    4.28   392.1    5.0      27.626
2014    9       30     9  43    4.28   391.9    5.0      27.603
2014    9       30     9  49    4.28   391.7    5.0      27.579
2014    9       30     9  54    4.28   391.5    5.0      27.556
2014    9       30     9  59    4.28   391.3    5.0      27.532
2014    9       30    10   5    4.28   391.1    5.0      27.509
2014    9       30    10  10    4.28   390.9    5.0      27.486
2014    9       30    10  15    4.28   390.7    5.0      27.462
2014    9       30    10  21    4.28   390.5    5.0      27.439
2014    9       30    10  26    4.28   390.3    5.0      27.416
2014    9       30    10  31    4.28   390.0    5.0      27.393
2014    9       30    10  36    4.28   389.8    5.1      27.370
2014    9       30    10  42    4.29   389.6    5.1      27.348
2014    9       30    10  47    4.29   389.4    5.1      27.325
2014    9       30    10  52    4.29   389.2    5.1      27.302
2014    9       30    10  58    4.29   389.0    5.1      27.280
2014    9       30    11   3    4.29   388.8    5.1      27.257
2014    9       30    11   8    4.29   388.6    5.1      27.235
2014    9       30    11  14    4.29   388.4    5.1      27.212
2014    9       30    11  19    4.29   388.2    5.1      27.190
2014    9       30    11  24    4.29   388.0    5.1      27.168
2014    9       30    11  30    4.29   387.8    5.1      27.146
2014    9       30    11  35    4.29   387.6    5.1      27.123
2014    9       30    11  40    4.29   387.4    5.1      27.102
2014    9       30    11  45    4.29   387.2    5.1      27.079
2014    9       30    11  51    4.29   387.0    5.1      27.058
2014    9       30    11  56    4.30   386.8    5.1      27.036
2014    9       30    12   1    4.30   386.5    5.1      27.014
2014    9       30    12   7    4.30   386.3    5.1      26.993
2014    9       30    12  12    4.30   386.1    5.2      26.971
2014    9       30    12  17    4.30   385.9    5.2      26.950
2014    9       30    12  23    4.30   385.7    5.2      26.928
2014    9       30    12  28    4.30   385.5    5.2      26.907
2014    9       30    12  33    4.30   385.3    5.2      26.886
2014    9       30    12  38    4.30   385.1    5.2      26.864
2014    9       30    12  44    4.30   384.9    5.2      26.843
2014    9       30    12  49    4.30   384.7    5.2      26.823
2014    9       30    12  54    4.31   384.5    5.2      26.802
2014    9       30    13   0    4.31   384.3    5.2      26.781
2014    9       30    13   5    4.31   384.1    5.2      26.760
2014    9       30    13  10    4.31   383.9    5.2      26.739
2014    9       30    13  16    4.31   383.7    5.2      26.719
2014    9       30    13  21    4.31   383.5    5.2      26.698
2014    9       30    13  26    4.31   383.3    5.2      26.678
2014    9       30    13  32    4.31   383.1    5.2      26.657
2014    9       30    13  37    4.31   382.9    5.2      26.637
2014    9       30    13  42    4.31   382.7    5.2      26.617
2014    9       30    13  47    4.32   382.5    5.3      26.597
2014    9       30    13  53    4.32   382.3    5.3      26.576
2014    9       30    13  58    4.32   382.1    5.3      26.557
2014    9       30    14   3    4.32   381.9    5.3      26.537
2014    9       30    14   9    4.32   381.6    5.3      26.517
2014    9       30    14  14    4.32   381.4    5.3      26.497
2014    9       30    14  19    4.32   381.2    5.3      26.477
2014    9       30    14  25    4.32   381.0    5.3      26.458
2014    9       30    14  30    4.32   380.8    5.3      26.438
2014    9       30    14  35    4.33   380.6    5.3      26.419
2014    9       30    14  41    4.33   380.4    5.3      26.400
2014    9       30    14  46    4.33   380.2    5.3      26.381
2014    9       30    14  51    4.33   380.0    5.3      26.361
2014    9       30    14  57    4.33   379.8    5.3      26.342
2014    9       30    15   2    4.33   379.6    5.3      26.323
2014    9       30    15   7    4.33   379.4    5.3      26.305
2014    9       30    15  12    4.33   379.2    5.4      26.286
2014    9       30    15  18    4.33   379.0    5.4      26.267
2014    9       30    15  23    4.34   378.8    5.4      26.248
2014    9       30    15  28    4.34   378.6    5.4      26.230
2014    9       30    15  34    4.34   378.4    5.4      26.211
2014    9       30    15  39    4.34   378.2    5.4      26.193
2014    9       30    15  44    4.34   378.0    5.4      26.175
2014    9       30    15  50    4.34   377.8    5.4      26.157
2014    9       30    15  55    4.34   377.6    5.4      26.139
2014    9       30    16   0    4.35   377.4    5.4      26.120
2014    9       30    16   6    4.35   377.2    5.4      26.103
2014    9       30    16  11    4.35   377.0    5.4      26.085
2014    9       30    16  16    4.35   376.8    5.4      26.067
2014    9       30    16  21    4.35   376.6    5.4      26.049
2014    9       30    16  27    4.35   376.4    5.4      26.032
2014    9       30    16  32    4.35   376.2    5.4      26.014
2014    9       30    16  37    4.36   376.0    5.5      25.997
2014    9       30    16  43    4.36   375.8    5.5      25.980
2014    9       30    16  48    4.36   375.6    5.5      25.962
2014    9       30    16  53    4.36   375.4    5.5      25.945
2014    9       30    16  59    4.36   375.2    5.5      25.928
2014    9       30    17   4    4.36   375.0    5.5      25.911
2014    9       30    17   9    4.36   374.8    5.5      25.895
2014    9       30    17  15    4.37   374.6    5.5      25.878
2014    9       30    17  20    4.37   374.4    5.5      25.861
2014    9       30    17  25    4.37   374.2    5.5      25.845
2014    9       30    17  30    4.37   374.0    5.5      25.828
2014    9       30    17  36    4.37   373.8    5.5      25.812
2014    9       30    17  41    4.37   373.6    5.5      25.796
2014    9       30    17  46    4.38   373.4    5.5      25.779
2014    9       30    17  52    4.38   373.2    5.5      25.763
2014    9       30    17  57    4.38   373.0    5.6      25.747
2014    9       30    18   2    4.38   372.8    5.6      25.731
2014    9       30    18   8    4.38   372.6    5.6      25.715
2014    9       30    18  13    4.38   372.4    5.6      25.700
2014    9       30    18  18    4.39   372.2    5.6      25.684
2014    9       30    18  24    4.39   372.0    5.6      25.669
2014    9       30    18  29    4.39   371.8    5.6      25.653
2014    9       30    18  34    4.39   371.6    5.6      25.638
2014    9       30    18  39    4.39   371.4    5.6      25.623
2014    9       30    18  45    4.39   371.2    5.6      25.608
2014    9       30    18  50    4.40   371.0    5.6      25.592
2014    9       30    18  55    4.40   370.9    5.6      25.578
2014    9       30    19   1    4.40   370.7    5.6      25.563
2014    9       30    19   6    4.40   370.5    5.6      25.548
2014    9       30    19  11    4.40   370.3    5.7      25.533
2014    9       30    19  17    4.41   370.1    5.7      25.519
2014    9       30    19  22    4.41   369.9    5.7      25.504
2014    9       30    19  27    4.41   369.7    5.7      25.490
2014    9       30    19  32    4.41   369.5    5.7      25.476
2014    9       30    19  38    4.41   369.3    5.7      25.462
2014    9       30    19  43    4.41   369.1    5.7      25.447
2014    9       30    19  48    4.42   368.9    5.7      25.433
2014    9       30    19  54    4.42   368.7    5.7      25.420
2014    9       30    19  59    4.42   368.5    5.7      25.406
2014    9       30    20   4    4.42   368.3    5.7      25.392
2014    9       30    20  10    4.43   368.1    5.7      25.379
2014    9       30    20  15    4.43   367.9    5.7      25.365
2014    9       30    20  20    4.43   367.7    5.7      25.352
2014    9       30    20  26    4.43   367.5    5.8      25.339
2014    9       30    20  31    4.43   367.4    5.8      25.326
2014    9       30    20  36    4.44   367.2    5.8      25.313
2014    9       30    20  41    4.44   367.0    5.8      25.300
2014    9       30    20  47    4.44   366.8    5.8      25.287
2014    9       30    20  52    4.44   366.6    5.8      25.275
2014    9       30    20  57    4.44   366.4    5.8      25.262
2014    9       30    21   3    4.45   366.2    5.8      25.250
2014    9       30    21   8    4.45   366.0    5.8      25.237
2014    9       30    21  13    4.45   365.8    5.8      25.225
2014    9       30    21  19    4.45   365.6    5.8      25.213
2014    9       30    21  24    4.46   365.4    5.8      25.201
2014    9       30    21  29    4.46   365.2    5.8      25.189
2014    9       30    21  35    4.46   365.1    5.9      25.178
2014    9       30    21  40    4.46   364.9    5.9      25.166
2014    9       30    21  45    4.47   364.7    5.9      25.155
2014    9       30    21  50    4.47   364.5    5.9      25.143
2014    9       30    21  56    4.47   364.3    5.9      25.132
2014    9       30    22   1    4.47   364.1    5.9      25.121
2014    9       30    22   6    4.47   363.9    5.9      25.110
2014    9       30    22  12    4.48   363.7    5.9      25.099
2014    9       30    22  17    4.48   363.5    5.9      25.088
2014    9       30    22  22    4.48   363.4    5.9      25.077
2014    9       30    22  28    4.48   363.2    5.9      25.067
2014    9       30    22  33    4.49   363.0    5.9      25.056
2014    9       30    22  38    4.49   362.8    6.0      25.046
2014    9       30    22  44    4.49   362.6    6.0      25.036
2014    9       30    22  49    4.49   362.4    6.0      25.026
2014    9       30    22  54    4.50   362.2    6.0      25.016
2014    9       30    23   0    4.50   362.0    6.0      25.006
2014    9       30    23   5    4.50   361.9    6.0      24.996
2014    9       30    23  10    4.51   361.7    6.0      24.987
2014    9       30    23  15    4.51   361.5    6.0      24.977
2014    9       30    23  21    4.51   361.3    6.0      24.968
2014    9       30    23  26    4.51   361.1    6.0      24.959
2014    9       30    23  31    4.52   360.9    6.0      24.949
2014    9       30    23  37    4.52   360.8    6.0      24.940
2014    9       30    23  42    4.52   360.6    6.1      24.932
2014    9       30    23  47    4.52   360.4    6.1      24.923
2014    9       30    23  53    4.53   360.2    6.1      24.914
2014    9       30    23  58    4.53   360.0    6.1      24.906
2014   10        1     0   3    4.53   359.8    6.1      24.897
2014   10        1     0   9    4.54   359.7    6.1      24.889
2014   10        1     0  14    4.54   359.5    6.1      24.881
2014   10        1     0  19    4.54   359.3    6.1      24.873
2014   10        1     0  24    4.54   359.1    6.1      24.865
2014   10        1     0  30    4.55   358.9    6.1      24.857
2014   10        1     0  35    4.55   358.8    6.1      24.850
2014   10        1     0  40    4.55   358.6    6.1      24.842
2014   10        1     0  46    4.56   358.4    6.2      24.835
2014   10        1     0  51    4.56   358.2    6.2      24.828
2014   10        1     0  56    4.56   358.0    6.2      24.820
2014   10        1     1   2    4.57   357.9    6.2      24.813
2014   10        1     1   7    4.57   357.7    6.2      24.806
2014   10        1     1  12    4.57   357.5    6.2      24.800
2014   10        1     1  18    4.58   357.3    6.2      24.793
2014   10        1     1  23    4.58   357.1    6.2      24.787
2014   10        1     1  28    4.58   357.0    6.2      24.780
2014   10        1     1  33    4.58   356.8    6.2      24.774
2014   10        1     1  39    4.59   356.6    6.2      24.768
2014   10        1     1  44    4.59   356.4    6.3      24.762
2014   10        1     1  49    4.59   356.3    6.3      24.756
2014   10        1     1  55    4.60   356.1    6.3      24.750
2014   10        1     2   0    4.60   355.9    6.3      24.744
2014   10        1     2   5    4.60   355.7    6.3      24.738
2014   10        1     2  11    4.61   355.6    6.3      24.733
2014   10        1     2  16    4.61   355.4    6.3      24.728
2014   10        1     2  21    4.61   355.2    6.3      24.722
2014   10        1     2  26    4.62   355.0    6.3      24.717
2014   10        1     2  32    4.62   354.9    6.3      24.712
2014   10        1     2  37    4.62   354.7    6.4      24.707
2014   10        1     2  42    4.63   354.5    6.4      24.703
2014   10        1     2  48    4.63   354.3    6.4      24.698
2014   10        1     2  53    4.64   354.2    6.4      24.694
2014   10        1     2  58    4.64   354.0    6.4      24.689
2014   10        1     3   4    4.64   353.8    6.4      24.685
2014   10        1     3   9    4.65   353.7    6.4      24.681
2014   10        1     3  14    4.65   353.5    6.4      24.677
2014   10        1     3  20    4.65   353.3    6.4      24.673
2014   10        1     3  25    4.66   353.1    6.4      24.669
2014   10        1     3  30    4.66   353.0    6.5      24.665
2014   10        1     3  35    4.66   352.8    6.5      24.662
2014   10        1     3  41    4.67   352.6    6.5      24.658
2014   10        1     3  46    4.67   352.5    6.5      24.655
2014   10        1     3  51    4.67   352.3    6.5      24.651
2014   10        1     3  57    4.68   352.1    6.5      24.648
2014   10        1     4   2    4.68   352.0    6.5      24.645
2014   10        1     4   7    4.69   351.8    6.5      24.643
2014   10        1     4  13    4.69   351.6    6.5      24.640
2014   10        1     4  18    4.69   351.5    6.5      24.637
2014   10        1     4  23    4.70   351.3    6.6      24.635
2014   10        1     4  29    4.70   351.1    6.6      24.632
2014   10        1     4  34    4.71   351.0    6.6      24.630
2014   10        1     4  39    4.71   350.8    6.6      24.628
2014   10        1     4  44    4.71   350.6    6.6      24.626
2014   10        1     4  50    4.72   350.5    6.6      24.624
2014   10        1     4  55    4.72   350.3    6.6      24.622
2014   10        1     5   0    4.73   350.1    6.6      24.620
2014   10        1     5   6    4.73   350.0    6.6      24.619
2014   10        1     5  11    4.73   349.8    6.6      24.617
2014   10        1     5  16    4.74   349.7    6.7      24.616
2014   10        1     5  22    4.74   349.5    6.7      24.615
2014   10        1     5  27    4.75   349.3    6.7      24.614
2014   10        1     5  32    4.75   349.2    6.7      24.613
2014   10        1     5  38    4.75   349.0    6.7      24.612
2014   10        1     5  43    4.76   348.9    6.7      24.611
2014   10        1     5  48    4.76   348.7    6.7      24.611
2014   10        1     5  53    4.77   348.5    6.7      24.610
2014   10        1     5  59    4.77   348.4    6.7      24.610
2014   10        1     6   4    4.78   348.2    6.8      24.610
2014   10        1     6   9    4.78   348.1    6.8      24.610
2014   10        1     6  15    4.78   347.9    6.8      24.610
2014   10        1     6  20    4.79   347.7    6.8      24.610
2014   10        1     6  25    4.79   347.6    6.8      24.610
2014   10        1     6  31    4.80   347.4    6.8      24.611
2014   10        1     6  36    4.80   347.3    6.8      24.611
2014   10        1     6  41    4.81   347.1    6.8      24.612
2014   10        1     6  47    4.81   347.0    6.8      24.613
2014   10        1     6  52    4.81   346.8    6.9      24.614
2014   10        1     6  57    4.82   346.7    6.9      24.615
2014   10        1     7   3    4.82   346.5    6.9      24.616
2014   10        1     7   8    4.83   346.4    6.9      24.617
2014   10        1     7  13    4.83   346.2    6.9      24.618
2014   10        1     7  18    4.84   346.0    6.9      24.620
2014   10        1     7  24    4.84   345.9    6.9      24.621
2014   10        1     7  29    4.85   345.7    6.9      24.623
2014   10        1     7  34    4.85   345.6    6.9      24.625
2014   10        1     7  40    4.86   345.4    7.0      24.627
2014   10        1     7  45    4.86   345.3    7.0      24.629
2014   10        1     7  50    4.86   345.1    7.0      24.631
2014   10        1     7  56    4.87   345.0    7.0      24.634
2014   10        1     8   1    4.87   344.8    7.0      24.636
2014   10        1     8   6    4.88   344.7    7.0      24.639
2014   10        1     8  12    4.88   344.5    7.0      24.641
2014   10        1     8  17    4.89   344.4    7.0      24.644
2014   10        1     8  22    4.89   344.2    7.1      24.647
2014   10        1     8  27    4.90   344.1    7.1      24.650
2014   10        1     8  33    4.90   344.0    7.1      24.654
2014   10        1     8  38    4.91   343.8    7.1      24.657
2014   10        1     8  43    4.91   343.7    7.1      24.660
2014   10        1     8  49    4.92   343.5    7.1      24.664
2014   10        1     8  54    4.92   343.4    7.1      24.668
2014   10        1     8  59    4.93   343.2    7.1      24.671
2014   10        1     9   5    4.93   343.1    7.1      24.675
2014   10        1     9  10    4.94   342.9    7.2      24.679
2014   10        1     9  15    4.94   342.8    7.2      24.684
2014   10        1     9  20    4.95   342.6    7.2      24.688
2014   10        1     9  26    4.95   342.5    7.2      24.692
2014   10        1     9  31    4.96   342.4    7.2      24.697
2014   10        1     9  36    4.96   342.2    7.2      24.702
2014   10        1     9  42    4.97   342.1    7.2      24.706
2014   10        1     9  47    4.97   341.9    7.2      24.711
2014   10        1     9  52    4.98   341.8    7.3      24.716
2014   10        1     9  58    4.98   341.7    7.3      24.722
2014   10        1    10   3    4.99   341.5    7.3      24.727
2014   10        1    10   8    4.99   341.4    7.3      24.733
2014   10        1    10  14    5.00   341.2    7.3      24.738
2014   10        1    10  19    5.00   341.1    7.3      24.744
2014   10        1    10  24    5.01   341.0    7.3      24.750
2014   10        1    10  29    5.02   340.8    7.3      24.756
2014   10        1    10  35    5.02   340.7    7.4      24.762
2014   10        1    10  40    5.03   340.6    7.4      24.768
2014   10        1    10  45    5.03   340.4    7.4      24.775
2014   10        1    10  51    5.04   340.3    7.4      24.782
2014   10        1    10  56    5.04   340.2    7.4      24.788
2014   10        1    11   1    5.05   340.0    7.4      24.795
2014   10        1    11   7    5.05   339.9    7.4      24.802
2014   10        1    11  12    5.06   339.8    7.4      24.809
2014   10        1    11  17    5.07   339.6    7.5      24.817
2014   10        1    11  23    5.07   339.5    7.5      24.824
2014   10        1    11  28    5.08   339.4    7.5      24.832
2014   10        1    11  33    5.08   339.2    7.5      24.839
2014   10        1    11  38    5.09   339.1    7.5      24.847
2014   10        1    11  44    5.09   339.0    7.5      24.855
2014   10        1    11  49    5.10   338.8    7.5      24.863
2014   10        1    11  54    5.10   338.7    7.6      24.872
2014   10        1    12   0    5.11   338.6    7.6      24.880
2014   10        1    12   5    5.12   338.4    7.6      24.889
2014   10        1    12  10    5.12   338.3    7.6      24.898
2014   10        1    12  16    5.13   338.2    7.6      24.907
2014   10        1    12  21    5.13   338.1    7.6      24.916
2014   10        1    12  26    5.14   337.9    7.6      24.925
2014   10        1    12  32    5.15   337.8    7.6      24.934
2014   10        1    12  37    5.15   337.7    7.7      24.943
2014   10        1    12  42    5.16   337.6    7.7      24.953
2014   10        1    12  47    5.16   337.4    7.7      24.963
2014   10        1    12  53    5.17   337.3    7.7      24.973
2014   10        1    12  58    5.18   337.2    7.7      24.983
2014   10        1    13   3    5.18   337.1    7.7      24.993
2014   10        1    13   9    5.19   336.9    7.7      25.003
2014   10        1    13  14    5.19   336.8    7.8      25.014
2014   10        1    13  19    5.20   336.7    7.8      25.024
2014   10        1    13  25    5.21   336.6    7.8      25.035
2014   10        1    13  30    5.21   336.4    7.8      25.046
2014   10        1    13  35    5.22   336.3    7.8      25.057
2014   10        1    13  41    5.23   336.2    7.8      25.068
2014   10        1    13  46    5.23   336.1    7.8      25.080
2014   10        1    13  51    5.24   336.0    7.9      25.091
2014   10        1    13  57    5.24   335.9    7.9      25.103
2014   10        1    14   2    5.25   335.7    7.9      25.114
2014   10        1    14   7    5.26   335.6    7.9      25.126
2014   10        1    14  12    5.26   335.5    7.9      25.138
2014   10        1    14  18    5.27   335.4    7.9      25.151
2014   10        1    14  23    5.28   335.3    7.9      25.163
2014   10        1    14  28    5.28   335.1    8.0      25.175
2014   10        1    14  34    5.29   335.0    8.0      25.188
2014   10        1    14  39    5.30   334.9    8.0      25.201
2014   10        1    14  44    5.30   334.8    8.0      25.214
2014   10        1    14  50    5.31   334.7    8.0      25.227
2014   10        1    14  55    5.32   334.6    8.0      25.240
2014   10        1    15   0    5.32   334.5    8.0      25.253
2014   10        1    15   6    5.33   334.4    8.1      25.267
2014   10        1    15  11    5.34   334.2    8.1      25.280
2014   10        1    15  16    5.34   334.1    8.1      25.294
2014   10        1    15  21    5.35   334.0    8.1      25.308
2014   10        1    15  27    5.36   333.9    8.1      25.322
2014   10        1    15  32    5.36   333.8    8.1      25.335
2014   10        1    15  37    5.37   333.7    8.2      25.350
2014   10        1    15  43    5.38   333.6    8.2      25.364
2014   10        1    15  48    5.38   333.5    8.2      25.378
2014   10        1    15  53    5.39   333.4    8.2      25.393
2014   10        1    15  59    5.40   333.3    8.2      25.408
2014   10        1    16   4    5.40   333.2    8.2      25.422
2014   10        1    16   9    5.41   333.0    8.2      25.437
2014   10        1    16  14    5.42   332.9    8.3      25.452
2014   10        1    16  20    5.42   332.8    8.3      25.468
2014   10        1    16  25    5.43   332.7    8.3      25.483
2014   10        1    16  30    5.44   332.6    8.3      25.498
2014   10        1    16  36    5.44   332.5    8.3      25.514
2014   10        1    16  41    5.45   332.4    8.3      25.529
2014   10        1    16  46    5.46   332.3    8.4      25.545
2014   10        1    16  52    5.47   332.2    8.4      25.561
2014   10        1    16  57    5.47   332.1    8.4      25.577
2014   10        1    17   2    5.48   332.0    8.4      25.593
2014   10        1    17   8    5.49   331.9    8.4      25.609
2014   10        1    17  13    5.49   331.8    8.4      25.625
2014   10        1    17  18    5.50   331.7    8.4      25.642
2014   10        1    17  23    5.51   331.6    8.5      25.658
2014   10        1    17  29    5.52   331.5    8.5      25.675
2014   10        1    17  34    5.52   331.4    8.5      25.692
2014   10        1    17  39    5.53   331.3    8.5      25.709
2014   10        1    17  45    5.54   331.2    8.5      25.726
2014   10        1    17  50    5.55   331.1    8.5      25.743
2014   10        1    17  55    5.55   331.0    8.6      25.761
2014   10        1    18   1    5.56   330.9    8.6      25.778
2014   10        1    18   6    5.57   330.8    8.6      25.796
2014   10        1    18  11    5.58   330.7    8.6      25.814
2014   10        1    18  17    5.58   330.6    8.6      25.832
2014   10        1    18  22    5.59   330.5    8.6      25.850
2014   10        1    18  27    5.60   330.4    8.7      25.868
2014   10        1    18  32    5.61   330.3    8.7      25.887
2014   10        1    18  38    5.61   330.2    8.7      25.906
2014   10        1    18  43    5.62   330.1    8.7      25.925
2014   10        1    18  48    5.63   330.0    8.7      25.944
2014   10        1    18  54    5.64   330.0    8.7      25.963
2014   10        1    18  59    5.65   329.9    8.8      25.983
2014   10        1    19   4    5.65   329.8    8.8      26.003
2014   10        1    19  10    5.66   329.7    8.8      26.023
2014   10        1    19  15    5.67   329.6    8.8      26.043
2014   10        1    19  20    5.68   329.5    8.8      26.063
2014   10        1    19  26    5.69   329.4    8.8      26.084
2014   10        1    19  31    5.69   329.3    8.9      26.105
2014   10        1    19  36    5.70   329.2    8.9      26.126
2014   10        1    19  41    5.71   329.2    8.9      26.147
2014   10        1    19  47    5.72   329.1    8.9      26.169
2014   10        1    19  52    5.73   329.0    8.9      26.191
2014   10        1    19  57    5.73   328.9    9.0      26.213
2014   10        1    20   3    5.74   328.8    9.0      26.235
2014   10        1    20   8    5.75   328.7    9.0      26.257
2014   10        1    20  13    5.76   328.7    9.0      26.280
2014   10        1    20  19    5.77   328.6    9.0      26.303
2014   10        1    20  24    5.78   328.5    9.0      26.326
2014   10        1    20  29    5.79   328.4    9.1      26.349
2014   10        1    20  35    5.79   328.3    9.1      26.373
2014   10        1    20  40    5.80   328.3    9.1      26.397
2014   10        1    20  45    5.81   328.2    9.1      26.421
2014   10        1    20  51    5.82   328.1    9.1      26.445
2014   10        1    20  56    5.83   328.0    9.2      26.470
2014   10        1    21   1    5.84   328.0    9.2      26.495
2014   10        1    21   6    5.85   327.9    9.2      26.520
2014   10        1    21  12    5.85   327.8    9.2      26.545
2014   10        1    21  17    5.86   327.8    9.2      26.571
2014   10        1    21  22    5.87   327.7    9.3      26.597
2014   10        1    21  28    5.88   327.6    9.3      26.623
2014   10        1    21  33    5.89   327.6    9.3      26.649
2014   10        1    21  38    5.90   327.5    9.3      26.675
2014   10        1    21  44    5.91   327.4    9.3      26.702
2014   10        1    21  49    5.92   327.4    9.3      26.729
2014   10        1    21  54    5.92   327.3    9.4      26.756
2014   10        1    22   0    5.93   327.2    9.4      26.783
2014   10        1    22   5    5.94   327.2    9.4      26.810
2014   10        1    22  10    5.95   327.1    9.4      26.837
2014   10        1    22  15    5.96   327.0    9.4      26.864
2014   10        1    22  21    5.97   327.0    9.5      26.891
2014   10        1    22  26    5.98   326.9    9.5      26.919
2014   10        1    22  31    5.99   326.8    9.5      26.946
2014   10        1    22  37    5.99   326.8    9.5      26.973
2014   10        1    22  42    6.00   326.7    9.5      27.001
2014   10        1    22  47    6.01   326.7    9.5      27.028
2014   10        1    22  53    6.02   326.6    9.6      27.055
2014   10        1    22  58    6.03   326.5    9.6      27.083
2014   10        1    23   3    6.04   326.5    9.6      27.110
2014   10        1    23   9    6.05   326.4    9.6      27.138
2014   10        1    23  14    6.06   326.4    9.6      27.165
2014   10        1    23  19    6.07   326.3    9.6      27.193
2014   10        1    23  24    6.08   326.2    9.7      27.221
2014   10        1    23  30    6.08   326.2    9.7      27.248
2014   10        1    23  35    6.09   326.1    9.7      27.276
2014   10        1    23  40    6.10   326.1    9.7      27.304
2014   10        1    23  46    6.11   326.0    9.7      27.331
2014   10        1    23  51    6.12   326.0    9.8      27.360
2014   10        1    23  56    6.13   325.9    9.8      27.387
2014   10        2     0   2    6.14   325.8    9.8      27.416
