year    month   day   hour  minute  B_enl V_enl   n_enl       T_enl
[year] [month] [day] [hour][minute] [nT]  [km/s]  [cm-3]      [kK]
2014    9       20     0   3    5.94   480.5    5.6      42.292
2014    9       20     0   8    5.93   480.4    5.6      42.251
2014    9       20     0  13    5.93   480.3    5.6      42.210
2014    9       20     0  19    5.93   480.2    5.6      42.169
2014    9       20     0  24    5.93   480.1    5.6      42.128
2014    9       20     0  29    5.93   479.9    5.6      42.087
2014    9       20     0  34    5.93   479.8    5.6      42.046
2014    9       20     0  40    5.93   479.7    5.6      42.005
2014    9       20     0  45    5.92   479.6    5.6      41.964
2014    9       20     0  50    5.92   479.4    5.6      41.923
2014    9       20     0  55    5.92   479.3    5.6      41.882
2014    9       20     1   1    5.92   479.2    5.6      41.841
2014    9       20     1   6    5.92   479.1    5.6      41.801
2014    9       20     1  11    5.92   478.9    5.6      41.760
2014    9       20     1  17    5.92   478.8    5.6      41.719
2014    9       20     1  22    5.92   478.7    5.6      41.678
2014    9       20     1  27    5.92   478.6    5.6      41.637
2014    9       20     1  32    5.91   478.5    5.6      41.596
2014    9       20     1  38    5.91   478.3    5.6      41.555
2014    9       20     1  43    5.91   478.2    5.6      41.514
2014    9       20     1  48    5.91   478.1    5.6      41.472
2014    9       20     1  53    5.91   478.0    5.6      41.431
2014    9       20     1  59    5.91   477.8    5.6      41.389
2014    9       20     2   4    5.91   477.7    5.6      41.348
2014    9       20     2   9    5.91   477.6    5.6      41.306
2014    9       20     2  15    5.91   477.5    5.6      41.265
2014    9       20     2  20    5.91   477.3    5.6      41.223
2014    9       20     2  25    5.91   477.2    5.6      41.182
2014    9       20     2  30    5.91   477.1    5.6      41.140
2014    9       20     2  36    5.91   477.0    5.6      41.099
2014    9       20     2  41    5.90   476.9    5.6      41.057
2014    9       20     2  46    5.90   476.7    5.6      41.016
2014    9       20     2  52    5.90   476.6    5.6      40.974
2014    9       20     2  57    5.90   476.5    5.6      40.933
2014    9       20     3   2    5.90   476.3    5.6      40.892
2014    9       20     3   7    5.90   476.2    5.6      40.850
2014    9       20     3  13    5.90   476.1    5.6      40.809
2014    9       20     3  18    5.90   476.0    5.6      40.768
2014    9       20     3  23    5.90   475.8    5.6      40.728
2014    9       20     3  28    5.90   475.7    5.6      40.687
2014    9       20     3  34    5.90   475.6    5.6      40.646
2014    9       20     3  39    5.90   475.4    5.6      40.606
2014    9       20     3  44    5.90   475.3    5.6      40.566
2014    9       20     3  50    5.90   475.2    5.6      40.526
2014    9       20     3  55    5.90   475.0    5.6      40.486
2014    9       20     4   0    5.90   474.9    5.6      40.447
2014    9       20     4   5    5.90   474.8    5.6      40.408
2014    9       20     4  11    5.90   474.6    5.6      40.369
2014    9       20     4  16    5.90   474.5    5.6      40.331
2014    9       20     4  21    5.90   474.4    5.6      40.292
2014    9       20     4  27    5.90   474.2    5.6      40.255
2014    9       20     4  32    5.90   474.1    5.6      40.218
2014    9       20     4  37    5.90   473.9    5.6      40.181
2014    9       20     4  42    5.90   473.8    5.6      40.144
2014    9       20     4  48    5.90   473.6    5.6      40.109
2014    9       20     4  53    5.90   473.5    5.6      40.074
2014    9       20     4  58    5.90   473.3    5.6      40.039
2014    9       20     5   4    5.90   473.2    5.6      40.006
2014    9       20     5   9    5.90   473.0    5.6      39.973
2014    9       20     5  14    5.90   472.9    5.6      39.941
2014    9       20     5  19    5.90   472.7    5.6      39.909
2014    9       20     5  25    5.90   472.6    5.6      39.879
2014    9       20     5  30    5.90   472.4    5.6      39.850
2014    9       20     5  35    5.90   472.3    5.6      39.821
2014    9       20     5  40    5.90   472.1    5.6      39.794
2014    9       20     5  46    5.90   472.0    5.6      39.768
2014    9       20     5  51    5.90   471.8    5.6      39.743
2014    9       20     5  56    5.90   471.7    5.7      39.718
2014    9       20     6   2    5.90   471.5    5.7      39.696
2014    9       20     6   7    5.90   471.4    5.7      39.674
2014    9       20     6  12    5.90   471.2    5.7      39.653
2014    9       20     6  17    5.90   471.1    5.7      39.633
2014    9       20     6  23    5.90   470.9    5.7      39.614
2014    9       20     6  28    5.90   470.8    5.7      39.596
2014    9       20     6  33    5.91   470.6    5.7      39.579
2014    9       20     6  39    5.91   470.5    5.7      39.563
2014    9       20     6  44    5.91   470.3    5.7      39.548
2014    9       20     6  49    5.91   470.2    5.7      39.533
2014    9       20     6  54    5.91   470.1    5.7      39.520
2014    9       20     7   0    5.91   469.9    5.7      39.507
2014    9       20     7   5    5.91   469.8    5.7      39.495
2014    9       20     7  10    5.91   469.7    5.7      39.484
2014    9       20     7  15    5.92   469.5    5.7      39.473
2014    9       20     7  21    5.92   469.4    5.7      39.462
2014    9       20     7  26    5.92   469.3    5.8      39.452
2014    9       20     7  31    5.92   469.1    5.8      39.443
2014    9       20     7  37    5.92   469.0    5.8      39.433
2014    9       20     7  42    5.92   468.9    5.8      39.423
2014    9       20     7  47    5.93   468.8    5.8      39.412
2014    9       20     7  52    5.93   468.6    5.8      39.401
2014    9       20     7  58    5.93   468.5    5.8      39.389
2014    9       20     8   3    5.93   468.4    5.8      39.377
2014    9       20     8   8    5.93   468.3    5.8      39.364
2014    9       20     8  14    5.94   468.2    5.8      39.351
2014    9       20     8  19    5.94   468.0    5.8      39.338
2014    9       20     8  24    5.94   467.9    5.8      39.324
2014    9       20     8  29    5.94   467.8    5.8      39.310
2014    9       20     8  35    5.94   467.7    5.8      39.296
2014    9       20     8  40    5.95   467.6    5.8      39.281
2014    9       20     8  45    5.95   467.4    5.8      39.266
2014    9       20     8  50    5.95   467.3    5.8      39.251
2014    9       20     8  56    5.95   467.2    5.8      39.235
2014    9       20     9   1    5.95   467.1    5.9      39.219
2014    9       20     9   6    5.96   467.0    5.9      39.203
2014    9       20     9  12    5.96   466.9    5.9      39.187
2014    9       20     9  17    5.96   466.8    5.9      39.171
2014    9       20     9  22    5.96   466.6    5.9      39.154
2014    9       20     9  27    5.96   466.5    5.9      39.138
2014    9       20     9  33    5.97   466.4    5.9      39.121
2014    9       20     9  38    5.97   466.3    5.9      39.104
2014    9       20     9  43    5.97   466.2    5.9      39.087
2014    9       20     9  49    5.97   466.1    5.9      39.070
2014    9       20     9  54    5.98   466.0    5.9      39.053
2014    9       20     9  59    5.98   465.9    5.9      39.036
2014    9       20    10   4    5.98   465.8    5.9      39.020
2014    9       20    10  10    5.98   465.7    5.9      39.003
2014    9       20    10  15    5.99   465.6    5.9      38.986
2014    9       20    10  20    5.99   465.4    5.9      38.969
2014    9       20    10  25    5.99   465.3    5.9      38.953
2014    9       20    10  31    5.99   465.2    5.9      38.937
2014    9       20    10  36    6.00   465.1    5.9      38.920
2014    9       20    10  41    6.00   465.0    5.9      38.905
2014    9       20    10  47    6.00   464.9    5.9      38.889
2014    9       20    10  52    6.00   464.8    5.9      38.874
2014    9       20    10  57    6.01   464.7    5.9      38.859
2014    9       20    11   2    6.01   464.6    5.9      38.845
2014    9       20    11   8    6.01   464.5    6.0      38.831
2014    9       20    11  13    6.02   464.4    6.0      38.817
2014    9       20    11  18    6.02   464.3    6.0      38.804
2014    9       20    11  23    6.02   464.2    6.0      38.791
2014    9       20    11  29    6.03   464.1    6.0      38.779
2014    9       20    11  34    6.03   464.0    6.0      38.767
2014    9       20    11  39    6.03   463.9    6.0      38.756
2014    9       20    11  45    6.03   463.8    6.0      38.745
2014    9       20    11  50    6.04   463.7    6.0      38.735
2014    9       20    11  55    6.04   463.6    6.0      38.726
2014    9       20    12   0    6.04   463.6    6.0      38.717
2014    9       20    12   6    6.05   463.5    6.0      38.709
2014    9       20    12  11    6.05   463.4    6.0      38.702
2014    9       20    12  16    6.05   463.3    6.0      38.696
2014    9       20    12  22    6.06   463.2    6.0      38.690
2014    9       20    12  27    6.06   463.1    6.0      38.686
2014    9       20    12  32    6.07   463.0    6.0      38.682
2014    9       20    12  37    6.07   462.9    6.1      38.679
2014    9       20    12  43    6.07   462.8    6.1      38.678
2014    9       20    12  48    6.08   462.7    6.1      38.677
2014    9       20    12  53    6.08   462.7    6.1      38.678
2014    9       20    12  59    6.08   462.6    6.1      38.681
2014    9       20    13   4    6.09   462.5    6.1      38.684
2014    9       20    13   9    6.09   462.4    6.1      38.689
2014    9       20    13  14    6.10   462.4    6.1      38.695
2014    9       20    13  20    6.10   462.3    6.1      38.702
2014    9       20    13  25    6.10   462.2    6.1      38.710
2014    9       20    13  30    6.11   462.2    6.1      38.721
2014    9       20    13  36    6.11   462.1    6.2      38.732
2014    9       20    13  41    6.12   462.0    6.2      38.746
2014    9       20    13  46    6.12   462.0    6.2      38.761
2014    9       20    13  51    6.13   461.9    6.2      38.778
2014    9       20    13  57    6.13   461.9    6.2      38.797
2014    9       20    14   2    6.13   461.8    6.2      38.816
2014    9       20    14   7    6.14   461.8    6.2      38.837
2014    9       20    14  12    6.14   461.8    6.2      38.859
2014    9       20    14  18    6.15   461.7    6.2      38.883
2014    9       20    14  23    6.15   461.7    6.3      38.907
2014    9       20    14  28    6.16   461.7    6.3      38.934
2014    9       20    14  34    6.16   461.7    6.3      38.961
2014    9       20    14  39    6.17   461.6    6.3      38.990
2014    9       20    14  44    6.17   461.6    6.3      39.020
2014    9       20    14  49    6.18   461.6    6.3      39.050
2014    9       20    14  55    6.18   461.6    6.3      39.080
2014    9       20    15   0    6.19   461.6    6.3      39.110
2014    9       20    15   5    6.19   461.5    6.3      39.140
2014    9       20    15  11    6.20   461.5    6.4      39.168
2014    9       20    15  16    6.20   461.5    6.4      39.196
2014    9       20    15  21    6.20   461.5    6.4      39.223
2014    9       20    15  26    6.21   461.5    6.4      39.250
2014    9       20    15  32    6.21   461.5    6.4      39.276
2014    9       20    15  37    6.22   461.5    6.4      39.301
2014    9       20    15  42    6.22   461.4    6.4      39.327
2014    9       20    15  47    6.23   461.4    6.4      39.351
2014    9       20    15  53    6.23   461.4    6.4      39.376
2014    9       20    15  58    6.24   461.4    6.4      39.400
2014    9       20    16   3    6.24   461.4    6.4      39.423
2014    9       20    16   9    6.25   461.4    6.4      39.447
2014    9       20    16  14    6.25   461.4    6.4      39.470
2014    9       20    16  19    6.26   461.4    6.5      39.492
2014    9       20    16  24    6.26   461.4    6.5      39.515
2014    9       20    16  30    6.27   461.4    6.5      39.537
2014    9       20    16  35    6.27   461.4    6.5      39.560
2014    9       20    16  40    6.28   461.4    6.5      39.582
2014    9       20    16  45    6.28   461.4    6.5      39.603
2014    9       20    16  51    6.29   461.4    6.5      39.625
2014    9       20    16  56    6.29   461.4    6.5      39.647
2014    9       20    17   1    6.30   461.4    6.5      39.668
2014    9       20    17   7    6.30   461.4    6.5      39.690
2014    9       20    17  12    6.31   461.4    6.5      39.711
2014    9       20    17  17    6.31   461.4    6.5      39.733
2014    9       20    17  22    6.32   461.4    6.5      39.754
2014    9       20    17  28    6.32   461.4    6.5      39.775
2014    9       20    17  33    6.33   461.5    6.5      39.796
2014    9       20    17  38    6.33   461.5    6.5      39.817
2014    9       20    17  44    6.34   461.5    6.6      39.838
2014    9       20    17  49    6.34   461.5    6.6      39.859
2014    9       20    17  54    6.35   461.5    6.6      39.880
2014    9       20    17  59    6.35   461.5    6.6      39.902
2014    9       20    18   5    6.36   461.6    6.6      39.923
2014    9       20    18  10    6.36   461.6    6.6      39.944
2014    9       20    18  15    6.37   461.6    6.6      39.965
2014    9       20    18  20    6.37   461.7    6.6      39.987
2014    9       20    18  26    6.38   461.7    6.6      40.008
2014    9       20    18  31    6.38   461.7    6.6      40.030
2014    9       20    18  36    6.39   461.8    6.6      40.052
2014    9       20    18  42    6.39   461.8    6.6      40.074
2014    9       20    18  47    6.40   461.8    6.6      40.096
2014    9       20    18  52    6.40   461.9    6.6      40.118
2014    9       20    18  57    6.41   461.9    6.6      40.141
2014    9       20    19   3    6.41   462.0    6.6      40.163
2014    9       20    19   8    6.42   462.0    6.6      40.186
2014    9       20    19  13    6.42   462.0    6.6      40.209
2014    9       20    19  19    6.43   462.1    6.6      40.232
2014    9       20    19  24    6.43   462.1    6.6      40.256
2014    9       20    19  29    6.44   462.2    6.7      40.279
2014    9       20    19  34    6.44   462.3    6.7      40.303
2014    9       20    19  40    6.45   462.3    6.7      40.328
2014    9       20    19  45    6.46   462.4    6.7      40.352
2014    9       20    19  50    6.46   462.4    6.7      40.377
2014    9       20    19  56    6.46   462.5    6.7      40.403
2014    9       20    20   1    6.47   462.5    6.7      40.428
2014    9       20    20   6    6.47   462.6    6.7      40.454
2014    9       20    20  11    6.48   462.7    6.7      40.481
2014    9       20    20  17    6.48   462.7    6.7      40.507
2014    9       20    20  22    6.49   462.8    6.7      40.534
2014    9       20    20  27    6.49   462.9    6.7      40.562
2014    9       20    20  32    6.50   462.9    6.7      40.590
2014    9       20    20  38    6.50   463.0    6.7      40.618
2014    9       20    20  43    6.51   463.1    6.7      40.647
2014    9       20    20  48    6.51   463.1    6.7      40.676
2014    9       20    20  54    6.52   463.2    6.7      40.705
2014    9       20    20  59    6.52   463.3    6.7      40.736
2014    9       20    21   4    6.53   463.3    6.8      40.767
2014    9       20    21   9    6.53   463.4    6.8      40.798
2014    9       20    21  15    6.54   463.5    6.8      40.831
2014    9       20    21  20    6.54   463.6    6.8      40.864
2014    9       20    21  25    6.55   463.6    6.8      40.899
2014    9       20    21  31    6.55   463.7    6.8      40.935
2014    9       20    21  36    6.56   463.8    6.8      40.972
2014    9       20    21  41    6.56   463.9    6.8      41.010
2014    9       20    21  46    6.57   464.0    6.8      41.049
2014    9       20    21  52    6.57   464.0    6.8      41.089
2014    9       20    21  57    6.58   464.1    6.8      41.130
2014    9       20    22   2    6.58   464.2    6.8      41.173
2014    9       20    22   8    6.59   464.3    6.8      41.216
2014    9       20    22  13    6.59   464.4    6.8      41.259
2014    9       20    22  18    6.60   464.5    6.8      41.304
2014    9       20    22  23    6.60   464.5    6.8      41.348
2014    9       20    22  29    6.61   464.6    6.9      41.393
2014    9       20    22  34    6.61   464.7    6.9      41.437
2014    9       20    22  39    6.62   464.8    6.9      41.482
2014    9       20    22  44    6.62   464.9    6.9      41.526
2014    9       20    22  50    6.63   465.0    6.9      41.571
2014    9       20    22  55    6.63   465.1    6.9      41.616
2014    9       20    23   0    6.64   465.2    6.9      41.661
2014    9       20    23   6    6.64   465.2    6.9      41.707
2014    9       20    23  11    6.65   465.3    6.9      41.753
2014    9       20    23  16    6.65   465.4    6.9      41.800
2014    9       20    23  21    6.66   465.5    6.9      41.846
2014    9       20    23  27    6.66   465.6    6.9      41.893
2014    9       20    23  32    6.67   465.7    6.9      41.941
2014    9       20    23  37    6.67   465.8    6.9      41.989
2014    9       20    23  42    6.68   465.9    6.9      42.039
2014    9       20    23  48    6.69   466.0    6.9      42.088
2014    9       20    23  53    6.69   466.1    6.9      42.139
2014    9       20    23  58    6.70   466.2    6.9      42.190
2014    9       21     0   4    6.70   466.3    6.9      42.242
2014    9       21     0   9    6.71   466.4    6.9      42.294
2014    9       21     0  14    6.71   466.5    6.9      42.346
2014    9       21     0  19    6.72   466.7    7.0      42.397
2014    9       21     0  25    6.72   466.8    7.0      42.447
2014    9       21     0  30    6.73   466.9    7.0      42.498
2014    9       21     0  35    6.73   467.0    7.0      42.548
2014    9       21     0  40    6.74   467.1    7.0      42.598
2014    9       21     0  46    6.74   467.2    7.0      42.648
2014    9       21     0  51    6.74   467.3    7.0      42.697
2014    9       21     0  56    6.75   467.5    7.0      42.745
2014    9       21     1   2    6.75   467.6    7.0      42.793
2014    9       21     1   7    6.76   467.7    7.0      42.841
2014    9       21     1  12    6.76   467.8    7.0      42.888
2014    9       21     1  17    6.77   468.0    7.0      42.935
2014    9       21     1  23    6.77   468.1    7.0      42.980
2014    9       21     1  28    6.78   468.2    7.0      43.026
2014    9       21     1  33    6.78   468.3    7.0      43.070
2014    9       21     1  39    6.78   468.5    7.0      43.114
2014    9       21     1  44    6.79   468.6    7.0      43.158
2014    9       21     1  49    6.79   468.7    7.0      43.201
2014    9       21     1  54    6.80   468.9    7.0      43.243
2014    9       21     2   0    6.80   469.0    7.0      43.285
2014    9       21     2   5    6.81   469.1    7.0      43.327
2014    9       21     2  10    6.81   469.3    7.0      43.368
2014    9       21     2  16    6.81   469.4    7.0      43.409
2014    9       21     2  21    6.82   469.5    7.0      43.450
2014    9       21     2  26    6.82   469.7    7.0      43.490
2014    9       21     2  31    6.82   469.8    7.0      43.530
2014    9       21     2  37    6.83   469.9    7.0      43.569
2014    9       21     2  42    6.83   470.1    7.0      43.608
2014    9       21     2  47    6.84   470.2    7.0      43.647
2014    9       21     2  52    6.84   470.4    7.0      43.685
2014    9       21     2  58    6.84   470.5    7.0      43.722
2014    9       21     3   3    6.85   470.6    7.0      43.760
2014    9       21     3   8    6.85   470.8    7.0      43.797
2014    9       21     3  14    6.85   470.9    7.0      43.834
2014    9       21     3  19    6.86   471.0    7.0      43.870
2014    9       21     3  24    6.86   471.2    7.0      43.907
2014    9       21     3  29    6.86   471.3    7.0      43.942
2014    9       21     3  35    6.87   471.5    7.0      43.978
2014    9       21     3  40    6.87   471.6    7.0      44.013
2014    9       21     3  45    6.87   471.7    7.0      44.048
2014    9       21     3  51    6.88   471.9    7.0      44.083
2014    9       21     3  56    6.88   472.0    7.0      44.118
2014    9       21     4   1    6.88   472.1    7.0      44.152
2014    9       21     4   6    6.89   472.3    7.0      44.187
2014    9       21     4  12    6.89   472.4    7.0      44.221
2014    9       21     4  17    6.90   472.5    7.0      44.255
2014    9       21     4  22    6.90   472.7    7.0      44.289
2014    9       21     4  28    6.90   472.8    7.0      44.324
2014    9       21     4  33    6.91   472.9    7.0      44.358
2014    9       21     4  38    6.91   473.1    7.0      44.393
2014    9       21     4  43    6.91   473.2    7.0      44.428
2014    9       21     4  49    6.92   473.3    7.0      44.463
2014    9       21     4  54    6.92   473.5    7.0      44.498
2014    9       21     4  59    6.92   473.6    7.0      44.534
2014    9       21     5   4    6.93   473.7    7.0      44.570
2014    9       21     5  10    6.93   473.9    7.0      44.607
2014    9       21     5  15    6.93   474.0    7.0      44.644
2014    9       21     5  20    6.94   474.2    7.0      44.682
2014    9       21     5  26    6.94   474.3    7.0      44.720
2014    9       21     5  31    6.95   474.4    7.0      44.758
2014    9       21     5  36    6.95   474.6    7.0      44.798
2014    9       21     5  41    6.95   474.7    7.0      44.837
2014    9       21     5  47    6.96   474.9    7.0      44.878
2014    9       21     5  52    6.96   475.0    7.0      44.919
2014    9       21     5  57    6.97   475.1    7.0      44.960
2014    9       21     6   3    6.97   475.3    7.0      45.003
2014    9       21     6   8    6.97   475.4    7.0      45.045
2014    9       21     6  13    6.98   475.6    7.0      45.089
2014    9       21     6  18    6.98   475.7    7.0      45.133
2014    9       21     6  24    6.99   475.9    7.0      45.178
2014    9       21     6  29    6.99   476.0    7.0      45.225
2014    9       21     6  34    6.99   476.1    7.0      45.273
2014    9       21     6  39    7.00   476.3    7.0      45.321
2014    9       21     6  45    7.00   476.4    7.0      45.371
2014    9       21     6  50    7.01   476.6    7.0      45.422
2014    9       21     6  55    7.01   476.7    7.0      45.475
2014    9       21     7   1    7.01   476.9    7.0      45.530
2014    9       21     7   6    7.02   477.0    7.0      45.587
2014    9       21     7  11    7.02   477.2    7.0      45.645
2014    9       21     7  16    7.03   477.3    7.0      45.706
2014    9       21     7  22    7.03   477.5    7.0      45.769
2014    9       21     7  27    7.03   477.7    7.0      45.834
2014    9       21     7  32    7.04   477.8    7.0      45.899
2014    9       21     7  38    7.04   478.0    7.0      45.966
2014    9       21     7  43    7.05   478.2    7.0      46.032
2014    9       21     7  48    7.05   478.4    7.0      46.100
2014    9       21     7  53    7.05   478.5    7.0      46.168
2014    9       21     7  59    7.06   478.7    7.0      46.236
2014    9       21     8   4    7.06   478.9    7.0      46.304
2014    9       21     8   9    7.06   479.1    7.0      46.372
2014    9       21     8  14    7.07   479.3    7.0      46.440
2014    9       21     8  20    7.07   479.5    7.0      46.508
2014    9       21     8  25    7.07   479.7    7.0      46.575
2014    9       21     8  30    7.08   479.8    7.0      46.642
2014    9       21     8  36    7.08   480.0    7.0      46.707
2014    9       21     8  41    7.08   480.2    7.0      46.770
2014    9       21     8  46    7.09   480.4    7.0      46.832
2014    9       21     8  51    7.09   480.6    7.0      46.892
2014    9       21     8  57    7.09   480.8    7.0      46.949
2014    9       21     9   2    7.09   481.0    7.0      47.006
2014    9       21     9   7    7.10   481.2    7.0      47.060
2014    9       21     9  12    7.10   481.4    7.0      47.113
2014    9       21     9  18    7.10   481.6    7.0      47.165
2014    9       21     9  23    7.11   481.8    7.0      47.215
2014    9       21     9  28    7.11   482.0    7.0      47.264
2014    9       21     9  34    7.11   482.2    7.0      47.311
2014    9       21     9  39    7.11   482.4    7.0      47.357
2014    9       21     9  44    7.12   482.6    7.0      47.403
2014    9       21     9  49    7.12   482.8    7.0      47.447
2014    9       21     9  55    7.12   483.0    7.0      47.490
2014    9       21    10   0    7.12   483.2    7.0      47.533
2014    9       21    10   5    7.12   483.4    7.0      47.574
2014    9       21    10  11    7.13   483.6    7.0      47.615
2014    9       21    10  16    7.13   483.8    7.0      47.655
2014    9       21    10  21    7.13   483.9    7.0      47.695
2014    9       21    10  26    7.13   484.1    7.0      47.734
2014    9       21    10  32    7.14   484.3    7.0      47.772
2014    9       21    10  37    7.14   484.5    7.0      47.809
2014    9       21    10  42    7.14   484.7    7.0      47.846
2014    9       21    10  48    7.14   484.9    7.0      47.883
2014    9       21    10  53    7.15   485.1    7.0      47.919
2014    9       21    10  58    7.15   485.3    7.0      47.955
2014    9       21    11   3    7.15   485.5    7.0      47.990
2014    9       21    11   9    7.15   485.7    6.9      48.025
2014    9       21    11  14    7.15   485.9    6.9      48.059
2014    9       21    11  19    7.16   486.1    6.9      48.093
2014    9       21    11  25    7.16   486.3    6.9      48.127
2014    9       21    11  30    7.16   486.4    6.9      48.161
2014    9       21    11  35    7.16   486.6    6.9      48.195
2014    9       21    11  40    7.17   486.8    6.9      48.228
2014    9       21    11  46    7.17   487.0    6.9      48.261
2014    9       21    11  51    7.17   487.2    6.9      48.294
2014    9       21    11  56    7.17   487.4    6.9      48.327
2014    9       21    12   1    7.18   487.6    6.9      48.361
2014    9       21    12   7    7.18   487.8    6.9      48.394
2014    9       21    12  12    7.18   488.0    6.9      48.427
2014    9       21    12  17    7.18   488.2    6.9      48.460
2014    9       21    12  23    7.19   488.4    6.9      48.494
2014    9       21    12  28    7.19   488.6    6.9      48.527
2014    9       21    12  33    7.19   488.8    6.9      48.561
2014    9       21    12  38    7.20   489.0    6.9      48.596
2014    9       21    12  44    7.20   489.2    6.9      48.630
2014    9       21    12  49    7.20   489.4    6.9      48.665
2014    9       21    12  54    7.20   489.6    6.9      48.701
2014    9       21    13   0    7.21   489.8    6.9      48.737
2014    9       21    13   5    7.21   490.0    6.9      48.774
2014    9       21    13  10    7.21   490.2    6.9      48.813
2014    9       21    13  15    7.22   490.4    6.9      48.852
2014    9       21    13  21    7.22   490.6    6.9      48.893
2014    9       21    13  26    7.22   490.8    6.9      48.935
2014    9       21    13  31    7.22   491.0    6.9      48.978
2014    9       21    13  36    7.23   491.2    6.9      49.023
2014    9       21    13  42    7.23   491.4    6.9      49.071
2014    9       21    13  47    7.23   491.6    6.9      49.121
2014    9       21    13  52    7.24   491.9    6.9      49.172
2014    9       21    13  58    7.24   492.1    6.9      49.227
2014    9       21    14   3    7.24   492.3    6.9      49.283
2014    9       21    14   8    7.24   492.5    6.9      49.343
2014    9       21    14  13    7.25   492.8    6.9      49.403
2014    9       21    14  19    7.25   493.0    6.9      49.464
2014    9       21    14  24    7.25   493.3    6.9      49.526
2014    9       21    14  29    7.25   493.5    6.9      49.588
2014    9       21    14  34    7.25   493.7    6.9      49.651
2014    9       21    14  40    7.26   494.0    6.9      49.712
2014    9       21    14  45    7.26   494.2    6.9      49.772
2014    9       21    14  50    7.26   494.5    6.8      49.831
2014    9       21    14  56    7.26   494.7    6.8      49.890
2014    9       21    15   1    7.26   494.9    6.8      49.948
2014    9       21    15   6    7.26   495.2    6.8      50.005
2014    9       21    15  11    7.27   495.4    6.8      50.062
2014    9       21    15  17    7.27   495.7    6.8      50.117
2014    9       21    15  22    7.27   495.9    6.8      50.172
2014    9       21    15  27    7.27   496.2    6.8      50.226
2014    9       21    15  33    7.27   496.4    6.8      50.278
2014    9       21    15  38    7.27   496.7    6.8      50.329
2014    9       21    15  43    7.27   496.9    6.8      50.377
2014    9       21    15  48    7.28   497.2    6.8      50.424
2014    9       21    15  54    7.28   497.4    6.8      50.469
2014    9       21    15  59    7.28   497.7    6.8      50.512
2014    9       21    16   4    7.28   498.0    6.8      50.554
2014    9       21    16   9    7.28   498.2    6.8      50.594
2014    9       21    16  15    7.28   498.5    6.8      50.633
2014    9       21    16  20    7.28   498.7    6.8      50.670
2014    9       21    16  25    7.28   499.0    6.8      50.706
2014    9       21    16  31    7.28   499.2    6.8      50.740
2014    9       21    16  36    7.29   499.5    6.8      50.775
2014    9       21    16  41    7.29   499.7    6.7      50.807
2014    9       21    16  46    7.29   500.0    6.7      50.840
2014    9       21    16  52    7.29   500.2    6.7      50.870
2014    9       21    16  57    7.29   500.5    6.7      50.900
2014    9       21    17   2    7.29   500.7    6.7      50.929
2014    9       21    17   8    7.29   501.0    6.7      50.957
2014    9       21    17  13    7.29   501.2    6.7      50.984
2014    9       21    17  18    7.29   501.5    6.7      51.011
2014    9       21    17  23    7.29   501.7    6.7      51.037
2014    9       21    17  29    7.29   502.0    6.7      51.063
2014    9       21    17  34    7.29   502.2    6.7      51.088
2014    9       21    17  39    7.30   502.4    6.7      51.114
2014    9       21    17  44    7.30   502.7    6.7      51.140
2014    9       21    17  50    7.30   502.9    6.6      51.166
2014    9       21    17  55    7.30   503.1    6.6      51.193
2014    9       21    18   0    7.30   503.4    6.6      51.220
2014    9       21    18   6    7.30   503.6    6.6      51.247
2014    9       21    18  11    7.30   503.9    6.6      51.275
2014    9       21    18  16    7.30   504.1    6.6      51.304
2014    9       21    18  21    7.30   504.4    6.6      51.333
2014    9       21    18  27    7.31   504.7    6.6      51.363
2014    9       21    18  32    7.31   504.9    6.6      51.393
2014    9       21    18  37    7.31   505.2    6.6      51.423
2014    9       21    18  42    7.31   505.4    6.6      51.453
2014    9       21    18  48    7.31   505.7    6.6      51.482
2014    9       21    18  53    7.31   505.9    6.6      51.511
2014    9       21    18  58    7.31   506.2    6.6      51.539
2014    9       21    19   4    7.31   506.5    6.5      51.567
2014    9       21    19   9    7.31   506.7    6.5      51.594
2014    9       21    19  14    7.31   507.0    6.5      51.621
2014    9       21    19  19    7.32   507.2    6.5      51.648
2014    9       21    19  25    7.32   507.5    6.5      51.674
2014    9       21    19  30    7.32   507.7    6.5      51.700
2014    9       21    19  35    7.32   508.0    6.5      51.726
2014    9       21    19  40    7.32   508.2    6.5      51.751
2014    9       21    19  46    7.32   508.5    6.5      51.777
2014    9       21    19  51    7.32   508.8    6.5      51.803
2014    9       21    19  56    7.32   509.0    6.5      51.828
2014    9       21    20   1    7.32   509.3    6.5      51.854
2014    9       21    20   7    7.32   509.5    6.5      51.879
2014    9       21    20  12    7.32   509.8    6.5      51.905
2014    9       21    20  17    7.32   510.0    6.4      51.930
2014    9       21    20  23    7.32   510.3    6.4      51.956
2014    9       21    20  28    7.32   510.5    6.4      51.982
2014    9       21    20  33    7.32   510.8    6.4      52.009
2014    9       21    20  38    7.32   511.1    6.4      52.036
2014    9       21    20  44    7.32   511.3    6.4      52.064
2014    9       21    20  49    7.32   511.6    6.4      52.093
2014    9       21    20  54    7.32   511.8    6.4      52.121
2014    9       21    21   0    7.32   512.1    6.4      52.150
2014    9       21    21   5    7.32   512.4    6.4      52.178
2014    9       21    21  10    7.32   512.6    6.4      52.205
2014    9       21    21  15    7.32   512.9    6.4      52.232
2014    9       21    21  21    7.32   513.1    6.4      52.258
2014    9       21    21  26    7.32   513.4    6.4      52.283
2014    9       21    21  31    7.32   513.6    6.4      52.308
2014    9       21    21  36    7.32   513.9    6.3      52.333
2014    9       21    21  42    7.32   514.1    6.3      52.357
2014    9       21    21  47    7.32   514.4    6.3      52.380
2014    9       21    21  52    7.32   514.6    6.3      52.403
2014    9       21    21  57    7.32   514.9    6.3      52.425
2014    9       21    22   3    7.32   515.2    6.3      52.447
2014    9       21    22   8    7.32   515.4    6.3      52.468
2014    9       21    22  13    7.31   515.7    6.3      52.489
2014    9       21    22  19    7.31   515.9    6.3      52.508
2014    9       21    22  24    7.31   516.2    6.3      52.528
2014    9       21    22  29    7.31   516.4    6.3      52.546
2014    9       21    22  34    7.31   516.7    6.3      52.564
2014    9       21    22  40    7.31   516.9    6.2      52.581
2014    9       21    22  45    7.31   517.2    6.2      52.596
2014    9       21    22  50    7.31   517.4    6.2      52.612
2014    9       21    22  56    7.31   517.7    6.2      52.626
2014    9       21    23   1    7.30   517.9    6.2      52.639
2014    9       21    23   6    7.30   518.2    6.2      52.652
2014    9       21    23  11    7.30   518.4    6.2      52.664
2014    9       21    23  17    7.30   518.6    6.2      52.675
2014    9       21    23  22    7.30   518.9    6.2      52.685
2014    9       21    23  27    7.30   519.1    6.2      52.694
2014    9       21    23  32    7.30   519.4    6.1      52.702
2014    9       21    23  38    7.29   519.6    6.1      52.710
2014    9       21    23  43    7.29   519.8    6.1      52.716
2014    9       21    23  48    7.29   520.1    6.1      52.722
2014    9       21    23  54    7.29   520.3    6.1      52.727
2014    9       21    23  59    7.29   520.5    6.1      52.731
2014    9       22     0   4    7.29   520.8    6.1      52.735
2014    9       22     0   9    7.29   521.0    6.1      52.739
2014    9       22     0  15    7.28   521.3    6.1      52.742
2014    9       22     0  20    7.28   521.5    6.1      52.744
2014    9       22     0  25    7.28   521.7    6.1      52.746
2014    9       22     0  31    7.28   521.9    6.0      52.747
2014    9       22     0  36    7.28   522.2    6.0      52.748
2014    9       22     0  41    7.28   522.4    6.0      52.748
2014    9       22     0  46    7.27   522.6    6.0      52.747
2014    9       22     0  52    7.27   522.8    6.0      52.746
2014    9       22     0  57    7.27   523.0    6.0      52.746
2014    9       22     1   2    7.27   523.2    6.0      52.746
2014    9       22     1   7    7.27   523.4    6.0      52.746
2014    9       22     1  13    7.27   523.6    6.0      52.746
2014    9       22     1  18    7.27   523.8    6.0      52.747
2014    9       22     1  23    7.26   524.0    6.0      52.749
2014    9       22     1  29    7.26   524.2    5.9      52.751
2014    9       22     1  34    7.26   524.4    5.9      52.754
2014    9       22     1  39    7.26   524.6    5.9      52.758
2014    9       22     1  44    7.26   524.8    5.9      52.763
2014    9       22     1  50    7.26   525.0    5.9      52.769
2014    9       22     1  55    7.26   525.3    5.9      52.776
2014    9       22     2   0    7.26   525.5    5.9      52.784
2014    9       22     2   6    7.25   525.7    5.9      52.791
2014    9       22     2  11    7.25   525.9    5.9      52.798
2014    9       22     2  16    7.25   526.1    5.9      52.805
2014    9       22     2  21    7.25   526.4    5.9      52.811
2014    9       22     2  27    7.25   526.6    5.9      52.816
2014    9       22     2  32    7.25   526.8    5.8      52.820
2014    9       22     2  37    7.25   527.0    5.8      52.823
2014    9       22     2  42    7.24   527.2    5.8      52.825
2014    9       22     2  48    7.24   527.4    5.8      52.825
2014    9       22     2  53    7.24   527.6    5.8      52.826
2014    9       22     2  58    7.24   527.8    5.8      52.825
2014    9       22     3   4    7.24   528.1    5.8      52.825
2014    9       22     3   9    7.24   528.3    5.8      52.823
2014    9       22     3  14    7.23   528.5    5.8      52.822
2014    9       22     3  19    7.23   528.7    5.8      52.819
2014    9       22     3  25    7.23   528.9    5.8      52.817
2014    9       22     3  30    7.23   529.1    5.7      52.813
2014    9       22     3  35    7.23   529.3    5.7      52.810
2014    9       22     3  41    7.22   529.5    5.7      52.806
2014    9       22     3  46    7.22   529.7    5.7      52.802
2014    9       22     3  51    7.22   529.9    5.7      52.797
2014    9       22     3  56    7.22   530.1    5.7      52.792
2014    9       22     4   2    7.21   530.3    5.7      52.786
2014    9       22     4   7    7.21   530.5    5.7      52.779
2014    9       22     4  12    7.21   530.6    5.7      52.772
2014    9       22     4  17    7.21   530.8    5.7      52.764
2014    9       22     4  23    7.20   531.0    5.7      52.755
2014    9       22     4  28    7.20   531.2    5.6      52.746
2014    9       22     4  33    7.20   531.4    5.6      52.737
2014    9       22     4  39    7.20   531.5    5.6      52.728
2014    9       22     4  44    7.19   531.7    5.6      52.718
2014    9       22     4  49    7.19   531.9    5.6      52.708
2014    9       22     4  54    7.19   532.0    5.6      52.697
2014    9       22     5   0    7.19   532.2    5.6      52.686
2014    9       22     5   5    7.18   532.3    5.6      52.675
2014    9       22     5  10    7.18   532.5    5.6      52.664
2014    9       22     5  15    7.18   532.7    5.6      52.653
2014    9       22     5  21    7.18   532.8    5.6      52.641
2014    9       22     5  26    7.17   533.0    5.6      52.630
2014    9       22     5  31    7.17   533.1    5.5      52.619
2014    9       22     5  37    7.17   533.3    5.5      52.607
2014    9       22     5  42    7.17   533.4    5.5      52.596
2014    9       22     5  47    7.16   533.6    5.5      52.584
2014    9       22     5  52    7.16   533.7    5.5      52.573
2014    9       22     5  58    7.16   533.9    5.5      52.561
2014    9       22     6   3    7.16   534.0    5.5      52.550
2014    9       22     6   8    7.15   534.2    5.5      52.540
2014    9       22     6  14    7.15   534.3    5.5      52.530
2014    9       22     6  19    7.15   534.4    5.5      52.520
2014    9       22     6  24    7.15   534.6    5.5      52.511
2014    9       22     6  29    7.14   534.7    5.5      52.502
2014    9       22     6  35    7.14   534.8    5.5      52.493
2014    9       22     6  40    7.14   535.0    5.5      52.485
2014    9       22     6  45    7.14   535.1    5.5      52.478
2014    9       22     6  51    7.13   535.2    5.5      52.471
2014    9       22     6  56    7.13   535.3    5.4      52.465
2014    9       22     7   1    7.13   535.5    5.4      52.458
2014    9       22     7   6    7.13   535.6    5.4      52.452
2014    9       22     7  12    7.13   535.7    5.4      52.446
2014    9       22     7  17    7.12   535.9    5.4      52.439
2014    9       22     7  22    7.12   536.0    5.4      52.432
2014    9       22     7  27    7.12   536.1    5.4      52.424
2014    9       22     7  33    7.12   536.2    5.4      52.416
2014    9       22     7  38    7.12   536.3    5.4      52.408
2014    9       22     7  43    7.11   536.4    5.4      52.400
2014    9       22     7  49    7.11   536.6    5.4      52.392
2014    9       22     7  54    7.11   536.7    5.4      52.385
2014    9       22     7  59    7.11   536.8    5.4      52.377
2014    9       22     8   4    7.11   536.9    5.4      52.370
2014    9       22     8  10    7.10   537.0    5.4      52.363
2014    9       22     8  15    7.10   537.1    5.4      52.357
2014    9       22     8  20    7.10   537.2    5.4      52.351
2014    9       22     8  26    7.10   537.3    5.4      52.345
2014    9       22     8  31    7.10   537.4    5.4      52.340
2014    9       22     8  36    7.10   537.5    5.4      52.336
2014    9       22     8  41    7.09   537.6    5.3      52.332
2014    9       22     8  47    7.09   537.7    5.3      52.329
2014    9       22     8  52    7.09   537.8    5.3      52.326
2014    9       22     8  57    7.09   537.9    5.3      52.323
2014    9       22     9   2    7.09   538.0    5.3      52.321
2014    9       22     9   8    7.09   538.1    5.3      52.319
2014    9       22     9  13    7.08   538.2    5.3      52.316
2014    9       22     9  18    7.08   538.3    5.3      52.313
2014    9       22     9  24    7.08   538.4    5.3      52.309
2014    9       22     9  29    7.08   538.5    5.3      52.305
2014    9       22     9  34    7.08   538.7    5.3      52.300
2014    9       22     9  39    7.08   538.8    5.3      52.295
2014    9       22     9  45    7.07   538.9    5.3      52.290
2014    9       22     9  50    7.07   539.0    5.3      52.284
2014    9       22     9  55    7.07   539.1    5.3      52.278
2014    9       22    10   0    7.07   539.2    5.3      52.272
2014    9       22    10   6    7.07   539.3    5.3      52.265
2014    9       22    10  11    7.06   539.4    5.3      52.258
2014    9       22    10  16    7.06   539.5    5.3      52.251
2014    9       22    10  22    7.06   539.6    5.3      52.243
2014    9       22    10  27    7.06   539.7    5.2      52.235
2014    9       22    10  32    7.06   539.8    5.2      52.227
2014    9       22    10  37    7.05   539.9    5.2      52.219
2014    9       22    10  43    7.05   540.0    5.2      52.211
2014    9       22    10  48    7.05   540.1    5.2      52.202
2014    9       22    10  53    7.05   540.2    5.2      52.194
2014    9       22    10  59    7.05   540.3    5.2      52.185
2014    9       22    11   4    7.04   540.4    5.2      52.176
2014    9       22    11   9    7.04   540.5    5.2      52.168
2014    9       22    11  14    7.04   540.6    5.2      52.159
2014    9       22    11  20    7.04   540.7    5.2      52.150
2014    9       22    11  25    7.04   540.8    5.2      52.141
2014    9       22    11  30    7.03   540.9    5.2      52.132
2014    9       22    11  35    7.03   541.0    5.2      52.123
2014    9       22    11  41    7.03   541.1    5.2      52.114
2014    9       22    11  46    7.03   541.2    5.2      52.105
2014    9       22    11  51    7.03   541.3    5.2      52.097
2014    9       22    11  57    7.02   541.4    5.2      52.088
2014    9       22    12   2    7.02   541.5    5.2      52.079
2014    9       22    12   7    7.02   541.6    5.1      52.071
2014    9       22    12  12    7.02   541.7    5.1      52.062
2014    9       22    12  18    7.02   541.8    5.1      52.054
2014    9       22    12  23    7.01   541.9    5.1      52.046
2014    9       22    12  28    7.01   541.9    5.1      52.039
2014    9       22    12  34    7.01   542.0    5.1      52.032
2014    9       22    12  39    7.01   542.1    5.1      52.025
2014    9       22    12  44    7.01   542.2    5.1      52.019
2014    9       22    12  49    7.01   542.3    5.1      52.013
2014    9       22    12  55    7.00   542.3    5.1      52.008
2014    9       22    13   0    7.00   542.4    5.1      52.004
2014    9       22    13   5    7.00   542.5    5.1      52.000
2014    9       22    13  10    7.00   542.5    5.1      51.998
2014    9       22    13  16    7.00   542.6    5.1      51.996
2014    9       22    13  21    7.00   542.7    5.1      51.995
2014    9       22    13  26    6.99   542.8    5.1      51.995
2014    9       22    13  32    6.99   542.8    5.1      51.995
2014    9       22    13  37    6.99   542.9    5.1      51.996
2014    9       22    13  42    6.99   543.0    5.1      51.998
2014    9       22    13  47    6.99   543.0    5.1      52.001
2014    9       22    13  53    6.99   543.1    5.1      52.005
2014    9       22    13  58    6.99   543.2    5.1      52.010
2014    9       22    14   3    6.99   543.3    5.1      52.014
2014    9       22    14   9    6.99   543.3    5.1      52.019
2014    9       22    14  14    6.98   543.4    5.1      52.025
2014    9       22    14  19    6.98   543.5    5.1      52.030
2014    9       22    14  24    6.98   543.6    5.1      52.035
2014    9       22    14  30    6.98   543.7    5.1      52.039
2014    9       22    14  35    6.98   543.7    5.1      52.043
2014    9       22    14  40    6.98   543.8    5.1      52.046
2014    9       22    14  45    6.98   543.9    5.1      52.049
2014    9       22    14  51    6.98   544.0    5.1      52.051
2014    9       22    14  56    6.98   544.1    5.1      52.053
2014    9       22    15   1    6.98   544.2    5.1      52.055
2014    9       22    15   7    6.98   544.2    5.1      52.057
2014    9       22    15  12    6.97   544.3    5.1      52.058
2014    9       22    15  17    6.97   544.4    5.1      52.060
2014    9       22    15  22    6.97   544.5    5.1      52.061
2014    9       22    15  28    6.97   544.6    5.1      52.062
2014    9       22    15  33    6.97   544.7    5.1      52.064
2014    9       22    15  38    6.97   544.7    5.1      52.065
2014    9       22    15  44    6.97   544.8    5.0      52.066
2014    9       22    15  49    6.97   544.9    5.0      52.068
2014    9       22    15  54    6.97   545.0    5.0      52.070
2014    9       22    15  59    6.97   545.1    5.0      52.072
2014    9       22    16   5    6.97   545.2    5.0      52.075
2014    9       22    16  10    6.97   545.2    5.0      52.078
2014    9       22    16  15    6.97   545.3    5.0      52.082
2014    9       22    16  20    6.96   545.4    5.0      52.086
2014    9       22    16  26    6.96   545.5    5.0      52.090
2014    9       22    16  31    6.96   545.6    5.0      52.095
2014    9       22    16  36    6.96   545.7    5.0      52.100
2014    9       22    16  42    6.96   545.8    5.0      52.106
2014    9       22    16  47    6.96   545.8    5.0      52.113
2014    9       22    16  52    6.96   545.9    5.0      52.120
2014    9       22    16  57    6.96   546.0    5.0      52.128
2014    9       22    17   3    6.96   546.1    5.0      52.136
2014    9       22    17   8    6.96   546.2    5.0      52.145
2014    9       22    17  13    6.96   546.3    5.0      52.153
2014    9       22    17  19    6.96   546.4    5.0      52.161
2014    9       22    17  24    6.95   546.5    5.0      52.169
2014    9       22    17  29    6.95   546.6    5.0      52.177
2014    9       22    17  34    6.95   546.6    5.0      52.184
2014    9       22    17  40    6.95   546.7    5.0      52.191
2014    9       22    17  45    6.95   546.8    5.0      52.197
2014    9       22    17  50    6.95   546.9    5.0      52.204
2014    9       22    17  55    6.95   547.0    5.0      52.210
2014    9       22    18   1    6.95   547.1    5.0      52.216
2014    9       22    18   6    6.95   547.2    5.0      52.222
2014    9       22    18  11    6.95   547.3    5.0      52.227
2014    9       22    18  17    6.95   547.3    5.0      52.233
2014    9       22    18  22    6.95   547.4    5.0      52.238
2014    9       22    18  27    6.94   547.5    5.0      52.244
2014    9       22    18  32    6.94   547.6    5.0      52.249
2014    9       22    18  38    6.94   547.7    5.0      52.254
2014    9       22    18  43    6.94   547.8    5.0      52.259
2014    9       22    18  48    6.94   547.9    5.0      52.264
2014    9       22    18  53    6.94   548.0    5.0      52.269
2014    9       22    18  59    6.94   548.0    5.0      52.274
2014    9       22    19   4    6.94   548.1    5.0      52.279
2014    9       22    19   9    6.94   548.2    5.0      52.284
2014    9       22    19  15    6.94   548.3    4.9      52.289
2014    9       22    19  20    6.94   548.4    4.9      52.294
2014    9       22    19  25    6.94   548.5    4.9      52.299
2014    9       22    19  30    6.93   548.6    4.9      52.304
2014    9       22    19  36    6.93   548.7    4.9      52.309
2014    9       22    19  41    6.93   548.7    4.9      52.314
2014    9       22    19  46    6.93   548.8    4.9      52.319
2014    9       22    19  52    6.93   548.9    4.9      52.324
2014    9       22    19  57    6.93   549.0    4.9      52.329
2014    9       22    20   2    6.93   549.1    4.9      52.334
2014    9       22    20   7    6.93   549.2    4.9      52.340
2014    9       22    20  13    6.93   549.3    4.9      52.345
2014    9       22    20  18    6.93   549.4    4.9      52.350
2014    9       22    20  23    6.93   549.5    4.9      52.355
2014    9       22    20  28    6.93   549.5    4.9      52.360
2014    9       22    20  34    6.93   549.6    4.9      52.366
2014    9       22    20  39    6.93   549.7    4.9      52.371
2014    9       22    20  44    6.93   549.8    4.9      52.376
2014    9       22    20  50    6.93   549.9    4.9      52.382
2014    9       22    20  55    6.93   550.0    4.9      52.387
2014    9       22    21   0    6.92   550.1    4.9      52.392
2014    9       22    21   5    6.92   550.2    4.9      52.398
2014    9       22    21  11    6.92   550.3    4.9      52.403
2014    9       22    21  16    6.92   550.3    4.9      52.409
2014    9       22    21  21    6.92   550.4    4.9      52.414
2014    9       22    21  27    6.92   550.5    4.9      52.420
2014    9       22    21  32    6.92   550.6    4.9      52.425
2014    9       22    21  37    6.92   550.7    4.9      52.431
2014    9       22    21  42    6.92   550.8    4.9      52.437
2014    9       22    21  48    6.92   550.9    4.9      52.443
2014    9       22    21  53    6.92   551.0    4.9      52.448
2014    9       22    21  58    6.92   551.1    4.9      52.454
2014    9       22    22   3    6.92   551.2    4.9      52.460
2014    9       22    22   9    6.92   551.2    4.9      52.466
2014    9       22    22  14    6.92   551.3    4.9      52.472
2014    9       22    22  19    6.92   551.4    4.9      52.478
2014    9       22    22  25    6.92   551.5    4.9      52.485
2014    9       22    22  30    6.92   551.6    4.9      52.491
2014    9       22    22  35    6.92   551.7    4.9      52.498
2014    9       22    22  40    6.92   551.8    4.9      52.505
2014    9       22    22  46    6.92   551.9    4.9      52.512
2014    9       22    22  51    6.92   552.0    4.9      52.519
2014    9       22    22  56    6.92   552.1    4.9      52.527
2014    9       22    23   2    6.92   552.2    4.9      52.535
2014    9       22    23   7    6.92   552.2    4.9      52.543
2014    9       22    23  12    6.92   552.3    4.9      52.551
2014    9       22    23  17    6.92   552.4    4.9      52.561
2014    9       22    23  23    6.92   552.5    4.9      52.570
2014    9       22    23  28    6.92   552.6    4.9      52.581
2014    9       22    23  33    6.92   552.7    4.9      52.592
2014    9       22    23  38    6.92   552.8    4.9      52.603
2014    9       22    23  44    6.92   552.9    4.9      52.616
2014    9       22    23  49    6.92   553.0    4.9      52.630
2014    9       22    23  54    6.92   553.1    4.9      52.644
2014    9       23     0   0    6.92   553.2    4.9      52.660
2014    9       23     0   5    6.92   553.3    4.9      52.677
2014    9       23     0  10    6.92   553.4    4.9      52.695
2014    9       23     0  15    6.92   553.5    4.9      52.715
2014    9       23     0  21    6.92   553.6    4.9      52.736
2014    9       23     0  26    6.92   553.7    4.8      52.758
2014    9       23     0  31    6.91   553.8    4.8      52.782
2014    9       23     0  37    6.91   553.9    4.8      52.806
2014    9       23     0  42    6.91   554.0    4.8      52.830
2014    9       23     0  47    6.91   554.1    4.8      52.853
2014    9       23     0  52    6.91   554.2    4.8      52.877
2014    9       23     0  58    6.91   554.3    4.8      52.901
2014    9       23     1   3    6.91   554.4    4.8      52.923
2014    9       23     1   8    6.91   554.5    4.8      52.946
2014    9       23     1  13    6.91   554.6    4.8      52.968
2014    9       23     1  19    6.91   554.7    4.8      52.990
2014    9       23     1  24    6.91   554.8    4.8      53.011
2014    9       23     1  29    6.91   554.9    4.8      53.032
2014    9       23     1  35    6.91   555.0    4.8      53.052
2014    9       23     1  40    6.91   555.1    4.8      53.072
2014    9       23     1  45    6.91   555.2    4.8      53.091
2014    9       23     1  50    6.91   555.3    4.8      53.110
2014    9       23     1  56    6.91   555.4    4.8      53.128
2014    9       23     2   1    6.91   555.5    4.8      53.146
2014    9       23     2   6    6.91   555.6    4.8      53.164
2014    9       23     2  11    6.91   555.8    4.8      53.181
2014    9       23     2  17    6.91   555.9    4.8      53.198
2014    9       23     2  22    6.91   556.0    4.8      53.214
2014    9       23     2  27    6.91   556.1    4.8      53.230
2014    9       23     2  33    6.91   556.2    4.8      53.245
2014    9       23     2  38    6.91   556.3    4.8      53.261
2014    9       23     2  43    6.91   556.4    4.8      53.276
2014    9       23     2  48    6.91   556.5    4.8      53.290
2014    9       23     2  54    6.91   556.6    4.8      53.305
2014    9       23     2  59    6.91   556.7    4.8      53.319
2014    9       23     3   4    6.91   556.8    4.8      53.333
2014    9       23     3  10    6.91   556.9    4.8      53.346
2014    9       23     3  15    6.91   557.0    4.8      53.360
2014    9       23     3  20    6.91   557.1    4.8      53.373
2014    9       23     3  25    6.91   557.2    4.8      53.387
2014    9       23     3  31    6.91   557.3    4.8      53.400
2014    9       23     3  36    6.91   557.4    4.8      53.413
2014    9       23     3  41    6.91   557.5    4.8      53.427
2014    9       23     3  46    6.91   557.6    4.8      53.440
2014    9       23     3  52    6.91   557.7    4.8      53.453
2014    9       23     3  57    6.91   557.8    4.8      53.467
2014    9       23     4   2    6.91   557.9    4.8      53.480
2014    9       23     4   8    6.91   558.0    4.8      53.493
2014    9       23     4  13    6.91   558.1    4.8      53.507
2014    9       23     4  18    6.91   558.2    4.8      53.521
2014    9       23     4  23    6.91   558.3    4.8      53.535
2014    9       23     4  29    6.91   558.4    4.8      53.549
2014    9       23     4  34    6.91   558.5    4.8      53.563
2014    9       23     4  39    6.91   558.6    4.8      53.577
2014    9       23     4  45    6.91   558.7    4.8      53.591
2014    9       23     4  50    6.91   558.8    4.8      53.606
2014    9       23     4  55    6.91   559.0    4.8      53.620
2014    9       23     5   0    6.91   559.1    4.8      53.635
2014    9       23     5   6    6.91   559.2    4.8      53.649
2014    9       23     5  11    6.91   559.3    4.7      53.663
2014    9       23     5  16    6.91   559.4    4.7      53.677
2014    9       23     5  21    6.91   559.5    4.7      53.691
2014    9       23     5  27    6.91   559.6    4.7      53.705
2014    9       23     5  32    6.91   559.8    4.7      53.719
2014    9       23     5  37    6.91   559.9    4.7      53.733
2014    9       23     5  43    6.91   560.0    4.7      53.746
2014    9       23     5  48    6.91   560.1    4.7      53.760
2014    9       23     5  53    6.91   560.2    4.7      53.774
2014    9       23     5  58    6.91   560.3    4.7      53.787
2014    9       23     6   4    6.91   560.4    4.7      53.801
2014    9       23     6   9    6.91   560.6    4.7      53.815
2014    9       23     6  14    6.91   560.7    4.7      53.829
2014    9       23     6  20    6.91   560.8    4.7      53.843
2014    9       23     6  25    6.91   560.9    4.7      53.857
2014    9       23     6  30    6.91   561.0    4.7      53.871
2014    9       23     6  35    6.91   561.1    4.7      53.886
2014    9       23     6  41    6.91   561.3    4.7      53.901
2014    9       23     6  46    6.91   561.4    4.7      53.916
2014    9       23     6  51    6.91   561.5    4.7      53.931
2014    9       23     6  56    6.91   561.6    4.7      53.948
2014    9       23     7   2    6.91   561.7    4.7      53.965
2014    9       23     7   7    6.91   561.8    4.7      53.982
2014    9       23     7  12    6.91   562.0    4.7      54.001
2014    9       23     7  18    6.91   562.1    4.7      54.020
2014    9       23     7  23    6.91   562.2    4.7      54.041
2014    9       23     7  28    6.92   562.3    4.7      54.063
2014    9       23     7  33    6.92   562.4    4.7      54.086
2014    9       23     7  39    6.92   562.6    4.7      54.111
2014    9       23     7  44    6.92   562.7    4.7      54.138
2014    9       23     7  49    6.92   562.8    4.7      54.167
2014    9       23     7  54    6.92   563.0    4.7      54.198
2014    9       23     8   0    6.92   563.1    4.7      54.231
2014    9       23     8   5    6.92   563.2    4.7      54.265
2014    9       23     8  10    6.92   563.4    4.7      54.301
2014    9       23     8  16    6.92   563.5    4.7      54.338
2014    9       23     8  21    6.92   563.6    4.7      54.375
2014    9       23     8  26    6.92   563.8    4.7      54.413
2014    9       23     8  31    6.92   563.9    4.7      54.450
2014    9       23     8  37    6.92   564.0    4.7      54.487
2014    9       23     8  42    6.92   564.2    4.7      54.523
2014    9       23     8  47    6.92   564.3    4.7      54.559
2014    9       23     8  53    6.92   564.4    4.7      54.595
2014    9       23     8  58    6.92   564.6    4.7      54.630
2014    9       23     9   3    6.92   564.7    4.7      54.665
2014    9       23     9   8    6.92   564.8    4.7      54.699
2014    9       23     9  14    6.92   565.0    4.7      54.732
2014    9       23     9  19    6.92   565.1    4.7      54.764
2014    9       23     9  24    6.92   565.2    4.7      54.795
2014    9       23     9  29    6.92   565.4    4.7      54.826
2014    9       23     9  35    6.92   565.5    4.7      54.856
2014    9       23     9  40    6.92   565.6    4.7      54.885
2014    9       23     9  45    6.92   565.7    4.7      54.913
2014    9       23     9  51    6.92   565.9    4.7      54.941
2014    9       23     9  56    6.92   566.0    4.7      54.968
2014    9       23    10   1    6.92   566.1    4.7      54.995
2014    9       23    10   6    6.92   566.3    4.7      55.021
2014    9       23    10  12    6.92   566.4    4.7      55.047
2014    9       23    10  17    6.92   566.5    4.7      55.072
2014    9       23    10  22    6.92   566.7    4.7      55.097
2014    9       23    10  27    6.92   566.8    4.7      55.122
2014    9       23    10  33    6.92   566.9    4.7      55.146
2014    9       23    10  38    6.92   567.0    4.7      55.171
2014    9       23    10  43    6.92   567.2    4.7      55.194
2014    9       23    10  49    6.92   567.3    4.7      55.218
2014    9       23    10  54    6.92   567.4    4.7      55.242
2014    9       23    10  59    6.92   567.6    4.7      55.266
2014    9       23    11   4    6.92   567.7    4.7      55.289
2014    9       23    11  10    6.92   567.8    4.7      55.313
2014    9       23    11  15    6.92   567.9    4.7      55.337
2014    9       23    11  20    6.92   568.1    4.7      55.361
2014    9       23    11  26    6.92   568.2    4.7      55.385
2014    9       23    11  31    6.92   568.3    4.7      55.409
2014    9       23    11  36    6.93   568.5    4.7      55.434
2014    9       23    11  41    6.93   568.6    4.6      55.459
2014    9       23    11  47    6.93   568.8    4.6      55.484
2014    9       23    11  52    6.93   568.9    4.6      55.510
2014    9       23    11  57    6.93   569.1    4.6      55.535
2014    9       23    12   2    6.93   569.2    4.6      55.561
2014    9       23    12   8    6.93   569.3    4.6      55.587
2014    9       23    12  13    6.93   569.5    4.6      55.614
2014    9       23    12  18    6.93   569.7    4.6      55.641
2014    9       23    12  24    6.93   569.8    4.6      55.668
2014    9       23    12  29    6.93   570.0    4.6      55.694
2014    9       23    12  34    6.93   570.1    4.6      55.721
2014    9       23    12  39    6.93   570.3    4.6      55.746
2014    9       23    12  45    6.93   570.5    4.6      55.771
2014    9       23    12  50    6.93   570.6    4.6      55.796
2014    9       23    12  55    6.93   570.8    4.6      55.820
2014    9       23    13   1    6.93   571.0    4.6      55.843
2014    9       23    13   6    6.93   571.1    4.6      55.866
2014    9       23    13  11    6.93   571.3    4.6      55.889
2014    9       23    13  16    6.93   571.4    4.6      55.911
2014    9       23    13  22    6.93   571.6    4.6      55.933
2014    9       23    13  27    6.93   571.8    4.6      55.955
2014    9       23    13  32    6.93   571.9    4.6      55.977
2014    9       23    13  37    6.93   572.1    4.6      55.998
2014    9       23    13  43    6.94   572.3    4.6      56.019
2014    9       23    13  48    6.94   572.4    4.6      56.040
2014    9       23    13  53    6.94   572.6    4.6      56.061
2014    9       23    13  59    6.94   572.8    4.6      56.082
2014    9       23    14   4    6.94   572.9    4.6      56.103
2014    9       23    14   9    6.94   573.1    4.6      56.124
2014    9       23    14  14    6.94   573.2    4.6      56.146
2014    9       23    14  20    6.94   573.4    4.6      56.167
2014    9       23    14  25    6.94   573.6    4.6      56.189
2014    9       23    14  30    6.94   573.7    4.6      56.211
2014    9       23    14  35    6.94   573.9    4.6      56.234
2014    9       23    14  41    6.94   574.1    4.6      56.257
2014    9       23    14  46    6.94   574.2    4.6      56.281
2014    9       23    14  51    6.94   574.4    4.6      56.307
2014    9       23    14  57    6.94   574.6    4.6      56.333
2014    9       23    15   2    6.94   574.7    4.6      56.360
2014    9       23    15   7    6.94   574.9    4.6      56.389
2014    9       23    15  12    6.94   575.1    4.6      56.419
2014    9       23    15  18    6.94   575.2    4.6      56.450
2014    9       23    15  23    6.94   575.4    4.6      56.484
2014    9       23    15  28    6.94   575.6    4.6      56.520
2014    9       23    15  34    6.94   575.8    4.6      56.556
2014    9       23    15  39    6.94   575.9    4.6      56.594
2014    9       23    15  44    6.94   576.1    4.6      56.632
2014    9       23    15  49    6.94   576.3    4.6      56.672
2014    9       23    15  55    6.94   576.5    4.6      56.712
2014    9       23    16   0    6.94   576.6    4.6      56.752
2014    9       23    16   5    6.94   576.8    4.6      56.794
2014    9       23    16  10    6.94   577.0    4.6      56.835
2014    9       23    16  16    6.94   577.2    4.6      56.877
2014    9       23    16  21    6.94   577.3    4.6      56.919
2014    9       23    16  26    6.94   577.5    4.6      56.959
2014    9       23    16  32    6.94   577.7    4.6      56.999
2014    9       23    16  37    6.94   577.9    4.6      57.037
2014    9       23    16  42    6.94   578.0    4.6      57.075
2014    9       23    16  47    6.94   578.2    4.6      57.111
2014    9       23    16  53    6.94   578.4    4.5      57.147
2014    9       23    16  58    6.94   578.6    4.5      57.182
2014    9       23    17   3    6.94   578.7    4.5      57.216
2014    9       23    17   8    6.94   578.9    4.5      57.250
2014    9       23    17  14    6.94   579.1    4.5      57.283
2014    9       23    17  19    6.94   579.3    4.5      57.315
2014    9       23    17  24    6.94   579.4    4.5      57.347
2014    9       23    17  30    6.94   579.6    4.5      57.378
2014    9       23    17  35    6.94   579.8    4.5      57.409
2014    9       23    17  40    6.94   579.9    4.5      57.440
2014    9       23    17  45    6.94   580.1    4.5      57.471
2014    9       23    17  51    6.94   580.3    4.5      57.502
2014    9       23    17  56    6.95   580.5    4.5      57.533
2014    9       23    18   1    6.95   580.6    4.5      57.564
2014    9       23    18   6    6.95   580.8    4.5      57.595
2014    9       23    18  12    6.95   581.0    4.5      57.627
2014    9       23    18  17    6.95   581.2    4.5      57.660
2014    9       23    18  22    6.95   581.3    4.5      57.693
2014    9       23    18  28    6.95   581.5    4.5      57.727
2014    9       23    18  33    6.95   581.7    4.5      57.762
2014    9       23    18  38    6.95   581.9    4.5      57.797
2014    9       23    18  43    6.95   582.1    4.5      57.834
2014    9       23    18  49    6.95   582.2    4.5      57.873
2014    9       23    18  54    6.95   582.4    4.5      57.912
2014    9       23    18  59    6.95   582.6    4.5      57.953
2014    9       23    19   5    6.95   582.8    4.5      57.995
2014    9       23    19  10    6.95   583.0    4.5      58.037
2014    9       23    19  15    6.95   583.2    4.5      58.078
2014    9       23    19  20    6.95   583.4    4.5      58.120
2014    9       23    19  26    6.95   583.6    4.5      58.162
2014    9       23    19  31    6.95   583.8    4.5      58.203
2014    9       23    19  36    6.96   584.0    4.5      58.245
2014    9       23    19  42    6.96   584.2    4.5      58.286
2014    9       23    19  47    6.96   584.5    4.5      58.327
2014    9       23    19  52    6.96   584.7    4.5      58.367
2014    9       23    19  57    6.96   584.9    4.5      58.406
2014    9       23    20   3    6.96   585.1    4.5      58.445
2014    9       23    20   8    6.96   585.3    4.5      58.483
2014    9       23    20  13    6.96   585.5    4.5      58.521
2014    9       23    20  18    6.96   585.8    4.5      58.559
2014    9       23    20  24    6.96   586.0    4.5      58.595
2014    9       23    20  29    6.96   586.2    4.5      58.632
2014    9       23    20  34    6.96   586.4    4.5      58.668
2014    9       23    20  40    6.96   586.6    4.5      58.703
2014    9       23    20  45    6.96   586.9    4.5      58.738
2014    9       23    20  50    6.96   587.1    4.5      58.772
2014    9       23    20  55    6.96   587.3    4.5      58.805
2014    9       23    21   1    6.96   587.5    4.4      58.837
2014    9       23    21   6    6.96   587.7    4.4      58.870
2014    9       23    21  11    6.96   588.0    4.4      58.901
2014    9       23    21  16    6.96   588.2    4.4      58.932
2014    9       23    21  22    6.96   588.4    4.4      58.963
2014    9       23    21  27    6.96   588.6    4.4      58.994
2014    9       23    21  32    6.96   588.8    4.4      59.025
2014    9       23    21  38    6.96   589.1    4.4      59.056
2014    9       23    21  43    6.96   589.3    4.4      59.087
2014    9       23    21  48    6.96   589.5    4.4      59.118
2014    9       23    21  53    6.96   589.7    4.4      59.150
2014    9       23    21  59    6.96   590.0    4.4      59.182
2014    9       23    22   4    6.96   590.2    4.4      59.215
2014    9       23    22   9    6.96   590.4    4.4      59.249
2014    9       23    22  15    6.96   590.6    4.4      59.284
2014    9       23    22  20    6.96   590.9    4.4      59.319
2014    9       23    22  25    6.96   591.1    4.4      59.355
2014    9       23    22  30    6.96   591.3    4.4      59.391
2014    9       23    22  36    6.96   591.6    4.4      59.427
2014    9       23    22  41    6.96   591.8    4.4      59.463
2014    9       23    22  46    6.96   592.0    4.4      59.499
2014    9       23    22  51    6.96   592.3    4.4      59.536
2014    9       23    22  57    6.96   592.5    4.4      59.573
2014    9       23    23   2    6.96   592.7    4.4      59.610
2014    9       23    23   7    6.96   593.0    4.4      59.648
2014    9       23    23  13    6.96   593.2    4.4      59.687
2014    9       23    23  18    6.96   593.4    4.4      59.726
2014    9       23    23  23    6.96   593.7    4.4      59.765
2014    9       23    23  28    6.96   593.9    4.4      59.804
2014    9       23    23  34    6.96   594.1    4.4      59.843
2014    9       23    23  39    6.96   594.4    4.4      59.883
2014    9       23    23  44    6.96   594.6    4.4      59.922
2014    9       23    23  49    6.96   594.8    4.4      59.961
2014    9       23    23  55    6.96   595.1    4.4      59.999
2014    9       24     0   0    6.96   595.3    4.4      60.038
2014    9       24     0   5    6.96   595.6    4.4      60.076
2014    9       24     0  11    6.96   595.8    4.3      60.113
2014    9       24     0  16    6.96   596.0    4.3      60.150
2014    9       24     0  21    6.96   596.3    4.3      60.186
2014    9       24     0  26    6.96   596.5    4.3      60.222
2014    9       24     0  32    6.96   596.7    4.3      60.257
2014    9       24     0  37    6.96   597.0    4.3      60.292
2014    9       24     0  42    6.96   597.2    4.3      60.328
2014    9       24     0  47    6.96   597.5    4.3      60.362
2014    9       24     0  53    6.96   597.7    4.3      60.397
2014    9       24     0  58    6.96   597.9    4.3      60.432
2014    9       24     1   3    6.96   598.2    4.3      60.468
2014    9       24     1   9    6.96   598.4    4.3      60.503
2014    9       24     1  14    6.96   598.7    4.3      60.539
2014    9       24     1  19    6.96   598.9    4.3      60.575
2014    9       24     1  24    6.96   599.1    4.3      60.612
2014    9       24     1  30    6.96   599.4    4.3      60.649
2014    9       24     1  35    6.96   599.6    4.3      60.687
2014    9       24     1  40    6.96   599.9    4.3      60.726
2014    9       24     1  46    6.96   600.1    4.3      60.766
2014    9       24     1  51    6.96   600.4    4.3      60.807
2014    9       24     1  56    6.96   600.6    4.3      60.849
2014    9       24     2   1    6.96   600.8    4.3      60.893
2014    9       24     2   7    6.96   601.1    4.3      60.938
2014    9       24     2  12    6.96   601.3    4.3      60.984
2014    9       24     2  17    6.96   601.6    4.3      61.033
2014    9       24     2  22    6.96   601.8    4.3      61.084
2014    9       24     2  28    6.96   602.1    4.3      61.137
2014    9       24     2  33    6.96   602.3    4.3      61.192
2014    9       24     2  38    6.96   602.6    4.3      61.248
2014    9       24     2  44    6.96   602.8    4.3      61.308
2014    9       24     2  49    6.96   603.1    4.3      61.371
2014    9       24     2  54    6.96   603.3    4.3      61.435
2014    9       24     2  59    6.96   603.6    4.3      61.503
2014    9       24     3   5    6.96   603.8    4.3      61.573
2014    9       24     3  10    6.96   604.1    4.3      61.646
2014    9       24     3  15    6.96   604.4    4.3      61.719
2014    9       24     3  21    6.96   604.6    4.3      61.792
2014    9       24     3  26    6.96   604.9    4.3      61.865
2014    9       24     3  31    6.96   605.1    4.3      61.939
2014    9       24     3  36    6.96   605.4    4.3      62.014
2014    9       24     3  42    6.95   605.7    4.3      62.089
2014    9       24     3  47    6.95   606.0    4.3      62.164
2014    9       24     3  52    6.95   606.2    4.3      62.239
2014    9       24     3  57    6.95   606.5    4.3      62.313
2014    9       24     4   3    6.95   606.8    4.3      62.383
2014    9       24     4   8    6.95   607.1    4.3      62.450
2014    9       24     4  13    6.95   607.3    4.3      62.514
2014    9       24     4  19    6.95   607.6    4.3      62.575
2014    9       24     4  24    6.94   607.9    4.3      62.633
2014    9       24     4  29    6.94   608.2    4.3      62.689
2014    9       24     4  34    6.94   608.4    4.3      62.741
2014    9       24     4  40    6.94   608.7    4.3      62.791
2014    9       24     4  45    6.94   609.0    4.3      62.840
2014    9       24     4  50    6.94   609.3    4.3      62.886
2014    9       24     4  55    6.93   609.5    4.3      62.930
2014    9       24     5   1    6.93   609.8    4.3      62.972
2014    9       24     5   6    6.93   610.1    4.3      63.013
2014    9       24     5  11    6.93   610.3    4.2      63.051
2014    9       24     5  17    6.93   610.6    4.2      63.087
2014    9       24     5  22    6.92   610.9    4.2      63.120
2014    9       24     5  27    6.92   611.2    4.2      63.151
2014    9       24     5  32    6.92   611.4    4.2      63.180
2014    9       24     5  38    6.92   611.7    4.2      63.206
2014    9       24     5  43    6.92   612.0    4.2      63.231
2014    9       24     5  48    6.92   612.2    4.2      63.254
2014    9       24     5  53    6.91   612.5    4.2      63.275
2014    9       24     5  59    6.91   612.8    4.2      63.294
2014    9       24     6   4    6.91   613.0    4.2      63.311
2014    9       24     6   9    6.91   613.3    4.2      63.327
2014    9       24     6  15    6.91   613.5    4.2      63.342
2014    9       24     6  20    6.90   613.8    4.2      63.355
2014    9       24     6  25    6.90   614.1    4.2      63.367
2014    9       24     6  30    6.90   614.3    4.2      63.378
2014    9       24     6  36    6.90   614.6    4.2      63.388
2014    9       24     6  41    6.90   614.8    4.2      63.396
2014    9       24     6  46    6.90   615.1    4.1      63.403
2014    9       24     6  52    6.89   615.3    4.1      63.409
2014    9       24     6  57    6.89   615.6    4.1      63.414
2014    9       24     7   2    6.89   615.8    4.1      63.419
2014    9       24     7   7    6.89   616.1    4.1      63.422
2014    9       24     7  13    6.89   616.3    4.1      63.424
2014    9       24     7  18    6.88   616.6    4.1      63.426
2014    9       24     7  23    6.88   616.8    4.1      63.426
2014    9       24     7  28    6.88   617.0    4.1      63.426
2014    9       24     7  34    6.88   617.3    4.1      63.425
2014    9       24     7  39    6.88   617.5    4.1      63.423
2014    9       24     7  44    6.88   617.8    4.1      63.421
2014    9       24     7  50    6.87   618.0    4.1      63.418
2014    9       24     7  55    6.87   618.2    4.1      63.415
2014    9       24     8   0    6.87   618.5    4.1      63.411
2014    9       24     8   5    6.87   618.7    4.0      63.407
2014    9       24     8  11    6.87   619.0    4.0      63.402
2014    9       24     8  16    6.87   619.2    4.0      63.397
2014    9       24     8  21    6.86   619.4    4.0      63.392
2014    9       24     8  26    6.86   619.7    4.0      63.387
2014    9       24     8  32    6.86   619.9    4.0      63.381
2014    9       24     8  37    6.86   620.1    4.0      63.375
2014    9       24     8  42    6.86   620.4    4.0      63.369
2014    9       24     8  48    6.85   620.6    4.0      63.363
2014    9       24     8  53    6.85   620.8    4.0      63.357
2014    9       24     8  58    6.85   621.1    4.0      63.351
2014    9       24     9   3    6.85   621.3    4.0      63.346
2014    9       24     9   9    6.85   621.5    4.0      63.340
2014    9       24     9  14    6.84   621.7    4.0      63.336
2014    9       24     9  19    6.84   622.0    4.0      63.331
2014    9       24     9  24    6.84   622.2    3.9      63.328
2014    9       24     9  30    6.84   622.4    3.9      63.325
2014    9       24     9  35    6.83   622.7    3.9      63.324
2014    9       24     9  40    6.83   622.9    3.9      63.323
2014    9       24     9  46    6.83   623.1    3.9      63.322
2014    9       24     9  51    6.83   623.3    3.9      63.324
2014    9       24     9  56    6.83   623.5    3.9      63.326
2014    9       24    10   1    6.82   623.7    3.9      63.331
2014    9       24    10   7    6.82   624.0    3.9      63.337
2014    9       24    10  12    6.82   624.2    3.9      63.343
2014    9       24    10  17    6.82   624.4    3.9      63.350
2014    9       24    10  23    6.81   624.6    3.9      63.359
2014    9       24    10  28    6.81   624.8    3.9      63.368
2014    9       24    10  33    6.81   625.0    3.9      63.377
2014    9       24    10  38    6.81   625.2    3.9      63.386
2014    9       24    10  44    6.80   625.5    3.9      63.396
2014    9       24    10  49    6.80   625.7    3.9      63.405
2014    9       24    10  54    6.80   625.9    3.9      63.413
2014    9       24    11   0    6.80   626.1    3.9      63.420
2014    9       24    11   5    6.79   626.3    3.9      63.426
2014    9       24    11  10    6.79   626.6    3.8      63.430
2014    9       24    11  15    6.79   626.8    3.8      63.434
2014    9       24    11  21    6.79   627.0    3.8      63.436
2014    9       24    11  26    6.78   627.2    3.8      63.437
2014    9       24    11  31    6.78   627.4    3.8      63.438
2014    9       24    11  36    6.78   627.6    3.8      63.437
2014    9       24    11  42    6.78   627.8    3.8      63.436
2014    9       24    11  47    6.77   628.0    3.8      63.435
2014    9       24    11  52    6.77   628.2    3.8      63.432
2014    9       24    11  58    6.77   628.4    3.8      63.430
2014    9       24    12   3    6.76   628.6    3.8      63.426
2014    9       24    12   8    6.76   628.8    3.8      63.423
2014    9       24    12  13    6.76   629.0    3.8      63.419
2014    9       24    12  19    6.76   629.2    3.8      63.414
2014    9       24    12  24    6.75   629.4    3.8      63.410
2014    9       24    12  29    6.75   629.6    3.8      63.404
2014    9       24    12  34    6.75   629.8    3.8      63.399
2014    9       24    12  40    6.74   630.0    3.8      63.393
2014    9       24    12  45    6.74   630.2    3.8      63.387
2014    9       24    12  50    6.74   630.4    3.7      63.381
2014    9       24    12  56    6.73   630.5    3.7      63.375
2014    9       24    13   1    6.73   630.7    3.7      63.369
2014    9       24    13   6    6.73   630.9    3.7      63.362
2014    9       24    13  11    6.73   631.1    3.7      63.356
2014    9       24    13  17    6.72   631.3    3.7      63.349
2014    9       24    13  22    6.72   631.4    3.7      63.342
2014    9       24    13  27    6.72   631.6    3.7      63.336
2014    9       24    13  32    6.71   631.8    3.7      63.330
2014    9       24    13  38    6.71   631.9    3.7      63.324
2014    9       24    13  43    6.71   632.1    3.7      63.318
2014    9       24    13  48    6.70   632.3    3.7      63.314
2014    9       24    13  54    6.70   632.4    3.7      63.310
2014    9       24    13  59    6.70   632.6    3.7      63.307
2014    9       24    14   4    6.70   632.7    3.7      63.306
2014    9       24    14   9    6.69   632.9    3.7      63.306
2014    9       24    14  15    6.69   633.1    3.7      63.306
2014    9       24    14  20    6.69   633.2    3.7      63.308
2014    9       24    14  25    6.68   633.4    3.7      63.312
2014    9       24    14  30    6.68   633.6    3.7      63.317
2014    9       24    14  36    6.68   633.7    3.7      63.323
2014    9       24    14  41    6.68   633.9    3.6      63.332
2014    9       24    14  46    6.67   634.0    3.6      63.341
2014    9       24    14  52    6.67   634.2    3.6      63.351
2014    9       24    14  57    6.67   634.3    3.6      63.362
2014    9       24    15   2    6.66   634.5    3.6      63.373
2014    9       24    15   7    6.66   634.6    3.6      63.384
2014    9       24    15  13    6.66   634.8    3.6      63.397
2014    9       24    15  18    6.66   634.9    3.6      63.411
2014    9       24    15  23    6.65   635.1    3.6      63.425
2014    9       24    15  29    6.65   635.2    3.6      63.441
2014    9       24    15  34    6.65   635.4    3.6      63.458
2014    9       24    15  39    6.65   635.5    3.6      63.475
2014    9       24    15  44    6.64   635.6    3.6      63.493
2014    9       24    15  50    6.64   635.8    3.6      63.512
2014    9       24    15  55    6.64   635.9    3.6      63.532
2014    9       24    16   0    6.64   636.1    3.6      63.553
2014    9       24    16   5    6.63   636.2    3.6      63.574
2014    9       24    16  11    6.63   636.3    3.6      63.595
2014    9       24    16  16    6.63   636.5    3.6      63.616
2014    9       24    16  21    6.63   636.6    3.6      63.636
2014    9       24    16  27    6.62   636.8    3.6      63.655
2014    9       24    16  32    6.62   636.9    3.6      63.673
2014    9       24    16  37    6.62   637.0    3.6      63.690
2014    9       24    16  42    6.62   637.2    3.6      63.706
2014    9       24    16  48    6.61   637.3    3.6      63.720
2014    9       24    16  53    6.61   637.4    3.6      63.733
2014    9       24    16  58    6.61   637.6    3.6      63.745
2014    9       24    17   3    6.61   637.7    3.5      63.756
2014    9       24    17   9    6.61   637.8    3.5      63.766
2014    9       24    17  14    6.60   638.0    3.5      63.776
2014    9       24    17  19    6.60   638.1    3.5      63.784
2014    9       24    17  25    6.60   638.2    3.5      63.791
2014    9       24    17  30    6.60   638.4    3.5      63.797
2014    9       24    17  35    6.60   638.5    3.5      63.803
2014    9       24    17  40    6.59   638.6    3.5      63.808
2014    9       24    17  46    6.59   638.8    3.5      63.812
2014    9       24    17  51    6.59   638.9    3.5      63.816
2014    9       24    17  56    6.59   639.0    3.5      63.819
2014    9       24    18   2    6.58   639.1    3.5      63.821
2014    9       24    18   7    6.58   639.3    3.5      63.822
2014    9       24    18  12    6.58   639.4    3.5      63.823
2014    9       24    18  17    6.58   639.5    3.5      63.824
2014    9       24    18  23    6.58   639.6    3.5      63.823
2014    9       24    18  28    6.57   639.8    3.5      63.822
2014    9       24    18  33    6.57   639.9    3.5      63.821
2014    9       24    18  38    6.57   640.0    3.5      63.819
2014    9       24    18  44    6.57   640.1    3.5      63.816
2014    9       24    18  49    6.57   640.3    3.5      63.813
2014    9       24    18  54    6.56   640.4    3.5      63.809
2014    9       24    19   0    6.56   640.5    3.5      63.805
2014    9       24    19   5    6.56   640.6    3.5      63.801
2014    9       24    19  10    6.56   640.7    3.5      63.796
2014    9       24    19  15    6.55   640.9    3.5      63.791
2014    9       24    19  21    6.55   641.0    3.4      63.786
2014    9       24    19  26    6.55   641.1    3.4      63.780
2014    9       24    19  31    6.55   641.2    3.4      63.775
2014    9       24    19  36    6.55   641.3    3.4      63.769
2014    9       24    19  42    6.54   641.4    3.4      63.764
2014    9       24    19  47    6.54   641.6    3.4      63.758
2014    9       24    19  52    6.54   641.7    3.4      63.753
2014    9       24    19  58    6.54   641.8    3.4      63.748
2014    9       24    20   3    6.53   641.9    3.4      63.742
2014    9       24    20   8    6.53   642.0    3.4      63.737
2014    9       24    20  13    6.53   642.1    3.4      63.733
2014    9       24    20  19    6.53   642.3    3.4      63.728
2014    9       24    20  24    6.53   642.4    3.4      63.723
2014    9       24    20  29    6.52   642.5    3.4      63.718
2014    9       24    20  34    6.52   642.6    3.4      63.714
2014    9       24    20  40    6.52   642.7    3.4      63.709
2014    9       24    20  45    6.52   642.8    3.4      63.705
2014    9       24    20  50    6.51   643.0    3.4      63.702
2014    9       24    20  56    6.51   643.1    3.4      63.698
2014    9       24    21   1    6.51   643.2    3.4      63.695
2014    9       24    21   6    6.51   643.3    3.4      63.692
2014    9       24    21  11    6.50   643.4    3.4      63.690
2014    9       24    21  17    6.50   643.5    3.4      63.688
2014    9       24    21  22    6.50   643.6    3.4      63.687
2014    9       24    21  27    6.50   643.7    3.4      63.686
2014    9       24    21  32    6.49   643.8    3.4      63.686
2014    9       24    21  38    6.49   643.9    3.4      63.686
2014    9       24    21  43    6.49   644.1    3.4      63.687
2014    9       24    21  48    6.49   644.2    3.4      63.688
2014    9       24    21  54    6.48   644.3    3.4      63.690
2014    9       24    21  59    6.48   644.4    3.4      63.692
2014    9       24    22   4    6.48   644.5    3.4      63.695
2014    9       24    22   9    6.48   644.6    3.4      63.698
2014    9       24    22  15    6.47   644.7    3.4      63.701
2014    9       24    22  20    6.47   644.8    3.3      63.705
2014    9       24    22  25    6.47   644.9    3.3      63.709
2014    9       24    22  31    6.47   645.0    3.3      63.714
2014    9       24    22  36    6.46   645.1    3.3      63.719
2014    9       24    22  41    6.46   645.3    3.3      63.724
2014    9       24    22  46    6.46   645.4    3.3      63.730
2014    9       24    22  52    6.45   645.5    3.3      63.736
2014    9       24    22  57    6.45   645.6    3.3      63.742
2014    9       24    23   2    6.45   645.7    3.3      63.749
2014    9       24    23   7    6.45   645.8    3.3      63.756
2014    9       24    23  13    6.44   645.9    3.3      63.764
2014    9       24    23  18    6.44   646.0    3.3      63.772
2014    9       24    23  23    6.44   646.1    3.3      63.780
2014    9       24    23  29    6.44   646.2    3.3      63.789
2014    9       24    23  34    6.43   646.3    3.3      63.799
2014    9       24    23  39    6.43   646.4    3.3      63.809
2014    9       24    23  44    6.43   646.5    3.3      63.820
2014    9       24    23  50    6.42   646.6    3.3      63.832
2014    9       24    23  55    6.42   646.7    3.3      63.844
2014    9       25     0   0    6.42   646.8    3.3      63.858
2014    9       25     0   5    6.42   646.9    3.3      63.872
2014    9       25     0  11    6.41   647.0    3.3      63.886
2014    9       25     0  16    6.41   647.1    3.3      63.901
2014    9       25     0  21    6.41   647.2    3.3      63.916
2014    9       25     0  27    6.40   647.3    3.3      63.932
2014    9       25     0  32    6.40   647.4    3.3      63.947
2014    9       25     0  37    6.40   647.5    3.3      63.963
2014    9       25     0  42    6.40   647.6    3.3      63.978
2014    9       25     0  48    6.39   647.7    3.3      63.992
2014    9       25     0  53    6.39   647.8    3.3      64.005
2014    9       25     0  58    6.39   647.9    3.3      64.016
2014    9       25     1   4    6.38   648.0    3.3      64.025
2014    9       25     1   9    6.38   648.1    3.3      64.033
2014    9       25     1  14    6.38   648.2    3.3      64.040
2014    9       25     1  19    6.37   648.3    3.3      64.046
2014    9       25     1  25    6.37   648.4    3.3      64.050
2014    9       25     1  30    6.37   648.5    3.3      64.053
2014    9       25     1  35    6.37   648.6    3.3      64.055
2014    9       25     1  40    6.36   648.7    3.3      64.056
2014    9       25     1  46    6.36   648.8    3.3      64.056
2014    9       25     1  51    6.36   648.8    3.3      64.055
2014    9       25     1  56    6.35   648.9    3.3      64.054
2014    9       25     2   2    6.35   649.0    3.3      64.051
2014    9       25     2   7    6.35   649.1    3.3      64.048
2014    9       25     2  12    6.34   649.2    3.3      64.044
2014    9       25     2  17    6.34   649.2    3.3      64.039
2014    9       25     2  23    6.34   649.3    3.3      64.034
2014    9       25     2  28    6.34   649.4    3.2      64.028
2014    9       25     2  33    6.33   649.5    3.2      64.022
2014    9       25     2  39    6.33   649.5    3.2      64.015
2014    9       25     2  44    6.33   649.6    3.2      64.007
2014    9       25     2  49    6.32   649.7    3.2      64.000
2014    9       25     2  54    6.32   649.8    3.2      63.991
2014    9       25     3   0    6.32   649.8    3.2      63.983
2014    9       25     3   5    6.32   649.9    3.2      63.973
2014    9       25     3  10    6.31   650.0    3.2      63.964
2014    9       25     3  15    6.31   650.0    3.2      63.954
2014    9       25     3  21    6.31   650.1    3.2      63.944
2014    9       25     3  26    6.30   650.2    3.2      63.934
2014    9       25     3  31    6.30   650.3    3.2      63.923
2014    9       25     3  37    6.30   650.3    3.2      63.913
2014    9       25     3  42    6.30   650.4    3.2      63.902
2014    9       25     3  47    6.29   650.5    3.2      63.891
2014    9       25     3  52    6.29   650.5    3.2      63.880
2014    9       25     3  58    6.29   650.6    3.2      63.869
2014    9       25     4   3    6.28   650.6    3.2      63.858
2014    9       25     4   8    6.28   650.7    3.2      63.847
2014    9       25     4  13    6.28   650.8    3.2      63.836
2014    9       25     4  19    6.28   650.8    3.2      63.825
2014    9       25     4  24    6.27   650.9    3.2      63.814
2014    9       25     4  29    6.27   651.0    3.2      63.803
2014    9       25     4  34    6.27   651.0    3.2      63.793
2014    9       25     4  40    6.26   651.1    3.2      63.782
2014    9       25     4  45    6.26   651.2    3.2      63.772
2014    9       25     4  50    6.26   651.2    3.2      63.762
2014    9       25     4  56    6.26   651.3    3.2      63.753
2014    9       25     5   1    6.25   651.3    3.2      63.743
2014    9       25     5   6    6.25   651.4    3.2      63.734
2014    9       25     5  11    6.25   651.5    3.2      63.724
2014    9       25     5  17    6.25   651.5    3.2      63.715
2014    9       25     5  22    6.24   651.6    3.2      63.707
2014    9       25     5  27    6.24   651.6    3.2      63.698
2014    9       25     5  33    6.24   651.7    3.2      63.690
2014    9       25     5  38    6.23   651.8    3.2      63.682
2014    9       25     5  43    6.23   651.8    3.2      63.675
2014    9       25     5  48    6.23   651.9    3.2      63.668
2014    9       25     5  54    6.22   651.9    3.2      63.661
2014    9       25     5  59    6.22   652.0    3.2      63.655
2014    9       25     6   4    6.22   652.0    3.2      63.649
2014    9       25     6   9    6.22   652.1    3.1      63.644
2014    9       25     6  15    6.21   652.2    3.1      63.640
2014    9       25     6  20    6.21   652.2    3.1      63.636
2014    9       25     6  25    6.21   652.3    3.1      63.632
2014    9       25     6  31    6.20   652.3    3.1      63.629
2014    9       25     6  36    6.20   652.4    3.1      63.627
2014    9       25     6  41    6.20   652.5    3.1      63.626
2014    9       25     6  46    6.20   652.5    3.1      63.625
2014    9       25     6  52    6.19   652.6    3.1      63.625
2014    9       25     6  57    6.19   652.6    3.1      63.625
2014    9       25     7   2    6.19   652.7    3.1      63.626
2014    9       25     7   7    6.18   652.8    3.1      63.628
2014    9       25     7  13    6.18   652.8    3.1      63.630
2014    9       25     7  18    6.18   652.9    3.1      63.633
2014    9       25     7  23    6.18   652.9    3.1      63.636
2014    9       25     7  29    6.17   653.0    3.1      63.639
2014    9       25     7  34    6.17   653.1    3.1      63.641
2014    9       25     7  39    6.17   653.1    3.1      63.643
2014    9       25     7  44    6.16   653.2    3.1      63.644
2014    9       25     7  50    6.16   653.2    3.1      63.645
2014    9       25     7  55    6.16   653.3    3.1      63.645
2014    9       25     8   0    6.15   653.3    3.1      63.645
2014    9       25     8   6    6.15   653.4    3.1      63.644
2014    9       25     8  11    6.15   653.4    3.1      63.642
2014    9       25     8  16    6.15   653.5    3.1      63.641
2014    9       25     8  21    6.14   653.6    3.1      63.638
2014    9       25     8  27    6.14   653.6    3.1      63.636
2014    9       25     8  32    6.14   653.7    3.1      63.632
2014    9       25     8  37    6.13   653.7    3.1      63.629
2014    9       25     8  42    6.13   653.8    3.1      63.624
2014    9       25     8  48    6.13   653.8    3.1      63.620
2014    9       25     8  53    6.13   653.9    3.1      63.614
2014    9       25     8  58    6.12   653.9    3.1      63.608
2014    9       25     9   4    6.12   654.0    3.1      63.602
2014    9       25     9   9    6.12   654.0    3.1      63.595
2014    9       25     9  14    6.11   654.0    3.1      63.588
2014    9       25     9  19    6.11   654.1    3.1      63.580
2014    9       25     9  25    6.11   654.1    3.1      63.571
2014    9       25     9  30    6.11   654.2    3.1      63.562
2014    9       25     9  35    6.10   654.2    3.1      63.553
2014    9       25     9  40    6.10   654.3    3.1      63.543
2014    9       25     9  46    6.10   654.3    3.1      63.533
2014    9       25     9  51    6.09   654.4    3.1      63.522
2014    9       25     9  56    6.09   654.4    3.1      63.511
2014    9       25    10   2    6.09   654.4    3.1      63.500
2014    9       25    10   7    6.09   654.5    3.1      63.488
2014    9       25    10  12    6.08   654.5    3.1      63.476
2014    9       25    10  17    6.08   654.5    3.1      63.463
2014    9       25    10  23    6.08   654.6    3.1      63.451
2014    9       25    10  28    6.07   654.6    3.1      63.438
2014    9       25    10  33    6.07   654.6    3.1      63.424
2014    9       25    10  38    6.07   654.7    3.1      63.411
2014    9       25    10  44    6.07   654.7    3.1      63.397
2014    9       25    10  49    6.06   654.7    3.1      63.383
2014    9       25    10  54    6.06   654.8    3.1      63.370
2014    9       25    11   0    6.06   654.8    3.1      63.355
2014    9       25    11   5    6.06   654.8    3.1      63.341
2014    9       25    11  10    6.05   654.9    3.1      63.327
2014    9       25    11  15    6.05   654.9    3.1      63.313
2014    9       25    11  21    6.05   654.9    3.0      63.298
2014    9       25    11  26    6.05   654.9    3.0      63.284
2014    9       25    11  31    6.04   655.0    3.0      63.270
2014    9       25    11  36    6.04   655.0    3.0      63.255
2014    9       25    11  42    6.04   655.0    3.0      63.241
2014    9       25    11  47    6.04   655.0    3.0      63.226
2014    9       25    11  52    6.03   655.1    3.0      63.212
2014    9       25    11  58    6.03   655.1    3.0      63.197
2014    9       25    12   3    6.03   655.1    3.0      63.182
2014    9       25    12   8    6.03   655.1    3.0      63.168
2014    9       25    12  13    6.02   655.1    3.0      63.153
2014    9       25    12  19    6.02   655.2    3.0      63.139
2014    9       25    12  24    6.02   655.2    3.0      63.125
2014    9       25    12  29    6.01   655.2    3.0      63.111
2014    9       25    12  34    6.01   655.2    3.0      63.096
2014    9       25    12  40    6.01   655.2    3.0      63.082
2014    9       25    12  45    6.01   655.3    3.0      63.069
2014    9       25    12  50    6.00   655.3    3.0      63.055
2014    9       25    12  56    6.00   655.3    3.0      63.041
2014    9       25    13   1    6.00   655.3    3.0      63.028
2014    9       25    13   6    6.00   655.3    3.0      63.014
2014    9       25    13  11    5.99   655.3    3.0      63.001
2014    9       25    13  17    5.99   655.3    3.0      62.988
2014    9       25    13  22    5.99   655.4    3.0      62.975
2014    9       25    13  27    5.99   655.4    3.0      62.962
2014    9       25    13  32    5.99   655.4    3.0      62.949
2014    9       25    13  38    5.98   655.4    3.0      62.937
2014    9       25    13  43    5.98   655.4    3.0      62.924
2014    9       25    13  48    5.98   655.4    3.0      62.911
2014    9       25    13  54    5.98   655.4    3.0      62.899
2014    9       25    13  59    5.97   655.4    3.0      62.887
2014    9       25    14   4    5.97   655.4    3.0      62.874
2014    9       25    14   9    5.97   655.5    3.0      62.862
2014    9       25    14  15    5.97   655.5    3.0      62.850
2014    9       25    14  20    5.96   655.5    3.0      62.837
2014    9       25    14  25    5.96   655.5    3.0      62.825
2014    9       25    14  31    5.96   655.5    3.0      62.813
2014    9       25    14  36    5.96   655.5    3.0      62.801
2014    9       25    14  41    5.95   655.5    3.0      62.789
2014    9       25    14  46    5.95   655.5    3.0      62.777
2014    9       25    14  52    5.95   655.5    3.0      62.765
2014    9       25    14  57    5.95   655.5    3.0      62.753
2014    9       25    15   2    5.94   655.5    3.0      62.741
2014    9       25    15   7    5.94   655.5    3.0      62.730
2014    9       25    15  13    5.94   655.5    3.0      62.718
2014    9       25    15  18    5.94   655.5    3.0      62.707
2014    9       25    15  23    5.94   655.5    3.0      62.696
2014    9       25    15  29    5.93   655.5    3.0      62.685
2014    9       25    15  34    5.93   655.5    3.0      62.674
2014    9       25    15  39    5.93   655.5    3.0      62.664
2014    9       25    15  44    5.93   655.5    3.0      62.654
2014    9       25    15  50    5.92   655.5    3.0      62.645
2014    9       25    15  55    5.92   655.5    3.0      62.636
2014    9       25    16   0    5.92   655.5    3.0      62.627
2014    9       25    16   6    5.92   655.5    3.0      62.619
2014    9       25    16  11    5.92   655.5    3.0      62.612
2014    9       25    16  16    5.91   655.5    3.0      62.605
2014    9       25    16  21    5.91   655.5    3.0      62.599
2014    9       25    16  27    5.91   655.5    3.0      62.593
2014    9       25    16  32    5.91   655.5    3.0      62.588
2014    9       25    16  37    5.91   655.5    3.0      62.584
2014    9       25    16  42    5.90   655.5    3.0      62.580
2014    9       25    16  48    5.90   655.6    3.0      62.577
2014    9       25    16  53    5.90   655.6    3.0      62.575
2014    9       25    16  58    5.90   655.6    3.0      62.572
2014    9       25    17   4    5.90   655.6    3.0      62.571
2014    9       25    17   9    5.89   655.6    3.0      62.570
2014    9       25    17  14    5.89   655.6    3.0      62.569
2014    9       25    17  19    5.89   655.6    3.0      62.568
2014    9       25    17  25    5.89   655.6    3.0      62.568
2014    9       25    17  30    5.89   655.6    3.0      62.567
2014    9       25    17  35    5.88   655.6    3.0      62.567
2014    9       25    17  40    5.88   655.6    3.0      62.566
2014    9       25    17  46    5.88   655.6    3.0      62.565
2014    9       25    17  51    5.88   655.7    3.0      62.564
2014    9       25    17  56    5.88   655.7    3.0      62.563
2014    9       25    18   2    5.87   655.7    3.0      62.560
2014    9       25    18   7    5.87   655.7    3.0      62.557
2014    9       25    18  12    5.87   655.7    3.0      62.554
2014    9       25    18  17    5.87   655.7    3.0      62.550
2014    9       25    18  23    5.87   655.7    3.0      62.545
2014    9       25    18  28    5.86   655.7    3.0      62.540
2014    9       25    18  33    5.86   655.7    3.0      62.534
2014    9       25    18  38    5.86   655.7    3.0      62.527
2014    9       25    18  44    5.86   655.7    3.0      62.520
2014    9       25    18  49    5.86   655.7    3.0      62.512
2014    9       25    18  54    5.85   655.7    3.0      62.504
2014    9       25    19   0    5.85   655.7    2.9      62.495
2014    9       25    19   5    5.85   655.6    2.9      62.486
2014    9       25    19  10    5.85   655.6    2.9      62.477
2014    9       25    19  15    5.85   655.6    2.9      62.466
2014    9       25    19  21    5.84   655.6    2.9      62.456
2014    9       25    19  26    5.84   655.6    2.9      62.445
2014    9       25    19  31    5.84   655.6    2.9      62.433
2014    9       25    19  36    5.84   655.6    2.9      62.421
2014    9       25    19  42    5.84   655.6    2.9      62.409
2014    9       25    19  47    5.83   655.6    2.9      62.396
2014    9       25    19  52    5.83   655.6    2.9      62.383
2014    9       25    19  58    5.83   655.6    2.9      62.370
2014    9       25    20   3    5.83   655.5    2.9      62.356
2014    9       25    20   8    5.83   655.5    2.9      62.342
2014    9       25    20  13    5.82   655.5    2.9      62.328
2014    9       25    20  19    5.82   655.5    2.9      62.314
2014    9       25    20  24    5.82   655.5    2.9      62.299
2014    9       25    20  29    5.82   655.5    2.9      62.285
2014    9       25    20  34    5.82   655.5    2.9      62.270
2014    9       25    20  40    5.82   655.5    2.9      62.255
2014    9       25    20  45    5.81   655.4    2.9      62.240
2014    9       25    20  50    5.81   655.4    2.9      62.224
2014    9       25    20  56    5.81   655.4    2.9      62.209
2014    9       25    21   1    5.81   655.4    2.9      62.194
2014    9       25    21   6    5.81   655.4    2.9      62.179
2014    9       25    21  11    5.81   655.4    2.9      62.163
2014    9       25    21  17    5.80   655.3    2.9      62.148
2014    9       25    21  22    5.80   655.3    2.9      62.133
2014    9       25    21  27    5.80   655.3    2.9      62.117
2014    9       25    21  32    5.80   655.3    2.9      62.102
2014    9       25    21  38    5.80   655.3    2.9      62.087
2014    9       25    21  43    5.79   655.2    2.9      62.072
2014    9       25    21  48    5.79   655.2    2.9      62.057
2014    9       25    21  54    5.79   655.2    2.9      62.043
2014    9       25    21  59    5.79   655.2    2.9      62.029
2014    9       25    22   4    5.79   655.1    2.9      62.014
2014    9       25    22   9    5.79   655.1    2.9      62.001
2014    9       25    22  15    5.78   655.1    2.9      61.987
2014    9       25    22  20    5.78   655.1    2.9      61.974
2014    9       25    22  25    5.78   655.1    2.9      61.961
2014    9       25    22  31    5.78   655.0    2.9      61.949
2014    9       25    22  36    5.78   655.0    2.9      61.936
2014    9       25    22  41    5.78   655.0    2.9      61.925
2014    9       25    22  46    5.77   654.9    2.9      61.913
2014    9       25    22  52    5.77   654.9    2.9      61.902
2014    9       25    22  57    5.77   654.9    2.9      61.891
2014    9       25    23   2    5.77   654.9    2.9      61.880
2014    9       25    23   7    5.77   654.8    2.9      61.870
2014    9       25    23  13    5.77   654.8    2.9      61.860
2014    9       25    23  18    5.76   654.8    2.9      61.851
2014    9       25    23  23    5.76   654.8    2.9      61.841
2014    9       25    23  29    5.76   654.7    2.9      61.832
2014    9       25    23  34    5.76   654.7    2.9      61.823
2014    9       25    23  39    5.76   654.7    2.9      61.814
2014    9       25    23  44    5.76   654.6    2.9      61.806
2014    9       25    23  50    5.75   654.6    2.9      61.797
2014    9       25    23  55    5.75   654.6    2.9      61.789
2014    9       26     0   0    5.75   654.5    2.9      61.781
2014    9       26     0   6    5.75   654.5    2.9      61.773
2014    9       26     0  11    5.75   654.5    2.9      61.765
2014    9       26     0  16    5.75   654.5    2.9      61.757
2014    9       26     0  21    5.74   654.4    2.9      61.749
2014    9       26     0  27    5.74   654.4    2.9      61.741
2014    9       26     0  32    5.74   654.4    2.9      61.733
2014    9       26     0  37    5.74   654.3    2.9      61.726
2014    9       26     0  42    5.74   654.3    2.9      61.718
2014    9       26     0  48    5.74   654.3    2.9      61.711
2014    9       26     0  53    5.74   654.2    2.9      61.703
2014    9       26     0  58    5.73   654.2    2.9      61.696
2014    9       26     1   3    5.73   654.2    2.9      61.689
2014    9       26     1   9    5.73   654.1    2.9      61.682
2014    9       26     1  14    5.73   654.1    2.9      61.675
2014    9       26     1  19    5.73   654.1    2.9      61.667
2014    9       26     1  25    5.73   654.1    2.9      61.660
2014    9       26     1  30    5.73   654.0    2.9      61.654
2014    9       26     1  35    5.72   654.0    2.9      61.647
2014    9       26     1  40    5.72   654.0    2.9      61.640
2014    9       26     1  46    5.72   653.9    2.9      61.633
2014    9       26     1  51    5.72   653.9    2.9      61.627
2014    9       26     1  56    5.72   653.9    2.9      61.620
2014    9       26     2   1    5.72   653.8    2.9      61.614
2014    9       26     2   7    5.72   653.8    2.9      61.607
2014    9       26     2  12    5.71   653.8    2.9      61.601
2014    9       26     2  17    5.71   653.8    2.9      61.595
2014    9       26     2  23    5.71   653.7    2.9      61.589
2014    9       26     2  28    5.71   653.7    2.9      61.582
2014    9       26     2  33    5.71   653.7    2.9      61.576
2014    9       26     2  38    5.71   653.6    2.9      61.570
2014    9       26     2  44    5.71   653.6    2.9      61.564
2014    9       26     2  49    5.70   653.6    2.9      61.557
2014    9       26     2  54    5.70   653.6    2.9      61.551
2014    9       26     2  59    5.70   653.5    2.9      61.545
2014    9       26     3   5    5.70   653.5    2.9      61.539
2014    9       26     3  10    5.70   653.5    2.9      61.532
2014    9       26     3  15    5.70   653.4    2.9      61.526
2014    9       26     3  21    5.70   653.4    2.9      61.520
2014    9       26     3  26    5.70   653.4    2.9      61.514
2014    9       26     3  31    5.69   653.3    2.9      61.508
2014    9       26     3  36    5.69   653.3    2.9      61.502
2014    9       26     3  42    5.69   653.3    2.9      61.496
2014    9       26     3  47    5.69   653.2    2.9      61.490
2014    9       26     3  52    5.69   653.2    2.9      61.485
2014    9       26     3  57    5.69   653.2    2.9      61.480
2014    9       26     4   3    5.69   653.2    2.9      61.474
2014    9       26     4   8    5.68   653.1    2.9      61.468
2014    9       26     4  13    5.68   653.1    2.9      61.463
2014    9       26     4  19    5.68   653.1    2.9      61.458
2014    9       26     4  24    5.68   653.0    2.9      61.453
2014    9       26     4  29    5.68   653.0    2.9      61.447
2014    9       26     4  34    5.68   653.0    2.9      61.442
2014    9       26     4  40    5.68   652.9    2.9      61.436
2014    9       26     4  45    5.68   652.9    2.9      61.429
2014    9       26     4  50    5.67   652.9    2.9      61.422
2014    9       26     4  55    5.67   652.8    2.9      61.415
2014    9       26     5   1    5.67   652.8    2.9      61.407
2014    9       26     5   6    5.67   652.8    2.9      61.399
2014    9       26     5  11    5.67   652.7    2.9      61.391
2014    9       26     5  17    5.67   652.7    2.9      61.382
2014    9       26     5  22    5.67   652.6    2.9      61.373
2014    9       26     5  27    5.66   652.6    2.9      61.363
2014    9       26     5  32    5.66   652.6    2.9      61.354
2014    9       26     5  38    5.66   652.5    2.9      61.344
2014    9       26     5  43    5.66   652.5    2.9      61.334
2014    9       26     5  48    5.66   652.4    2.9      61.324
2014    9       26     5  54    5.66   652.4    2.9      61.313
2014    9       26     5  59    5.66   652.4    2.9      61.303
2014    9       26     6   4    5.66   652.3    2.9      61.292
2014    9       26     6   9    5.65   652.3    2.9      61.281
2014    9       26     6  15    5.65   652.2    2.9      61.270
2014    9       26     6  20    5.65   652.2    2.9      61.260
2014    9       26     6  25    5.65   652.1    2.9      61.249
2014    9       26     6  31    5.65   652.1    2.9      61.238
2014    9       26     6  36    5.65   652.1    2.9      61.227
2014    9       26     6  41    5.65   652.0    2.9      61.217
2014    9       26     6  46    5.64   652.0    2.9      61.206
2014    9       26     6  52    5.64   651.9    2.9      61.196
2014    9       26     6  57    5.64   651.9    2.9      61.186
2014    9       26     7   2    5.64   651.8    2.9      61.176
2014    9       26     7   7    5.64   651.8    2.9      61.167
2014    9       26     7  13    5.64   651.7    2.9      61.158
2014    9       26     7  18    5.64   651.7    2.9      61.150
2014    9       26     7  23    5.64   651.6    2.9      61.142
2014    9       26     7  29    5.63   651.6    2.9      61.135
2014    9       26     7  34    5.63   651.5    2.9      61.129
2014    9       26     7  39    5.63   651.5    2.9      61.123
2014    9       26     7  44    5.63   651.4    2.9      61.117
2014    9       26     7  50    5.63   651.4    2.9      61.113
2014    9       26     7  55    5.63   651.3    2.9      61.110
2014    9       26     8   0    5.63   651.3    2.9      61.107
2014    9       26     8   5    5.63   651.2    2.9      61.105
2014    9       26     8  11    5.63   651.2    2.9      61.103
2014    9       26     8  16    5.62   651.1    2.9      61.102
2014    9       26     8  21    5.62   651.1    2.9      61.101
2014    9       26     8  27    5.62   651.0    2.9      61.100
2014    9       26     8  32    5.62   651.0    2.9      61.099
2014    9       26     8  37    5.62   650.9    2.9      61.099
2014    9       26     8  42    5.62   650.9    2.9      61.098
2014    9       26     8  48    5.62   650.9    2.9      61.096
2014    9       26     8  53    5.62   650.8    2.9      61.093
2014    9       26     8  58    5.62   650.8    2.9      61.090
2014    9       26     9   3    5.62   650.7    2.9      61.085
2014    9       26     9   9    5.61   650.7    2.9      61.081
2014    9       26     9  14    5.61   650.6    2.9      61.075
2014    9       26     9  19    5.61   650.6    2.9      61.069
2014    9       26     9  24    5.61   650.6    2.9      61.062
2014    9       26     9  30    5.61   650.5    2.9      61.055
2014    9       26     9  35    5.61   650.5    2.9      61.048
2014    9       26     9  40    5.61   650.4    2.9      61.040
2014    9       26     9  46    5.61   650.4    2.9      61.032
2014    9       26     9  51    5.61   650.3    2.9      61.023
2014    9       26     9  56    5.60   650.3    2.9      61.015
2014    9       26    10   1    5.60   650.3    2.9      61.006
2014    9       26    10   7    5.60   650.2    2.9      60.997
2014    9       26    10  12    5.60   650.2    2.9      60.988
2014    9       26    10  17    5.60   650.1    2.9      60.979
2014    9       26    10  22    5.60   650.1    2.9      60.970
2014    9       26    10  28    5.60   650.0    2.9      60.961
2014    9       26    10  33    5.60   650.0    2.9      60.952
2014    9       26    10  38    5.60   650.0    2.9      60.943
2014    9       26    10  44    5.60   649.9    2.9      60.934
2014    9       26    10  49    5.60   649.9    2.9      60.925
2014    9       26    10  54    5.59   649.8    2.9      60.916
2014    9       26    10  59    5.59   649.8    2.9      60.907
2014    9       26    11   5    5.59   649.8    2.9      60.899
2014    9       26    11  10    5.59   649.7    2.9      60.891
2014    9       26    11  15    5.59   649.7    2.9      60.882
2014    9       26    11  20    5.59   649.6    2.9      60.874
2014    9       26    11  26    5.59   649.6    2.9      60.866
2014    9       26    11  31    5.59   649.6    2.9      60.858
2014    9       26    11  36    5.59   649.5    2.9      60.850
2014    9       26    11  42    5.59   649.5    2.9      60.842
2014    9       26    11  47    5.58   649.4    2.9      60.834
2014    9       26    11  52    5.58   649.4    2.9      60.826
2014    9       26    11  57    5.58   649.3    2.9      60.818
2014    9       26    12   3    5.58   649.3    2.9      60.810
2014    9       26    12   8    5.58   649.3    2.9      60.801
2014    9       26    12  13    5.58   649.2    2.9      60.793
2014    9       26    12  19    5.58   649.2    2.9      60.784
2014    9       26    12  24    5.58   649.1    2.9      60.775
2014    9       26    12  29    5.58   649.1    2.9      60.767
2014    9       26    12  34    5.58   649.0    2.9      60.758
2014    9       26    12  40    5.57   649.0    2.9      60.749
2014    9       26    12  45    5.57   648.9    2.9      60.740
2014    9       26    12  50    5.57   648.9    2.9      60.731
2014    9       26    12  55    5.57   648.8    2.9      60.722
2014    9       26    13   1    5.57   648.8    2.9      60.712
2014    9       26    13   6    5.57   648.7    2.9      60.703
2014    9       26    13  11    5.57   648.7    2.9      60.693
2014    9       26    13  17    5.57   648.6    2.9      60.683
2014    9       26    13  22    5.57   648.6    2.9      60.673
2014    9       26    13  27    5.56   648.5    2.9      60.662
2014    9       26    13  32    5.56   648.5    2.9      60.651
2014    9       26    13  38    5.56   648.4    2.9      60.640
2014    9       26    13  43    5.56   648.4    2.9      60.629
2014    9       26    13  48    5.56   648.3    2.9      60.617
2014    9       26    13  54    5.56   648.3    2.9      60.605
2014    9       26    13  59    5.56   648.2    2.9      60.593
2014    9       26    14   4    5.56   648.1    2.9      60.582
2014    9       26    14   9    5.56   648.1    2.9      60.570
2014    9       26    14  15    5.56   648.0    2.9      60.559
2014    9       26    14  20    5.55   647.9    2.9      60.548
2014    9       26    14  25    5.55   647.9    2.9      60.538
2014    9       26    14  30    5.55   647.8    2.9      60.529
2014    9       26    14  36    5.55   647.8    2.9      60.520
2014    9       26    14  41    5.55   647.7    2.9      60.512
2014    9       26    14  46    5.55   647.6    2.9      60.505
2014    9       26    14  52    5.55   647.6    2.9      60.500
2014    9       26    14  57    5.55   647.5    2.9      60.495
2014    9       26    15   2    5.55   647.4    2.9      60.492
2014    9       26    15   7    5.55   647.4    2.9      60.491
2014    9       26    15  13    5.54   647.3    2.9      60.489
2014    9       26    15  18    5.54   647.2    2.9      60.490
2014    9       26    15  23    5.54   647.2    2.9      60.492
2014    9       26    15  28    5.54   647.1    2.9      60.495
2014    9       26    15  34    5.54   647.1    2.9      60.498
2014    9       26    15  39    5.54   647.0    2.9      60.502
2014    9       26    15  44    5.54   646.9    2.9      60.507
2014    9       26    15  50    5.54   646.9    2.9      60.510
2014    9       26    15  55    5.54   646.8    2.9      60.513
2014    9       26    16   0    5.54   646.8    2.9      60.515
2014    9       26    16   5    5.53   646.7    2.9      60.517
2014    9       26    16  11    5.53   646.7    2.9      60.519
2014    9       26    16  16    5.53   646.6    2.9      60.520
2014    9       26    16  21    5.53   646.5    2.9      60.522
2014    9       26    16  26    5.53   646.5    2.9      60.523
2014    9       26    16  32    5.53   646.4    2.9      60.524
2014    9       26    16  37    5.53   646.4    2.9      60.526
2014    9       26    16  42    5.53   646.3    2.9      60.527
2014    9       26    16  48    5.53   646.2    2.9      60.529
2014    9       26    16  53    5.53   646.2    2.9      60.531
2014    9       26    16  58    5.53   646.1    2.9      60.533
2014    9       26    17   3    5.53   646.1    2.9      60.535
2014    9       26    17   9    5.52   646.0    2.9      60.537
2014    9       26    17  14    5.52   646.0    2.9      60.539
2014    9       26    17  19    5.52   645.9    2.9      60.540
2014    9       26    17  24    5.52   645.9    2.9      60.539
2014    9       26    17  30    5.52   645.8    2.9      60.536
2014    9       26    17  35    5.52   645.8    2.9      60.532
2014    9       26    17  40    5.52   645.7    2.9      60.527
2014    9       26    17  46    5.52   645.7    2.9      60.521
2014    9       26    17  51    5.52   645.6    2.9      60.514
2014    9       26    17  56    5.52   645.6    2.9      60.505
2014    9       26    18   1    5.52   645.5    2.9      60.496
2014    9       26    18   7    5.52   645.5    2.9      60.486
2014    9       26    18  12    5.51   645.4    2.9      60.474
2014    9       26    18  17    5.51   645.4    2.9      60.462
2014    9       26    18  22    5.51   645.3    2.9      60.449
2014    9       26    18  28    5.51   645.3    2.9      60.436
2014    9       26    18  33    5.51   645.2    2.9      60.421
2014    9       26    18  38    5.51   645.2    2.9      60.406
2014    9       26    18  44    5.51   645.1    2.9      60.391
2014    9       26    18  49    5.51   645.1    2.9      60.375
2014    9       26    18  54    5.51   645.0    2.9      60.359
2014    9       26    18  59    5.51   644.9    2.9      60.342
2014    9       26    19   5    5.50   644.9    2.9      60.326
2014    9       26    19  10    5.50   644.8    2.9      60.309
2014    9       26    19  15    5.50   644.8    2.9      60.291
2014    9       26    19  20    5.50   644.7    2.9      60.274
2014    9       26    19  26    5.50   644.7    2.9      60.257
2014    9       26    19  31    5.50   644.6    2.9      60.239
2014    9       26    19  36    5.50   644.5    2.9      60.222
2014    9       26    19  42    5.50   644.5    2.9      60.204
2014    9       26    19  47    5.50   644.4    2.9      60.187
2014    9       26    19  52    5.50   644.4    2.9      60.170
2014    9       26    19  57    5.50   644.3    2.9      60.153
2014    9       26    20   3    5.49   644.2    2.9      60.136
2014    9       26    20   8    5.49   644.2    2.9      60.120
2014    9       26    20  13    5.49   644.1    2.9      60.103
2014    9       26    20  18    5.49   644.0    2.9      60.087
2014    9       26    20  24    5.49   644.0    2.9      60.071
2014    9       26    20  29    5.49   643.9    2.9      60.056
2014    9       26    20  34    5.49   643.8    2.9      60.040
2014    9       26    20  40    5.49   643.7    2.9      60.025
2014    9       26    20  45    5.49   643.7    2.9      60.010
2014    9       26    20  50    5.49   643.6    2.9      59.996
2014    9       26    20  55    5.48   643.5    2.9      59.982
2014    9       26    21   1    5.48   643.4    2.9      59.969
2014    9       26    21   6    5.48   643.4    2.9      59.956
2014    9       26    21  11    5.48   643.3    2.9      59.943
2014    9       26    21  17    5.48   643.2    2.9      59.931
2014    9       26    21  22    5.48   643.1    2.9      59.920
2014    9       26    21  27    5.48   643.1    2.9      59.908
2014    9       26    21  32    5.48   643.0    2.9      59.898
2014    9       26    21  38    5.48   642.9    2.9      59.888
2014    9       26    21  43    5.48   642.8    2.9      59.878
2014    9       26    21  48    5.48   642.8    2.9      59.869
2014    9       26    21  53    5.47   642.7    2.9      59.860
2014    9       26    21  59    5.47   642.6    2.9      59.852
2014    9       26    22   4    5.47   642.5    2.9      59.844
2014    9       26    22   9    5.47   642.4    2.9      59.837
2014    9       26    22  15    5.47   642.4    2.9      59.829
2014    9       26    22  20    5.47   642.3    2.9      59.822
2014    9       26    22  25    5.47   642.2    2.9      59.815
2014    9       26    22  30    5.47   642.1    2.9      59.808
2014    9       26    22  36    5.47   642.0    2.9      59.802
2014    9       26    22  41    5.47   642.0    2.9      59.795
2014    9       26    22  46    5.47   641.9    2.9      59.789
2014    9       26    22  51    5.47   641.8    2.9      59.783
2014    9       26    22  57    5.46   641.7    2.9      59.777
2014    9       26    23   2    5.46   641.6    2.9      59.770
2014    9       26    23   7    5.46   641.5    2.9      59.764
2014    9       26    23  13    5.46   641.4    2.9      59.758
2014    9       26    23  18    5.46   641.4    2.9      59.752
2014    9       26    23  23    5.46   641.3    2.9      59.745
2014    9       26    23  28    5.46   641.2    2.9      59.739
2014    9       26    23  34    5.46   641.1    2.9      59.733
2014    9       26    23  39    5.46   641.0    2.9      59.727
2014    9       26    23  44    5.46   640.9    2.9      59.720
2014    9       26    23  49    5.46   640.8    2.9      59.714
2014    9       26    23  55    5.45   640.7    2.9      59.708
2014    9       27     0   0    5.45   640.7    2.9      59.702
2014    9       27     0   5    5.45   640.6    2.9      59.696
2014    9       27     0  11    5.45   640.5    2.9      59.690
2014    9       27     0  16    5.45   640.4    2.9      59.685
2014    9       27     0  21    5.45   640.3    2.9      59.680
2014    9       27     0  26    5.45   640.2    2.9      59.675
2014    9       27     0  32    5.45   640.1    2.9      59.672
2014    9       27     0  37    5.45   640.0    2.9      59.669
2014    9       27     0  42    5.45   639.9    2.9      59.666
2014    9       27     0  47    5.45   639.8    2.9      59.664
2014    9       27     0  53    5.45   639.7    2.9      59.663
2014    9       27     0  58    5.44   639.6    2.9      59.664
2014    9       27     1   3    5.44   639.5    2.9      59.664
2014    9       27     1   9    5.44   639.4    2.9      59.666
2014    9       27     1  14    5.44   639.3    2.9      59.667
2014    9       27     1  19    5.44   639.3    2.9      59.669
2014    9       27     1  24    5.44   639.2    2.9      59.670
2014    9       27     1  30    5.44   639.1    2.9      59.671
2014    9       27     1  35    5.44   639.0    2.9      59.671
2014    9       27     1  40    5.44   638.9    2.9      59.671
2014    9       27     1  45    5.44   638.8    2.9      59.672
2014    9       27     1  51    5.44   638.7    2.9      59.672
2014    9       27     1  56    5.44   638.7    2.9      59.672
2014    9       27     2   1    5.44   638.6    2.9      59.672
2014    9       27     2   7    5.43   638.5    2.9      59.671
2014    9       27     2  12    5.43   638.4    2.9      59.671
2014    9       27     2  17    5.43   638.3    2.9      59.670
2014    9       27     2  22    5.43   638.3    2.9      59.669
2014    9       27     2  28    5.43   638.2    2.9      59.668
2014    9       27     2  33    5.43   638.1    2.9      59.667
2014    9       27     2  38    5.43   638.0    2.9      59.665
2014    9       27     2  43    5.43   637.9    2.9      59.663
2014    9       27     2  49    5.43   637.9    2.9      59.660
2014    9       27     2  54    5.43   637.8    2.9      59.656
2014    9       27     2  59    5.43   637.7    2.9      59.651
2014    9       27     3   5    5.43   637.6    2.9      59.645
2014    9       27     3  10    5.43   637.5    2.9      59.639
2014    9       27     3  15    5.42   637.4    2.9      59.631
2014    9       27     3  20    5.42   637.4    2.9      59.622
2014    9       27     3  26    5.42   637.3    2.9      59.613
2014    9       27     3  31    5.42   637.2    2.9      59.603
2014    9       27     3  36    5.42   637.1    2.9      59.592
2014    9       27     3  42    5.42   637.0    2.9      59.581
2014    9       27     3  47    5.42   637.0    2.9      59.569
2014    9       27     3  52    5.42   636.9    2.9      59.556
2014    9       27     3  57    5.42   636.8    2.9      59.543
2014    9       27     4   3    5.42   636.7    2.9      59.530
2014    9       27     4   8    5.42   636.6    2.9      59.516
2014    9       27     4  13    5.41   636.5    2.9      59.501
2014    9       27     4  18    5.41   636.4    2.9      59.486
2014    9       27     4  24    5.41   636.3    2.9      59.471
2014    9       27     4  29    5.41   636.3    2.9      59.456
2014    9       27     4  34    5.41   636.2    2.9      59.441
2014    9       27     4  40    5.41   636.1    2.9      59.425
2014    9       27     4  45    5.41   636.0    2.9      59.410
2014    9       27     4  50    5.41   635.9    2.9      59.395
2014    9       27     4  55    5.41   635.8    2.9      59.380
2014    9       27     5   1    5.41   635.7    2.9      59.364
2014    9       27     5   6    5.41   635.6    2.9      59.349
2014    9       27     5  11    5.41   635.5    2.9      59.335
2014    9       27     5  16    5.40   635.4    2.9      59.320
2014    9       27     5  22    5.40   635.3    2.9      59.306
2014    9       27     5  27    5.40   635.2    2.9      59.292
2014    9       27     5  32    5.40   635.1    2.9      59.278
2014    9       27     5  38    5.40   635.0    2.9      59.264
2014    9       27     5  43    5.40   634.9    2.9      59.251
2014    9       27     5  48    5.40   634.8    2.9      59.237
2014    9       27     5  53    5.40   634.7    2.9      59.224
2014    9       27     5  59    5.40   634.6    2.9      59.211
2014    9       27     6   4    5.40   634.5    2.9      59.198
2014    9       27     6   9    5.40   634.4    2.9      59.185
2014    9       27     6  14    5.40   634.2    2.9      59.173
2014    9       27     6  20    5.40   634.1    2.9      59.160
2014    9       27     6  25    5.39   634.0    2.9      59.148
2014    9       27     6  30    5.39   633.9    2.9      59.136
2014    9       27     6  36    5.39   633.8    2.9      59.123
2014    9       27     6  41    5.39   633.7    2.9      59.111
2014    9       27     6  46    5.39   633.6    2.9      59.099
2014    9       27     6  51    5.39   633.5    2.9      59.087
2014    9       27     6  57    5.39   633.3    2.9      59.075
2014    9       27     7   2    5.39   633.2    2.9      59.063
2014    9       27     7   7    5.39   633.1    2.9      59.051
2014    9       27     7  12    5.39   633.0    2.9      59.039
2014    9       27     7  18    5.39   632.9    2.9      59.028
2014    9       27     7  23    5.39   632.8    2.9      59.016
2014    9       27     7  28    5.39   632.6    2.9      59.005
2014    9       27     7  34    5.38   632.5    2.9      58.994
2014    9       27     7  39    5.38   632.4    2.9      58.982
2014    9       27     7  44    5.38   632.3    2.9      58.971
2014    9       27     7  49    5.38   632.2    2.9      58.961
2014    9       27     7  55    5.38   632.0    2.9      58.950
2014    9       27     8   0    5.38   631.9    2.9      58.940
2014    9       27     8   5    5.38   631.8    2.9      58.929
2014    9       27     8  10    5.38   631.7    2.9      58.920
2014    9       27     8  16    5.38   631.6    2.9      58.910
2014    9       27     8  21    5.38   631.4    2.9      58.902
2014    9       27     8  26    5.38   631.3    2.9      58.894
2014    9       27     8  32    5.38   631.2    2.9      58.886
2014    9       27     8  37    5.38   631.1    2.9      58.879
2014    9       27     8  42    5.38   631.0    2.9      58.872
2014    9       27     8  47    5.38   630.8    2.9      58.867
2014    9       27     8  53    5.37   630.7    2.9      58.861
2014    9       27     8  58    5.37   630.6    2.9      58.857
2014    9       27     9   3    5.37   630.5    2.9      58.852
2014    9       27     9   8    5.37   630.4    2.9      58.849
2014    9       27     9  14    5.37   630.2    2.9      58.846
2014    9       27     9  19    5.37   630.1    2.9      58.844
2014    9       27     9  24    5.37   630.0    2.9      58.843
2014    9       27     9  30    5.37   629.9    2.9      58.842
2014    9       27     9  35    5.37   629.8    2.9      58.842
2014    9       27     9  40    5.37   629.6    2.9      58.842
2014    9       27     9  45    5.37   629.5    2.9      58.843
2014    9       27     9  51    5.37   629.4    2.9      58.844
2014    9       27     9  56    5.37   629.3    2.9      58.846
2014    9       27    10   1    5.37   629.2    2.9      58.849
2014    9       27    10   6    5.37   629.0    2.9      58.853
2014    9       27    10  12    5.36   628.9    2.9      58.856
2014    9       27    10  17    5.36   628.8    2.9      58.860
2014    9       27    10  22    5.36   628.7    2.9      58.863
2014    9       27    10  28    5.36   628.6    2.9      58.866
2014    9       27    10  33    5.36   628.4    2.9      58.870
2014    9       27    10  38    5.36   628.3    2.9      58.873
2014    9       27    10  43    5.36   628.2    2.9      58.876
2014    9       27    10  49    5.36   628.1    2.9      58.880
2014    9       27    10  54    5.36   628.0    2.9      58.884
2014    9       27    10  59    5.36   627.9    2.9      58.888
2014    9       27    11   5    5.36   627.7    3.0      58.891
2014    9       27    11  10    5.36   627.6    3.0      58.895
2014    9       27    11  15    5.36   627.5    3.0      58.899
2014    9       27    11  20    5.36   627.4    3.0      58.903
2014    9       27    11  26    5.36   627.3    3.0      58.907
2014    9       27    11  31    5.36   627.2    3.0      58.911
2014    9       27    11  36    5.35   627.1    3.0      58.914
2014    9       27    11  41    5.35   627.0    3.0      58.917
2014    9       27    11  47    5.35   626.9    3.0      58.920
2014    9       27    11  52    5.35   626.7    3.0      58.921
2014    9       27    11  57    5.35   626.6    3.0      58.921
2014    9       27    12   3    5.35   626.5    3.0      58.921
2014    9       27    12   8    5.35   626.4    3.0      58.920
2014    9       27    12  13    5.35   626.3    3.0      58.918
2014    9       27    12  18    5.35   626.2    3.0      58.916
2014    9       27    12  24    5.35   626.1    3.0      58.913
2014    9       27    12  29    5.35   626.0    3.0      58.909
2014    9       27    12  34    5.35   625.9    3.0      58.905
2014    9       27    12  40    5.35   625.8    3.0      58.900
2014    9       27    12  45    5.35   625.6    3.0      58.894
2014    9       27    12  50    5.35   625.5    3.0      58.888
2014    9       27    12  55    5.34   625.4    3.0      58.882
2014    9       27    13   1    5.34   625.3    3.0      58.875
2014    9       27    13   6    5.34   625.2    3.0      58.867
2014    9       27    13  11    5.34   625.1    3.0      58.860
2014    9       27    13  16    5.34   625.0    3.0      58.851
2014    9       27    13  22    5.34   624.9    3.0      58.843
2014    9       27    13  27    5.34   624.8    3.0      58.834
2014    9       27    13  32    5.34   624.6    3.0      58.824
2014    9       27    13  38    5.34   624.5    3.0      58.814
2014    9       27    13  43    5.34   624.4    3.0      58.804
2014    9       27    13  48    5.34   624.3    3.0      58.794
2014    9       27    13  53    5.34   624.2    3.0      58.783
2014    9       27    13  59    5.34   624.1    3.0      58.772
2014    9       27    14   4    5.34   624.0    3.0      58.761
2014    9       27    14   9    5.34   623.8    3.0      58.749
2014    9       27    14  14    5.34   623.7    3.0      58.738
2014    9       27    14  20    5.33   623.6    3.0      58.726
2014    9       27    14  25    5.33   623.5    3.0      58.715
2014    9       27    14  30    5.33   623.4    3.0      58.703
2014    9       27    14  35    5.33   623.3    3.0      58.691
2014    9       27    14  41    5.33   623.2    3.0      58.679
2014    9       27    14  46    5.33   623.0    3.0      58.667
2014    9       27    14  51    5.33   622.9    3.0      58.655
2014    9       27    14  57    5.33   622.8    3.0      58.643
2014    9       27    15   2    5.33   622.7    3.0      58.631
2014    9       27    15   7    5.33   622.6    3.0      58.620
2014    9       27    15  12    5.33   622.5    3.0      58.608
2014    9       27    15  18    5.33   622.3    3.0      58.596
2014    9       27    15  23    5.33   622.2    3.0      58.584
2014    9       27    15  28    5.33   622.1    3.0      58.573
2014    9       27    15  33    5.33   622.0    3.0      58.562
2014    9       27    15  39    5.33   621.9    3.0      58.550
2014    9       27    15  44    5.33   621.8    3.0      58.539
2014    9       27    15  49    5.33   621.6    3.0      58.528
2014    9       27    15  55    5.32   621.5    3.0      58.517
2014    9       27    16   0    5.32   621.4    3.0      58.507
2014    9       27    16   5    5.32   621.3    3.0      58.496
2014    9       27    16  10    5.32   621.1    3.0      58.486
2014    9       27    16  16    5.32   621.0    3.0      58.476
2014    9       27    16  21    5.32   620.9    3.0      58.466
2014    9       27    16  26    5.32   620.8    3.0      58.456
2014    9       27    16  31    5.32   620.6    3.0      58.447
2014    9       27    16  37    5.32   620.5    3.0      58.438
2014    9       27    16  42    5.32   620.4    3.0      58.430
2014    9       27    16  47    5.32   620.3    3.0      58.422
2014    9       27    16  53    5.32   620.1    3.0      58.414
2014    9       27    16  58    5.32   620.0    3.0      58.407
2014    9       27    17   3    5.32   619.9    3.0      58.401
2014    9       27    17   8    5.32   619.8    3.0      58.394
2014    9       27    17  14    5.32   619.6    3.0      58.389
2014    9       27    17  19    5.31   619.5    3.0      58.384
2014    9       27    17  24    5.31   619.4    3.0      58.380
2014    9       27    17  30    5.31   619.2    3.0      58.376
2014    9       27    17  35    5.31   619.1    3.0      58.373
2014    9       27    17  40    5.31   619.0    3.0      58.371
2014    9       27    17  45    5.31   618.8    3.0      58.369
2014    9       27    17  51    5.31   618.7    3.0      58.369
2014    9       27    17  56    5.31   618.6    3.0      58.369
2014    9       27    18   1    5.31   618.5    3.0      58.370
2014    9       27    18   6    5.31   618.3    3.0      58.372
2014    9       27    18  12    5.31   618.2    3.0      58.374
2014    9       27    18  17    5.31   618.1    3.0      58.377
2014    9       27    18  22    5.31   617.9    3.0      58.381
2014    9       27    18  28    5.31   617.8    3.0      58.386
2014    9       27    18  33    5.31   617.7    3.0      58.391
2014    9       27    18  38    5.31   617.6    3.0      58.397
2014    9       27    18  43    5.31   617.4    3.0      58.403
2014    9       27    18  49    5.31   617.3    3.0      58.409
2014    9       27    18  54    5.31   617.2    3.0      58.415
2014    9       27    18  59    5.31   617.1    3.0      58.420
2014    9       27    19   5    5.31   616.9    3.0      58.425
2014    9       27    19  10    5.31   616.8    3.0      58.429
2014    9       27    19  15    5.30   616.7    3.0      58.432
2014    9       27    19  20    5.30   616.6    3.0      58.435
2014    9       27    19  26    5.30   616.4    3.0      58.438
2014    9       27    19  31    5.30   616.3    3.0      58.440
2014    9       27    19  36    5.30   616.2    3.0      58.441
2014    9       27    19  41    5.30   616.1    3.0      58.442
2014    9       27    19  47    5.30   616.0    3.0      58.442
2014    9       27    19  52    5.30   615.8    3.0      58.441
2014    9       27    19  57    5.30   615.7    3.0      58.440
2014    9       27    20   3    5.30   615.6    3.0      58.438
2014    9       27    20   8    5.30   615.5    3.0      58.436
2014    9       27    20  13    5.30   615.3    3.0      58.433
2014    9       27    20  18    5.30   615.2    3.0      58.430
2014    9       27    20  24    5.30   615.1    3.0      58.426
2014    9       27    20  29    5.30   615.0    3.0      58.422
2014    9       27    20  34    5.30   614.8    3.0      58.417
2014    9       27    20  39    5.30   614.7    3.1      58.412
2014    9       27    20  45    5.30   614.6    3.1      58.407
2014    9       27    20  50    5.30   614.5    3.1      58.401
2014    9       27    20  55    5.29   614.4    3.1      58.396
2014    9       27    21   1    5.29   614.2    3.1      58.390
2014    9       27    21   6    5.29   614.1    3.1      58.384
2014    9       27    21  11    5.29   614.0    3.1      58.378
2014    9       27    21  16    5.29   613.9    3.1      58.373
2014    9       27    21  22    5.29   613.7    3.1      58.367
2014    9       27    21  27    5.29   613.6    3.1      58.361
2014    9       27    21  32    5.29   613.5    3.1      58.356
2014    9       27    21  37    5.29   613.4    3.1      58.350
2014    9       27    21  43    5.29   613.3    3.1      58.346
2014    9       27    21  48    5.29   613.1    3.1      58.341
2014    9       27    21  53    5.29   613.0    3.1      58.337
2014    9       27    21  59    5.29   612.9    3.1      58.333
2014    9       27    22   4    5.29   612.8    3.1      58.329
2014    9       27    22   9    5.29   612.7    3.1      58.326
2014    9       27    22  14    5.29   612.5    3.1      58.323
2014    9       27    22  20    5.29   612.4    3.1      58.321
2014    9       27    22  25    5.29   612.3    3.1      58.318
2014    9       27    22  30    5.28   612.2    3.1      58.317
2014    9       27    22  35    5.28   612.1    3.1      58.315
2014    9       27    22  41    5.28   611.9    3.1      58.314
2014    9       27    22  46    5.28   611.8    3.1      58.313
2014    9       27    22  51    5.28   611.7    3.1      58.312
2014    9       27    22  56    5.28   611.6    3.1      58.311
2014    9       27    23   2    5.28   611.5    3.1      58.311
2014    9       27    23   7    5.28   611.4    3.1      58.310
2014    9       27    23  12    5.28   611.2    3.1      58.310
2014    9       27    23  18    5.28   611.1    3.1      58.309
2014    9       27    23  23    5.28   611.0    3.1      58.309
2014    9       27    23  28    5.28   610.9    3.1      58.308
2014    9       27    23  33    5.28   610.8    3.1      58.307
2014    9       27    23  39    5.28   610.7    3.1      58.306
2014    9       27    23  44    5.28   610.5    3.1      58.305
2014    9       27    23  49    5.28   610.4    3.1      58.304
2014    9       27    23  55    5.28   610.3    3.1      58.303
2014    9       28     0   0    5.28   610.2    3.1      58.301
2014    9       28     0   5    5.27   610.1    3.1      58.299
2014    9       28     0  10    5.27   609.9    3.1      58.297
2014    9       28     0  16    5.27   609.8    3.1      58.294
2014    9       28     0  21    5.27   609.7    3.1      58.292
2014    9       28     0  26    5.27   609.6    3.1      58.289
2014    9       28     0  31    5.27   609.5    3.1      58.287
2014    9       28     0  37    5.27   609.3    3.1      58.284
2014    9       28     0  42    5.27   609.2    3.1      58.281
2014    9       28     0  47    5.27   609.1    3.1      58.279
2014    9       28     0  53    5.27   609.0    3.1      58.276
2014    9       28     0  58    5.27   608.9    3.1      58.274
2014    9       28     1   3    5.27   608.8    3.1      58.271
2014    9       28     1   8    5.27   608.6    3.1      58.269
2014    9       28     1  14    5.27   608.5    3.1      58.267
2014    9       28     1  19    5.27   608.4    3.1      58.265
2014    9       28     1  24    5.27   608.3    3.1      58.263
2014    9       28     1  30    5.27   608.2    3.1      58.260
2014    9       28     1  35    5.27   608.0    3.1      58.258
2014    9       28     1  40    5.27   607.9    3.1      58.255
2014    9       28     1  45    5.26   607.8    3.1      58.252
2014    9       28     1  51    5.26   607.7    3.1      58.249
2014    9       28     1  56    5.26   607.6    3.1      58.246
2014    9       28     2   1    5.26   607.5    3.1      58.243
2014    9       28     2   6    5.26   607.3    3.1      58.239
2014    9       28     2  12    5.26   607.2    3.1      58.235
2014    9       28     2  17    5.26   607.1    3.1      58.231
2014    9       28     2  22    5.26   607.0    3.1      58.226
2014    9       28     2  28    5.26   606.9    3.1      58.221
2014    9       28     2  33    5.26   606.8    3.1      58.216
2014    9       28     2  38    5.26   606.6    3.1      58.211
2014    9       28     2  43    5.26   606.5    3.1      58.205
2014    9       28     2  49    5.26   606.4    3.1      58.199
2014    9       28     2  54    5.26   606.3    3.1      58.193
2014    9       28     2  59    5.26   606.2    3.1      58.186
2014    9       28     3   4    5.26   606.1    3.1      58.178
2014    9       28     3  10    5.26   605.9    3.1      58.171
2014    9       28     3  15    5.26   605.8    3.1      58.163
2014    9       28     3  20    5.26   605.7    3.1      58.154
2014    9       28     3  26    5.25   605.6    3.1      58.145
2014    9       28     3  31    5.25   605.5    3.1      58.136
2014    9       28     3  36    5.25   605.3    3.1      58.126
2014    9       28     3  41    5.25   605.2    3.1      58.116
2014    9       28     3  47    5.25   605.1    3.1      58.106
2014    9       28     3  52    5.25   605.0    3.1      58.095
2014    9       28     3  57    5.25   604.9    3.1      58.084
2014    9       28     4   2    5.25   604.7    3.1      58.073
2014    9       28     4   8    5.25   604.6    3.1      58.061
2014    9       28     4  13    5.25   604.5    3.1      58.050
2014    9       28     4  18    5.25   604.4    3.1      58.038
2014    9       28     4  24    5.25   604.3    3.1      58.026
2014    9       28     4  29    5.25   604.1    3.1      58.014
2014    9       28     4  34    5.25   604.0    3.1      58.003
2014    9       28     4  39    5.25   603.9    3.1      57.991
2014    9       28     4  45    5.25   603.8    3.1      57.979
2014    9       28     4  50    5.24   603.6    3.1      57.967
2014    9       28     4  55    5.24   603.5    3.1      57.956
2014    9       28     5   0    5.24   603.4    3.1      57.944
2014    9       28     5   6    5.24   603.3    3.1      57.933
2014    9       28     5  11    5.24   603.1    3.1      57.923
2014    9       28     5  16    5.24   603.0    3.1      57.912
2014    9       28     5  22    5.24   602.9    3.1      57.902
2014    9       28     5  27    5.24   602.8    3.1      57.892
2014    9       28     5  32    5.24   602.6    3.1      57.882
2014    9       28     5  37    5.24   602.5    3.1      57.873
2014    9       28     5  43    5.24   602.4    3.1      57.865
2014    9       28     5  48    5.24   602.3    3.1      57.857
2014    9       28     5  53    5.24   602.1    3.1      57.849
2014    9       28     5  58    5.24   602.0    3.1      57.842
2014    9       28     6   4    5.24   601.9    3.1      57.836
2014    9       28     6   9    5.23   601.7    3.1      57.830
2014    9       28     6  14    5.23   601.6    3.2      57.824
2014    9       28     6  20    5.23   601.5    3.2      57.819
2014    9       28     6  25    5.23   601.3    3.2      57.815
2014    9       28     6  30    5.23   601.2    3.2      57.811
2014    9       28     6  35    5.23   601.1    3.2      57.808
2014    9       28     6  41    5.23   601.0    3.2      57.805
2014    9       28     6  46    5.23   600.8    3.2      57.802
2014    9       28     6  51    5.23   600.7    3.2      57.800
2014    9       28     6  56    5.23   600.6    3.2      57.798
2014    9       28     7   2    5.23   600.4    3.2      57.797
2014    9       28     7   7    5.23   600.3    3.2      57.796
2014    9       28     7  12    5.23   600.2    3.2      57.795
2014    9       28     7  18    5.23   600.1    3.2      57.794
2014    9       28     7  23    5.23   599.9    3.2      57.794
2014    9       28     7  28    5.23   599.8    3.2      57.794
2014    9       28     7  33    5.23   599.7    3.2      57.794
2014    9       28     7  39    5.22   599.5    3.2      57.795
2014    9       28     7  44    5.22   599.4    3.2      57.796
2014    9       28     7  49    5.22   599.3    3.2      57.797
2014    9       28     7  54    5.22   599.2    3.2      57.798
2014    9       28     8   0    5.22   599.0    3.2      57.799
2014    9       28     8   5    5.22   598.9    3.2      57.800
2014    9       28     8  10    5.22   598.8    3.2      57.802
2014    9       28     8  16    5.22   598.7    3.2      57.804
2014    9       28     8  21    5.22   598.5    3.2      57.806
2014    9       28     8  26    5.22   598.4    3.2      57.808
2014    9       28     8  31    5.22   598.3    3.2      57.811
2014    9       28     8  37    5.22   598.2    3.2      57.813
2014    9       28     8  42    5.22   598.1    3.2      57.815
2014    9       28     8  47    5.22   597.9    3.2      57.816
2014    9       28     8  53    5.22   597.8    3.2      57.816
2014    9       28     8  58    5.22   597.7    3.2      57.816
2014    9       28     9   3    5.22   597.6    3.2      57.815
2014    9       28     9   8    5.22   597.5    3.2      57.813
2014    9       28     9  14    5.21   597.4    3.2      57.811
2014    9       28     9  19    5.21   597.2    3.2      57.809
2014    9       28     9  24    5.21   597.1    3.2      57.806
2014    9       28     9  29    5.21   597.0    3.2      57.802
2014    9       28     9  35    5.21   596.9    3.2      57.797
2014    9       28     9  40    5.21   596.8    3.2      57.793
2014    9       28     9  45    5.21   596.7    3.2      57.788
2014    9       28     9  51    5.21   596.6    3.2      57.782
2014    9       28     9  56    5.21   596.4    3.2      57.776
2014    9       28    10   1    5.21   596.3    3.2      57.769
2014    9       28    10   6    5.21   596.2    3.2      57.762
2014    9       28    10  12    5.21   596.1    3.2      57.754
2014    9       28    10  17    5.21   596.0    3.2      57.746
2014    9       28    10  22    5.21   595.9    3.2      57.738
2014    9       28    10  27    5.20   595.8    3.2      57.729
2014    9       28    10  33    5.20   595.6    3.2      57.720
2014    9       28    10  38    5.20   595.5    3.2      57.710
2014    9       28    10  43    5.20   595.4    3.2      57.700
2014    9       28    10  49    5.20   595.3    3.2      57.690
2014    9       28    10  54    5.20   595.2    3.2      57.679
2014    9       28    10  59    5.20   595.1    3.2      57.668
2014    9       28    11   4    5.20   594.9    3.2      57.656
2014    9       28    11  10    5.20   594.8    3.2      57.645
2014    9       28    11  15    5.20   594.7    3.2      57.632
2014    9       28    11  20    5.20   594.6    3.2      57.620
2014    9       28    11  25    5.20   594.5    3.2      57.607
2014    9       28    11  31    5.20   594.4    3.2      57.595
2014    9       28    11  36    5.19   594.2    3.2      57.582
2014    9       28    11  41    5.19   594.1    3.2      57.569
2014    9       28    11  47    5.19   594.0    3.2      57.555
2014    9       28    11  52    5.19   593.9    3.2      57.542
2014    9       28    11  57    5.19   593.8    3.2      57.528
2014    9       28    12   2    5.19   593.7    3.2      57.515
2014    9       28    12   8    5.19   593.5    3.2      57.501
2014    9       28    12  13    5.19   593.4    3.2      57.487
2014    9       28    12  18    5.19   593.3    3.2      57.474
2014    9       28    12  23    5.19   593.2    3.2      57.460
2014    9       28    12  29    5.19   593.1    3.2      57.446
2014    9       28    12  34    5.19   592.9    3.2      57.432
2014    9       28    12  39    5.19   592.8    3.2      57.417
2014    9       28    12  45    5.18   592.7    3.2      57.403
2014    9       28    12  50    5.18   592.6    3.2      57.389
2014    9       28    12  55    5.18   592.4    3.2      57.374
2014    9       28    13   0    5.18   592.3    3.2      57.359
2014    9       28    13   6    5.18   592.2    3.2      57.344
2014    9       28    13  11    5.18   592.1    3.2      57.329
2014    9       28    13  16    5.18   592.0    3.2      57.314
2014    9       28    13  21    5.18   591.8    3.2      57.299
2014    9       28    13  27    5.18   591.7    3.2      57.283
2014    9       28    13  32    5.18   591.6    3.2      57.268
2014    9       28    13  37    5.18   591.5    3.2      57.252
2014    9       28    13  43    5.18   591.3    3.2      57.237
2014    9       28    13  48    5.17   591.2    3.2      57.221
2014    9       28    13  53    5.17   591.1    3.2      57.206
2014    9       28    13  58    5.17   590.9    3.2      57.191
2014    9       28    14   4    5.17   590.8    3.2      57.176
2014    9       28    14   9    5.17   590.7    3.2      57.162
2014    9       28    14  14    5.17   590.6    3.2      57.147
2014    9       28    14  19    5.17   590.4    3.2      57.133
2014    9       28    14  25    5.17   590.3    3.2      57.118
2014    9       28    14  30    5.17   590.2    3.2      57.105
2014    9       28    14  35    5.17   590.1    3.2      57.091
2014    9       28    14  41    5.17   589.9    3.2      57.077
2014    9       28    14  46    5.17   589.8    3.2      57.063
2014    9       28    14  51    5.17   589.7    3.2      57.050
2014    9       28    14  56    5.17   589.6    3.2      57.037
2014    9       28    15   2    5.16   589.4    3.2      57.024
2014    9       28    15   7    5.16   589.3    3.2      57.011
2014    9       28    15  12    5.16   589.2    3.2      56.998
2014    9       28    15  18    5.16   589.1    3.2      56.985
2014    9       28    15  23    5.16   588.9    3.2      56.972
2014    9       28    15  28    5.16   588.8    3.2      56.959
2014    9       28    15  33    5.16   588.7    3.2      56.946
2014    9       28    15  39    5.16   588.5    3.2      56.934
2014    9       28    15  44    5.16   588.4    3.2      56.921
2014    9       28    15  49    5.16   588.3    3.2      56.909
2014    9       28    15  54    5.16   588.2    3.2      56.897
2014    9       28    16   0    5.16   588.0    3.2      56.885
2014    9       28    16   5    5.16   587.9    3.2      56.873
2014    9       28    16  10    5.15   587.8    3.2      56.861
2014    9       28    16  16    5.15   587.7    3.2      56.850
2014    9       28    16  21    5.15   587.5    3.2      56.839
2014    9       28    16  26    5.15   587.4    3.2      56.828
2014    9       28    16  31    5.15   587.3    3.2      56.817
2014    9       28    16  37    5.15   587.1    3.3      56.806
2014    9       28    16  42    5.15   587.0    3.3      56.795
2014    9       28    16  47    5.15   586.9    3.3      56.785
2014    9       28    16  53    5.15   586.8    3.3      56.774
2014    9       28    16  58    5.15   586.6    3.3      56.763
2014    9       28    17   3    5.15   586.5    3.3      56.753
2014    9       28    17   8    5.15   586.4    3.3      56.742
2014    9       28    17  14    5.14   586.2    3.3      56.732
2014    9       28    17  19    5.14   586.1    3.3      56.721
2014    9       28    17  24    5.14   586.0    3.3      56.711
2014    9       28    17  29    5.14   585.8    3.3      56.701
2014    9       28    17  35    5.14   585.7    3.3      56.691
2014    9       28    17  40    5.14   585.6    3.3      56.682
2014    9       28    17  45    5.14   585.4    3.3      56.672
2014    9       28    17  51    5.14   585.3    3.3      56.663
2014    9       28    17  56    5.14   585.2    3.3      56.655
2014    9       28    18   1    5.14   585.0    3.3      56.647
2014    9       28    18   6    5.14   584.9    3.3      56.640
2014    9       28    18  12    5.14   584.8    3.3      56.633
2014    9       28    18  17    5.13   584.7    3.3      56.627
2014    9       28    18  22    5.13   584.5    3.3      56.621
2014    9       28    18  27    5.13   584.4    3.3      56.615
2014    9       28    18  33    5.13   584.3    3.3      56.611
2014    9       28    18  38    5.13   584.1    3.3      56.607
2014    9       28    18  43    5.13   584.0    3.3      56.603
2014    9       28    18  49    5.13   583.9    3.3      56.600
2014    9       28    18  54    5.13   583.8    3.3      56.598
2014    9       28    18  59    5.13   583.6    3.3      56.595
2014    9       28    19   4    5.13   583.5    3.3      56.592
2014    9       28    19  10    5.13   583.4    3.3      56.589
2014    9       28    19  15    5.13   583.3    3.3      56.584
2014    9       28    19  20    5.12   583.1    3.3      56.579
2014    9       28    19  25    5.12   583.0    3.3      56.573
2014    9       28    19  31    5.12   582.9    3.3      56.566
2014    9       28    19  36    5.12   582.8    3.3      56.559
2014    9       28    19  41    5.12   582.6    3.3      56.552
2014    9       28    19  46    5.12   582.5    3.3      56.544
2014    9       28    19  52    5.12   582.4    3.3      56.535
2014    9       28    19  57    5.12   582.3    3.3      56.525
2014    9       28    20   2    5.12   582.1    3.3      56.515
2014    9       28    20   8    5.12   582.0    3.3      56.505
2014    9       28    20  13    5.12   581.9    3.3      56.494
2014    9       28    20  18    5.11   581.8    3.3      56.482
2014    9       28    20  23    5.11   581.7    3.3      56.470
2014    9       28    20  29    5.11   581.5    3.3      56.457
2014    9       28    20  34    5.11   581.4    3.3      56.444
2014    9       28    20  39    5.11   581.3    3.3      56.430
2014    9       28    20  44    5.11   581.2    3.3      56.415
2014    9       28    20  50    5.11   581.0    3.3      56.400
2014    9       28    20  55    5.11   580.9    3.3      56.384
2014    9       28    21   0    5.11   580.8    3.3      56.368
2014    9       28    21   6    5.11   580.7    3.3      56.351
2014    9       28    21  11    5.11   580.5    3.3      56.334
2014    9       28    21  16    5.10   580.4    3.3      56.316
2014    9       28    21  21    5.10   580.3    3.3      56.298
2014    9       28    21  27    5.10   580.2    3.3      56.280
2014    9       28    21  32    5.10   580.1    3.3      56.261
2014    9       28    21  37    5.10   579.9    3.3      56.242
2014    9       28    21  42    5.10   579.8    3.3      56.223
2014    9       28    21  48    5.10   579.7    3.3      56.203
2014    9       28    21  53    5.10   579.6    3.3      56.183
2014    9       28    21  58    5.10   579.4    3.3      56.163
2014    9       28    22   4    5.10   579.3    3.3      56.142
2014    9       28    22   9    5.10   579.2    3.3      56.121
2014    9       28    22  14    5.09   579.1    3.3      56.100
2014    9       28    22  19    5.09   578.9    3.3      56.079
2014    9       28    22  25    5.09   578.8    3.3      56.057
2014    9       28    22  30    5.09   578.7    3.3      56.035
2014    9       28    22  35    5.09   578.6    3.3      56.013
2014    9       28    22  41    5.09   578.4    3.3      55.991
2014    9       28    22  46    5.09   578.3    3.3      55.968
2014    9       28    22  51    5.09   578.2    3.3      55.946
2014    9       28    22  56    5.09   578.1    3.3      55.923
2014    9       28    23   2    5.09   577.9    3.3      55.900
2014    9       28    23   7    5.09   577.8    3.3      55.876
2014    9       28    23  12    5.08   577.7    3.3      55.853
2014    9       28    23  17    5.08   577.6    3.3      55.829
2014    9       28    23  23    5.08   577.4    3.3      55.806
2014    9       28    23  28    5.08   577.3    3.3      55.782
2014    9       28    23  33    5.08   577.2    3.3      55.758
2014    9       28    23  39    5.08   577.1    3.3      55.734
2014    9       28    23  44    5.08   576.9    3.3      55.709
2014    9       28    23  49    5.08   576.8    3.3      55.685
2014    9       28    23  54    5.08   576.7    3.3      55.661
2014    9       29     0   0    5.08   576.5    3.3      55.637
2014    9       29     0   5    5.07   576.4    3.3      55.613
2014    9       29     0  10    5.07   576.3    3.3      55.589
2014    9       29     0  16    5.07   576.1    3.3      55.565
2014    9       29     0  21    5.07   576.0    3.3      55.541
2014    9       29     0  26    5.07   575.9    3.3      55.517
2014    9       29     0  31    5.07   575.7    3.3      55.494
2014    9       29     0  37    5.07   575.6    3.3      55.471
2014    9       29     0  42    5.07   575.5    3.3      55.447
2014    9       29     0  47    5.07   575.3    3.3      55.425
2014    9       29     0  52    5.06   575.2    3.3      55.403
2014    9       29     0  58    5.06   575.0    3.3      55.381
2014    9       29     1   3    5.06   574.9    3.3      55.360
2014    9       29     1   8    5.06   574.8    3.3      55.339
2014    9       29     1  14    5.06   574.6    3.3      55.319
2014    9       29     1  19    5.06   574.5    3.3      55.299
2014    9       29     1  24    5.06   574.3    3.3      55.281
2014    9       29     1  29    5.06   574.2    3.3      55.264
2014    9       29     1  35    5.06   574.1    3.3      55.248
2014    9       29     1  40    5.06   573.9    3.3      55.232
2014    9       29     1  45    5.05   573.8    3.3      55.217
2014    9       29     1  50    5.05   573.6    3.3      55.203
2014    9       29     1  56    5.05   573.5    3.3      55.190
2014    9       29     2   1    5.05   573.4    3.3      55.179
2014    9       29     2   6    5.05   573.2    3.3      55.168
2014    9       29     2  12    5.05   573.1    3.3      55.158
2014    9       29     2  17    5.05   573.0    3.3      55.149
2014    9       29     2  22    5.05   572.8    3.3      55.141
2014    9       29     2  27    5.05   572.7    3.3      55.132
2014    9       29     2  33    5.05   572.5    3.3      55.123
2014    9       29     2  38    5.04   572.4    3.3      55.114
2014    9       29     2  43    5.04   572.3    3.3      55.105
2014    9       29     2  48    5.04   572.1    3.3      55.095
2014    9       29     2  54    5.04   572.0    3.3      55.085
2014    9       29     2  59    5.04   571.8    3.3      55.075
2014    9       29     3   4    5.04   571.7    3.3      55.065
2014    9       29     3  10    5.04   571.6    3.3      55.054
2014    9       29     3  15    5.04   571.4    3.3      55.044
2014    9       29     3  20    5.04   571.3    3.3      55.033
2014    9       29     3  25    5.04   571.1    3.3      55.022
2014    9       29     3  31    5.04   571.0    3.3      55.010
2014    9       29     3  36    5.03   570.9    3.3      54.999
2014    9       29     3  41    5.03   570.7    3.3      54.988
2014    9       29     3  46    5.03   570.6    3.3      54.976
2014    9       29     3  52    5.03   570.4    3.3      54.965
2014    9       29     3  57    5.03   570.3    3.3      54.953
2014    9       29     4   2    5.03   570.2    3.3      54.941
2014    9       29     4   8    5.03   570.0    3.3      54.929
2014    9       29     4  13    5.03   569.9    3.3      54.917
2014    9       29     4  18    5.03   569.7    3.3      54.904
2014    9       29     4  23    5.03   569.6    3.3      54.892
2014    9       29     4  29    5.02   569.4    3.3      54.879
2014    9       29     4  34    5.02   569.3    3.3      54.866
2014    9       29     4  39    5.02   569.2    3.3      54.854
2014    9       29     4  44    5.02   569.0    3.3      54.841
2014    9       29     4  50    5.02   568.9    3.3      54.829
2014    9       29     4  55    5.02   568.7    3.3      54.816
2014    9       29     5   0    5.02   568.6    3.4      54.804
2014    9       29     5   6    5.02   568.5    3.4      54.792
2014    9       29     5  11    5.02   568.3    3.4      54.780
2014    9       29     5  16    5.02   568.2    3.4      54.768
2014    9       29     5  21    5.01   568.0    3.4      54.756
2014    9       29     5  27    5.01   567.9    3.4      54.744
2014    9       29     5  32    5.01   567.8    3.4      54.732
2014    9       29     5  37    5.01   567.6    3.4      54.719
2014    9       29     5  42    5.01   567.5    3.4      54.705
2014    9       29     5  48    5.01   567.4    3.4      54.691
2014    9       29     5  53    5.01   567.2    3.4      54.676
2014    9       29     5  58    5.01   567.1    3.4      54.660
2014    9       29     6   4    5.01   567.0    3.4      54.643
2014    9       29     6   9    5.01   566.8    3.4      54.626
2014    9       29     6  14    5.01   566.7    3.4      54.608
2014    9       29     6  19    5.00   566.6    3.4      54.590
2014    9       29     6  25    5.00   566.4    3.4      54.570
2014    9       29     6  30    5.00   566.3    3.4      54.550
2014    9       29     6  35    5.00   566.2    3.4      54.529
2014    9       29     6  41    5.00   566.0    3.4      54.508
2014    9       29     6  46    5.00   565.9    3.4      54.486
2014    9       29     6  51    5.00   565.8    3.4      54.463
2014    9       29     6  56    5.00   565.6    3.4      54.440
2014    9       29     7   2    5.00   565.5    3.4      54.416
2014    9       29     7   7    4.99   565.4    3.4      54.392
2014    9       29     7  12    4.99   565.2    3.4      54.367
2014    9       29     7  17    4.99   565.1    3.4      54.342
2014    9       29     7  23    4.99   565.0    3.4      54.316
2014    9       29     7  28    4.99   564.8    3.4      54.289
2014    9       29     7  33    4.99   564.7    3.4      54.262
2014    9       29     7  39    4.99   564.6    3.4      54.235
2014    9       29     7  44    4.99   564.4    3.4      54.207
2014    9       29     7  49    4.99   564.3    3.4      54.179
2014    9       29     7  54    4.99   564.1    3.4      54.150
2014    9       29     8   0    4.98   564.0    3.4      54.121
2014    9       29     8   5    4.98   563.9    3.4      54.092
2014    9       29     8  10    4.98   563.7    3.4      54.063
2014    9       29     8  15    4.98   563.6    3.4      54.033
2014    9       29     8  21    4.98   563.4    3.4      54.003
2014    9       29     8  26    4.98   563.3    3.4      53.972
2014    9       29     8  31    4.98   563.2    3.4      53.942
2014    9       29     8  37    4.98   563.0    3.4      53.912
2014    9       29     8  42    4.98   562.9    3.4      53.881
2014    9       29     8  47    4.97   562.7    3.4      53.851
2014    9       29     8  52    4.97   562.6    3.4      53.821
2014    9       29     8  58    4.97   562.4    3.4      53.791
2014    9       29     9   3    4.97   562.3    3.4      53.761
2014    9       29     9   8    4.97   562.2    3.4      53.731
2014    9       29     9  13    4.97   562.0    3.4      53.701
2014    9       29     9  19    4.97   561.9    3.4      53.672
2014    9       29     9  24    4.97   561.7    3.4      53.643
2014    9       29     9  29    4.97   561.6    3.4      53.614
2014    9       29     9  35    4.96   561.4    3.4      53.586
2014    9       29     9  40    4.96   561.3    3.4      53.557
2014    9       29     9  45    4.96   561.1    3.4      53.529
2014    9       29     9  50    4.96   561.0    3.4      53.502
2014    9       29     9  56    4.96   560.9    3.4      53.474
2014    9       29    10   1    4.96   560.7    3.4      53.447
2014    9       29    10   6    4.96   560.6    3.4      53.420
2014    9       29    10  11    4.96   560.4    3.4      53.394
2014    9       29    10  17    4.95   560.3    3.4      53.367
2014    9       29    10  22    4.95   560.1    3.4      53.341
2014    9       29    10  27    4.95   560.0    3.4      53.315
2014    9       29    10  33    4.95   559.8    3.4      53.289
2014    9       29    10  38    4.95   559.6    3.4      53.264
2014    9       29    10  43    4.95   559.5    3.4      53.239
2014    9       29    10  48    4.95   559.3    3.4      53.214
2014    9       29    10  54    4.95   559.2    3.4      53.190
2014    9       29    10  59    4.95   559.0    3.4      53.166
2014    9       29    11   4    4.94   558.9    3.4      53.143
2014    9       29    11   9    4.94   558.7    3.4      53.121
2014    9       29    11  15    4.94   558.5    3.4      53.099
2014    9       29    11  20    4.94   558.4    3.4      53.078
2014    9       29    11  25    4.94   558.2    3.4      53.058
2014    9       29    11  31    4.94   558.1    3.4      53.038
2014    9       29    11  36    4.94   557.9    3.4      53.019
2014    9       29    11  41    4.94   557.8    3.4      53.001
2014    9       29    11  46    4.94   557.6    3.4      52.984
2014    9       29    11  52    4.93   557.4    3.4      52.968
2014    9       29    11  57    4.93   557.3    3.4      52.953
2014    9       29    12   2    4.93   557.1    3.4      52.939
2014    9       29    12   7    4.93   557.0    3.4      52.926
2014    9       29    12  13    4.93   556.8    3.4      52.913
2014    9       29    12  18    4.93   556.6    3.4      52.902
2014    9       29    12  23    4.93   556.5    3.4      52.891
2014    9       29    12  29    4.93   556.3    3.4      52.881
2014    9       29    12  34    4.93   556.2    3.4      52.872
2014    9       29    12  39    4.93   556.0    3.4      52.863
2014    9       29    12  44    4.92   555.9    3.4      52.854
2014    9       29    12  50    4.92   555.7    3.4      52.844
2014    9       29    12  55    4.92   555.6    3.4      52.834
2014    9       29    13   0    4.92   555.4    3.4      52.824
2014    9       29    13   5    4.92   555.3    3.4      52.813
2014    9       29    13  11    4.92   555.1    3.4      52.801
2014    9       29    13  16    4.92   555.0    3.4      52.790
2014    9       29    13  21    4.92   554.8    3.4      52.777
2014    9       29    13  27    4.92   554.7    3.4      52.764
2014    9       29    13  32    4.92   554.5    3.4      52.751
2014    9       29    13  37    4.91   554.4    3.4      52.737
2014    9       29    13  42    4.91   554.2    3.4      52.722
2014    9       29    13  48    4.91   554.0    3.4      52.707
2014    9       29    13  53    4.91   553.9    3.4      52.692
2014    9       29    13  58    4.91   553.7    3.4      52.676
2014    9       29    14   4    4.91   553.6    3.4      52.660
2014    9       29    14   9    4.91   553.4    3.4      52.643
2014    9       29    14  14    4.91   553.3    3.4      52.626
2014    9       29    14  19    4.91   553.1    3.4      52.608
2014    9       29    14  25    4.91   552.9    3.4      52.591
2014    9       29    14  30    4.90   552.8    3.4      52.573
2014    9       29    14  35    4.90   552.6    3.4      52.555
2014    9       29    14  41    4.90   552.5    3.4      52.536
2014    9       29    14  46    4.90   552.3    3.4      52.517
2014    9       29    14  51    4.90   552.2    3.4      52.498
2014    9       29    14  56    4.90   552.0    3.4      52.480
2014    9       29    15   2    4.90   551.8    3.4      52.460
2014    9       29    15   7    4.90   551.7    3.4      52.441
2014    9       29    15  12    4.90   551.5    3.4      52.421
2014    9       29    15  17    4.90   551.4    3.4      52.401
2014    9       29    15  23    4.90   551.2    3.4      52.382
2014    9       29    15  28    4.89   551.1    3.4      52.362
2014    9       29    15  33    4.89   550.9    3.4      52.342
2014    9       29    15  39    4.89   550.8    3.4      52.321
2014    9       29    15  44    4.89   550.6    3.4      52.300
2014    9       29    15  49    4.89   550.5    3.4      52.279
2014    9       29    15  54    4.89   550.3    3.4      52.257
2014    9       29    16   0    4.89   550.2    3.4      52.234
2014    9       29    16   5    4.89   550.0    3.4      52.211
2014    9       29    16  10    4.89   549.9    3.4      52.187
2014    9       29    16  15    4.89   549.7    3.4      52.162
2014    9       29    16  21    4.89   549.6    3.4      52.137
2014    9       29    16  26    4.88   549.4    3.4      52.111
2014    9       29    16  31    4.88   549.3    3.4      52.085
2014    9       29    16  36    4.88   549.1    3.4      52.058
2014    9       29    16  42    4.88   549.0    3.4      52.031
2014    9       29    16  47    4.88   548.8    3.4      52.003
2014    9       29    16  52    4.88   548.7    3.4      51.974
2014    9       29    16  58    4.88   548.5    3.4      51.945
2014    9       29    17   3    4.88   548.4    3.4      51.916
2014    9       29    17   8    4.88   548.2    3.4      51.886
2014    9       29    17  13    4.88   548.1    3.4      51.855
2014    9       29    17  19    4.87   547.9    3.4      51.824
2014    9       29    17  24    4.87   547.8    3.4      51.792
2014    9       29    17  29    4.87   547.6    3.4      51.760
2014    9       29    17  34    4.87   547.5    3.4      51.728
2014    9       29    17  40    4.87   547.3    3.4      51.695
2014    9       29    17  45    4.87   547.2    3.4      51.661
2014    9       29    17  50    4.87   547.0    3.4      51.627
2014    9       29    17  56    4.87   546.9    3.4      51.593
2014    9       29    18   1    4.86   546.7    3.4      51.559
2014    9       29    18   6    4.86   546.6    3.4      51.524
2014    9       29    18  11    4.86   546.4    3.4      51.489
2014    9       29    18  17    4.86   546.2    3.4      51.455
2014    9       29    18  22    4.86   546.1    3.4      51.420
2014    9       29    18  27    4.86   545.9    3.4      51.385
2014    9       29    18  32    4.86   545.8    3.4      51.350
2014    9       29    18  38    4.86   545.6    3.4      51.316
2014    9       29    18  43    4.86   545.4    3.4      51.282
2014    9       29    18  48    4.85   545.3    3.4      51.248
2014    9       29    18  54    4.85   545.1    3.4      51.214
2014    9       29    18  59    4.85   545.0    3.4      51.181
2014    9       29    19   4    4.85   544.8    3.4      51.148
2014    9       29    19   9    4.85   544.6    3.4      51.115
2014    9       29    19  15    4.85   544.5    3.4      51.083
2014    9       29    19  20    4.85   544.3    3.4      51.052
2014    9       29    19  25    4.85   544.2    3.4      51.021
2014    9       29    19  30    4.85   544.0    3.4      50.990
2014    9       29    19  36    4.84   543.8    3.4      50.960
2014    9       29    19  41    4.84   543.7    3.4      50.930
2014    9       29    19  46    4.84   543.5    3.4      50.901
2014    9       29    19  52    4.84   543.4    3.4      50.871
2014    9       29    19  57    4.84   543.2    3.4      50.843
2014    9       29    20   2    4.84   543.0    3.4      50.814
2014    9       29    20   7    4.84   542.9    3.4      50.786
2014    9       29    20  13    4.84   542.7    3.4      50.758
2014    9       29    20  18    4.84   542.5    3.4      50.730
2014    9       29    20  23    4.83   542.4    3.4      50.702
2014    9       29    20  29    4.83   542.2    3.4      50.675
2014    9       29    20  34    4.83   542.0    3.5      50.648
2014    9       29    20  39    4.83   541.8    3.5      50.621
2014    9       29    20  44    4.83   541.7    3.5      50.594
2014    9       29    20  50    4.83   541.5    3.5      50.568
2014    9       29    20  55    4.83   541.3    3.5      50.542
2014    9       29    21   0    4.83   541.1    3.5      50.517
2014    9       29    21   5    4.83   541.0    3.5      50.492
2014    9       29    21  11    4.82   540.8    3.5      50.468
2014    9       29    21  16    4.82   540.6    3.5      50.444
2014    9       29    21  21    4.82   540.4    3.5      50.421
2014    9       29    21  27    4.82   540.3    3.5      50.399
2014    9       29    21  32    4.82   540.1    3.5      50.378
2014    9       29    21  37    4.82   539.9    3.5      50.357
2014    9       29    21  42    4.82   539.7    3.5      50.337
2014    9       29    21  48    4.82   539.5    3.5      50.318
2014    9       29    21  53    4.82   539.4    3.5      50.300
2014    9       29    21  58    4.82   539.2    3.5      50.283
2014    9       29    22   4    4.82   539.0    3.5      50.267
2014    9       29    22   9    4.81   538.9    3.5      50.252
2014    9       29    22  14    4.81   538.7    3.5      50.237
2014    9       29    22  19    4.81   538.5    3.5      50.223
2014    9       29    22  25    4.81   538.3    3.5      50.209
2014    9       29    22  30    4.81   538.2    3.5      50.196
2014    9       29    22  35    4.81   538.0    3.5      50.184
2014    9       29    22  40    4.81   537.8    3.5      50.172
2014    9       29    22  46    4.81   537.7    3.5      50.160
2014    9       29    22  51    4.81   537.5    3.5      50.148
2014    9       29    22  56    4.81   537.3    3.5      50.136
2014    9       29    23   2    4.81   537.2    3.5      50.123
2014    9       29    23   7    4.81   537.0    3.5      50.110
2014    9       29    23  12    4.81   536.9    3.5      50.097
2014    9       29    23  17    4.80   536.7    3.5      50.082
2014    9       29    23  23    4.80   536.5    3.5      50.068
2014    9       29    23  28    4.80   536.3    3.5      50.052
2014    9       29    23  33    4.80   536.2    3.5      50.036
2014    9       29    23  38    4.80   536.0    3.5      50.019
2014    9       29    23  44    4.80   535.8    3.5      50.002
2014    9       29    23  49    4.80   535.7    3.5      49.984
2014    9       29    23  54    4.80   535.5    3.5      49.966
2014    9       30    24   0    4.80   535.3    3.5      49.947
