year    month   day   hour  minute  B_enl V_enl   n_enl       T_enl
[year] [month] [day] [hour][minute] [nT]  [km/s]  [cm-3]      [kK]
2014    9        3     0   1    3.83   519.9    3.6      45.660
2014    9        3     0   7    3.83   519.7    3.6      45.626
2014    9        3     0  12    3.83   519.5    3.6      45.593
2014    9        3     0  18    3.83   519.3    3.6      45.560
2014    9        3     0  24    3.82   519.1    3.6      45.528
2014    9        3     0  30    3.82   518.9    3.6      45.496
2014    9        3     0  36    3.82   518.7    3.6      45.465
2014    9        3     0  42    3.82   518.5    3.6      45.434
2014    9        3     0  47    3.82   518.3    3.6      45.403
2014    9        3     0  53    3.82   518.1    3.6      45.373
2014    9        3     0  59    3.82   517.9    3.6      45.343
2014    9        3     1   5    3.81   517.7    3.6      45.314
2014    9        3     1  11    3.81   517.5    3.6      45.286
2014    9        3     1  17    3.81   517.3    3.6      45.258
2014    9        3     1  22    3.81   517.1    3.6      45.230
2014    9        3     1  28    3.81   517.0    3.6      45.203
2014    9        3     1  34    3.81   516.8    3.6      45.176
2014    9        3     1  40    3.81   516.6    3.6      45.150
2014    9        3     1  46    3.81   516.4    3.6      45.124
2014    9        3     1  52    3.81   516.2    3.6      45.099
2014    9        3     1  57    3.80   516.0    3.6      45.075
2014    9        3     2   3    3.80   515.8    3.6      45.051
2014    9        3     2   9    3.80   515.6    3.6      45.029
2014    9        3     2  15    3.80   515.4    3.6      45.007
2014    9        3     2  21    3.80   515.2    3.6      44.985
2014    9        3     2  27    3.80   515.0    3.6      44.964
2014    9        3     2  32    3.80   514.8    3.6      44.944
2014    9        3     2  38    3.80   514.7    3.6      44.923
2014    9        3     2  44    3.80   514.5    3.6      44.902
2014    9        3     2  50    3.79   514.3    3.6      44.880
2014    9        3     2  56    3.79   514.1    3.6      44.859
2014    9        3     3   2    3.79   513.9    3.6      44.837
2014    9        3     3   7    3.79   513.8    3.6      44.814
2014    9        3     3  13    3.79   513.6    3.6      44.792
2014    9        3     3  19    3.79   513.4    3.6      44.769
2014    9        3     3  25    3.79   513.2    3.6      44.745
2014    9        3     3  31    3.79   513.0    3.7      44.721
2014    9        3     3  37    3.78   512.8    3.7      44.697
2014    9        3     3  42    3.78   512.6    3.7      44.672
2014    9        3     3  48    3.78   512.5    3.7      44.647
2014    9        3     3  54    3.78   512.3    3.7      44.621
2014    9        3     4   0    3.78   512.1    3.7      44.595
2014    9        3     4   6    3.78   511.9    3.7      44.569
2014    9        3     4  12    3.78   511.7    3.7      44.542
2014    9        3     4  17    3.77   511.5    3.7      44.515
2014    9        3     4  23    3.77   511.3    3.7      44.487
2014    9        3     4  29    3.77   511.1    3.7      44.459
2014    9        3     4  35    3.77   511.0    3.7      44.431
2014    9        3     4  41    3.77   510.8    3.7      44.402
2014    9        3     4  47    3.77   510.6    3.7      44.373
2014    9        3     4  52    3.77   510.4    3.7      44.344
2014    9        3     4  58    3.77   510.2    3.7      44.315
2014    9        3     5   4    3.76   510.0    3.7      44.285
2014    9        3     5  10    3.76   509.8    3.7      44.254
2014    9        3     5  16    3.76   509.6    3.7      44.224
2014    9        3     5  22    3.76   509.5    3.7      44.193
2014    9        3     5  27    3.76   509.3    3.7      44.161
2014    9        3     5  33    3.76   509.1    3.7      44.130
2014    9        3     5  39    3.76   508.9    3.7      44.098
2014    9        3     5  45    3.75   508.7    3.7      44.066
2014    9        3     5  51    3.75   508.5    3.7      44.033
2014    9        3     5  57    3.75   508.3    3.7      44.001
2014    9        3     6   2    3.75   508.1    3.7      43.968
2014    9        3     6   8    3.75   508.0    3.7      43.934
2014    9        3     6  14    3.75   507.8    3.7      43.901
2014    9        3     6  20    3.75   507.6    3.7      43.867
2014    9        3     6  26    3.74   507.4    3.7      43.833
2014    9        3     6  31    3.74   507.2    3.7      43.799
2014    9        3     6  37    3.74   507.0    3.7      43.765
2014    9        3     6  43    3.74   506.8    3.7      43.730
2014    9        3     6  49    3.74   506.6    3.7      43.696
2014    9        3     6  55    3.74   506.4    3.7      43.661
2014    9        3     7   1    3.74   506.2    3.7      43.627
2014    9        3     7   6    3.73   506.1    3.7      43.592
2014    9        3     7  12    3.73   505.9    3.7      43.557
2014    9        3     7  18    3.73   505.7    3.7      43.522
2014    9        3     7  24    3.73   505.5    3.7      43.486
2014    9        3     7  30    3.73   505.3    3.7      43.451
2014    9        3     7  36    3.73   505.1    3.7      43.416
2014    9        3     7  41    3.73   504.9    3.7      43.381
2014    9        3     7  47    3.73   504.7    3.7      43.346
2014    9        3     7  53    3.72   504.5    3.7      43.311
2014    9        3     7  59    3.72   504.3    3.7      43.276
2014    9        3     8   5    3.72   504.1    3.7      43.241
2014    9        3     8  11    3.72   503.9    3.7      43.206
2014    9        3     8  16    3.72   503.7    3.7      43.171
2014    9        3     8  22    3.72   503.5    3.7      43.136
2014    9        3     8  28    3.72   503.3    3.7      43.102
2014    9        3     8  34    3.71   503.1    3.7      43.067
2014    9        3     8  40    3.71   502.9    3.7      43.033
2014    9        3     8  46    3.71   502.7    3.7      42.999
2014    9        3     8  51    3.71   502.5    3.7      42.965
2014    9        3     8  57    3.71   502.3    3.7      42.931
2014    9        3     9   3    3.71   502.1    3.7      42.898
2014    9        3     9   9    3.71   501.9    3.7      42.865
2014    9        3     9  15    3.71   501.7    3.7      42.832
2014    9        3     9  21    3.71   501.5    3.7      42.800
2014    9        3     9  26    3.70   501.3    3.7      42.768
2014    9        3     9  32    3.70   501.1    3.7      42.736
2014    9        3     9  38    3.70   500.9    3.7      42.705
2014    9        3     9  44    3.70   500.7    3.7      42.675
2014    9        3     9  50    3.70   500.5    3.7      42.644
2014    9        3     9  56    3.70   500.3    3.7      42.614
2014    9        3    10   1    3.70   500.1    3.7      42.584
2014    9        3    10   7    3.70   499.9    3.7      42.555
2014    9        3    10  13    3.70   499.7    3.7      42.526
2014    9        3    10  19    3.69   499.5    3.7      42.497
2014    9        3    10  25    3.69   499.3    3.7      42.468
2014    9        3    10  31    3.69   499.1    3.7      42.439
2014    9        3    10  36    3.69   498.9    3.7      42.411
2014    9        3    10  42    3.69   498.7    3.7      42.382
2014    9        3    10  48    3.69   498.5    3.7      42.354
2014    9        3    10  54    3.69   498.3    3.7      42.325
2014    9        3    11   0    3.69   498.1    3.7      42.297
2014    9        3    11   6    3.69   497.9    3.7      42.269
2014    9        3    11  11    3.68   497.7    3.7      42.240
2014    9        3    11  17    3.68   497.4    3.7      42.212
2014    9        3    11  23    3.68   497.2    3.7      42.184
2014    9        3    11  29    3.68   497.0    3.7      42.156
2014    9        3    11  35    3.68   496.8    3.7      42.128
2014    9        3    11  41    3.68   496.6    3.7      42.101
2014    9        3    11  46    3.68   496.4    3.7      42.073
2014    9        3    11  52    3.68   496.2    3.7      42.046
2014    9        3    11  58    3.68   496.0    3.7      42.019
2014    9        3    12   4    3.67   495.8    3.7      41.992
2014    9        3    12  10    3.67   495.6    3.7      41.965
2014    9        3    12  16    3.67   495.4    3.7      41.939
2014    9        3    12  21    3.67   495.2    3.7      41.913
2014    9        3    12  27    3.67   495.0    3.7      41.887
2014    9        3    12  33    3.67   494.8    3.7      41.861
2014    9        3    12  39    3.67   494.6    3.7      41.835
2014    9        3    12  45    3.67   494.4    3.8      41.809
2014    9        3    12  51    3.67   494.1    3.8      41.784
2014    9        3    12  56    3.67   493.9    3.8      41.758
2014    9        3    13   2    3.67   493.7    3.8      41.733
2014    9        3    13   8    3.66   493.5    3.8      41.708
2014    9        3    13  14    3.66   493.3    3.8      41.683
2014    9        3    13  20    3.66   493.1    3.8      41.658
2014    9        3    13  25    3.66   493.0    3.8      41.633
2014    9        3    13  31    3.66   492.8    3.8      41.608
2014    9        3    13  37    3.66   492.6    3.8      41.583
2014    9        3    13  43    3.66   492.4    3.8      41.558
2014    9        3    13  49    3.66   492.2    3.8      41.532
2014    9        3    13  55    3.66   492.0    3.8      41.507
2014    9        3    14   0    3.66   491.8    3.8      41.482
2014    9        3    14   6    3.66   491.6    3.8      41.456
2014    9        3    14  12    3.65   491.4    3.8      41.431
2014    9        3    14  18    3.65   491.2    3.8      41.405
2014    9        3    14  24    3.65   491.0    3.8      41.380
2014    9        3    14  30    3.65   490.8    3.8      41.354
2014    9        3    14  35    3.65   490.6    3.8      41.328
2014    9        3    14  41    3.65   490.4    3.8      41.301
2014    9        3    14  47    3.65   490.2    3.8      41.275
2014    9        3    14  53    3.65   490.0    3.8      41.248
2014    9        3    14  59    3.65   489.8    3.8      41.221
2014    9        3    15   5    3.65   489.6    3.8      41.194
2014    9        3    15  10    3.64   489.4    3.8      41.166
2014    9        3    15  16    3.64   489.2    3.8      41.139
2014    9        3    15  22    3.64   489.0    3.8      41.111
2014    9        3    15  28    3.64   488.8    3.8      41.083
2014    9        3    15  34    3.64   488.6    3.8      41.055
2014    9        3    15  40    3.64   488.4    3.8      41.026
2014    9        3    15  45    3.64   488.2    3.8      40.998
2014    9        3    15  51    3.64   488.0    3.8      40.969
2014    9        3    15  57    3.64   487.8    3.8      40.940
2014    9        3    16   3    3.64   487.6    3.8      40.910
2014    9        3    16   9    3.63   487.4    3.8      40.881
2014    9        3    16  15    3.63   487.2    3.8      40.851
2014    9        3    16  20    3.63   487.0    3.8      40.821
2014    9        3    16  26    3.63   486.8    3.8      40.790
2014    9        3    16  32    3.63   486.6    3.8      40.760
2014    9        3    16  38    3.63   486.4    3.8      40.729
2014    9        3    16  44    3.63   486.2    3.8      40.698
2014    9        3    16  50    3.63   486.0    3.8      40.667
2014    9        3    16  55    3.63   485.8    3.8      40.636
2014    9        3    17   1    3.63   485.6    3.8      40.604
2014    9        3    17   7    3.62   485.4    3.8      40.572
2014    9        3    17  13    3.62   485.2    3.8      40.540
2014    9        3    17  19    3.62   485.0    3.8      40.508
2014    9        3    17  25    3.62   484.8    3.8      40.476
2014    9        3    17  30    3.62   484.6    3.8      40.444
2014    9        3    17  36    3.62   484.4    3.8      40.411
2014    9        3    17  42    3.62   484.2    3.8      40.379
2014    9        3    17  48    3.62   484.0    3.8      40.346
2014    9        3    17  54    3.62   483.7    3.8      40.313
2014    9        3    18   0    3.62   483.5    3.8      40.281
2014    9        3    18   5    3.61   483.3    3.8      40.248
2014    9        3    18  11    3.61   483.1    3.8      40.215
2014    9        3    18  17    3.61   482.9    3.8      40.183
2014    9        3    18  23    3.61   482.7    3.8      40.151
2014    9        3    18  29    3.61   482.5    3.8      40.118
2014    9        3    18  35    3.61   482.3    3.8      40.086
2014    9        3    18  40    3.61   482.1    3.8      40.055
2014    9        3    18  46    3.61   481.9    3.8      40.023
2014    9        3    18  52    3.61   481.7    3.8      39.992
2014    9        3    18  58    3.61   481.5    3.8      39.961
2014    9        3    19   4    3.61   481.3    3.9      39.930
2014    9        3    19  10    3.60   481.0    3.9      39.900
2014    9        3    19  15    3.60   480.8    3.9      39.870
2014    9        3    19  21    3.60   480.6    3.9      39.840
2014    9        3    19  27    3.60   480.4    3.9      39.810
2014    9        3    19  33    3.60   480.2    3.9      39.781
2014    9        3    19  39    3.60   480.0    3.9      39.752
2014    9        3    19  45    3.60   479.8    3.9      39.724
2014    9        3    19  50    3.60   479.6    3.9      39.696
2014    9        3    19  56    3.60   479.4    3.9      39.668
2014    9        3    20   2    3.60   479.2    3.9      39.641
2014    9        3    20   8    3.60   479.0    3.9      39.614
2014    9        3    20  14    3.60   478.8    3.9      39.587
2014    9        3    20  19    3.60   478.6    3.9      39.560
2014    9        3    20  25    3.59   478.4    3.9      39.534
2014    9        3    20  31    3.59   478.2    3.9      39.507
2014    9        3    20  37    3.59   478.0    3.9      39.481
2014    9        3    20  43    3.59   477.7    3.9      39.455
2014    9        3    20  49    3.59   477.5    3.9      39.430
2014    9        3    20  54    3.59   477.3    3.9      39.404
2014    9        3    21   0    3.59   477.1    3.9      39.378
2014    9        3    21   6    3.59   476.9    3.9      39.353
2014    9        3    21  12    3.59   476.7    3.9      39.328
2014    9        3    21  18    3.59   476.5    3.9      39.302
2014    9        3    21  24    3.59   476.3    3.9      39.277
2014    9        3    21  29    3.59   476.1    3.9      39.251
2014    9        3    21  35    3.59   475.9    3.9      39.226
2014    9        3    21  41    3.59   475.7    3.9      39.200
2014    9        3    21  47    3.59   475.5    3.9      39.175
2014    9        3    21  53    3.58   475.3    3.9      39.150
2014    9        3    21  59    3.58   475.1    3.9      39.124
2014    9        3    22   4    3.58   474.9    3.9      39.099
2014    9        3    22  10    3.58   474.7    3.9      39.074
2014    9        3    22  16    3.58   474.5    3.9      39.048
2014    9        3    22  22    3.58   474.2    3.9      39.023
2014    9        3    22  28    3.58   474.0    3.9      38.997
2014    9        3    22  34    3.58   473.8    3.9      38.972
2014    9        3    22  39    3.58   473.6    3.9      38.946
2014    9        3    22  45    3.58   473.4    3.9      38.920
2014    9        3    22  51    3.58   473.2    3.9      38.895
2014    9        3    22  57    3.58   473.0    4.0      38.869
2014    9        3    23   3    3.58   472.8    4.0      38.843
2014    9        3    23   9    3.58   472.6    4.0      38.816
2014    9        3    23  14    3.58   472.4    4.0      38.790
2014    9        3    23  20    3.58   472.2    4.0      38.764
2014    9        3    23  26    3.57   472.0    4.0      38.737
2014    9        3    23  32    3.57   471.8    4.0      38.711
2014    9        3    23  38    3.57   471.6    4.0      38.684
2014    9        3    23  44    3.57   471.4    4.0      38.657
2014    9        3    23  49    3.57   471.2    4.0      38.630
2014    9        3    23  55    3.57   471.0    4.0      38.603
2014    9        4     0   1    3.57   470.8    4.0      38.575
2014    9        4     0   7    3.57   470.6    4.0      38.548
2014    9        4     0  13    3.57   470.4    4.0      38.520
2014    9        4     0  19    3.57   470.2    4.0      38.492
2014    9        4     0  24    3.57   470.0    4.0      38.465
2014    9        4     0  30    3.57   469.8    4.0      38.436
2014    9        4     0  36    3.57   469.6    4.0      38.408
2014    9        4     0  42    3.57   469.4    4.0      38.380
2014    9        4     0  48    3.57   469.2    4.0      38.351
2014    9        4     0  54    3.57   469.0    4.0      38.323
2014    9        4     0  59    3.56   468.8    4.0      38.294
2014    9        4     1   5    3.56   468.6    4.0      38.265
2014    9        4     1  11    3.56   468.4    4.0      38.236
2014    9        4     1  17    3.56   468.2    4.0      38.207
2014    9        4     1  23    3.56   468.0    4.0      38.178
2014    9        4     1  29    3.56   467.8    4.0      38.149
2014    9        4     1  34    3.56   467.6    4.0      38.120
2014    9        4     1  40    3.56   467.4    4.0      38.090
2014    9        4     1  46    3.56   467.2    4.0      38.061
2014    9        4     1  52    3.56   467.0    4.0      38.031
2014    9        4     1  58    3.56   466.8    4.0      38.002
2014    9        4     2   4    3.56   466.6    4.0      37.972
2014    9        4     2   9    3.56   466.4    4.0      37.943
2014    9        4     2  15    3.56   466.2    4.0      37.913
2014    9        4     2  21    3.56   466.0    4.0      37.883
2014    9        4     2  27    3.55   465.8    4.0      37.853
2014    9        4     2  33    3.55   465.6    4.0      37.824
2014    9        4     2  39    3.55   465.4    4.0      37.794
2014    9        4     2  44    3.55   465.1    4.0      37.765
2014    9        4     2  50    3.55   464.9    4.0      37.735
2014    9        4     2  56    3.55   464.7    4.0      37.705
2014    9        4     3   2    3.55   464.5    4.0      37.676
2014    9        4     3   8    3.55   464.3    4.0      37.646
2014    9        4     3  13    3.55   464.1    4.1      37.617
2014    9        4     3  19    3.55   463.9    4.1      37.588
2014    9        4     3  25    3.55   463.7    4.1      37.558
2014    9        4     3  31    3.55   463.5    4.1      37.529
2014    9        4     3  37    3.55   463.3    4.1      37.500
2014    9        4     3  43    3.55   463.1    4.1      37.471
2014    9        4     3  48    3.55   462.9    4.1      37.442
2014    9        4     3  54    3.55   462.7    4.1      37.413
2014    9        4     4   0    3.55   462.5    4.1      37.384
2014    9        4     4   6    3.55   462.3    4.1      37.356
2014    9        4     4  12    3.54   462.1    4.1      37.327
2014    9        4     4  18    3.54   461.9    4.1      37.299
2014    9        4     4  23    3.54   461.7    4.1      37.270
2014    9        4     4  29    3.54   461.5    4.1      37.242
2014    9        4     4  35    3.54   461.3    4.1      37.214
2014    9        4     4  41    3.54   461.1    4.1      37.186
2014    9        4     4  47    3.54   460.9    4.1      37.158
2014    9        4     4  53    3.54   460.7    4.1      37.130
2014    9        4     4  58    3.54   460.5    4.1      37.102
2014    9        4     5   4    3.54   460.3    4.1      37.075
2014    9        4     5  10    3.54   460.1    4.1      37.047
2014    9        4     5  16    3.54   459.9    4.1      37.019
2014    9        4     5  22    3.54   459.7    4.1      36.992
2014    9        4     5  28    3.54   459.4    4.1      36.964
2014    9        4     5  33    3.54   459.2    4.1      36.937
2014    9        4     5  39    3.54   459.0    4.1      36.909
2014    9        4     5  45    3.54   458.8    4.1      36.882
2014    9        4     5  51    3.54   458.6    4.1      36.855
2014    9        4     5  57    3.54   458.4    4.1      36.827
2014    9        4     6   3    3.54   458.2    4.1      36.800
2014    9        4     6   8    3.54   458.0    4.1      36.772
2014    9        4     6  14    3.54   457.8    4.1      36.745
2014    9        4     6  20    3.54   457.6    4.1      36.717
2014    9        4     6  26    3.54   457.4    4.1      36.690
2014    9        4     6  32    3.54   457.2    4.1      36.662
2014    9        4     6  38    3.53   457.0    4.2      36.634
2014    9        4     6  43    3.53   456.8    4.2      36.607
2014    9        4     6  49    3.53   456.6    4.2      36.579
2014    9        4     6  55    3.53   456.4    4.2      36.551
2014    9        4     7   1    3.53   456.2    4.2      36.523
2014    9        4     7   7    3.53   456.0    4.2      36.495
2014    9        4     7  13    3.53   455.8    4.2      36.467
2014    9        4     7  18    3.53   455.6    4.2      36.439
2014    9        4     7  24    3.53   455.4    4.2      36.411
2014    9        4     7  30    3.53   455.2    4.2      36.383
2014    9        4     7  36    3.53   455.0    4.2      36.354
2014    9        4     7  42    3.53   454.8    4.2      36.326
2014    9        4     7  48    3.53   454.6    4.2      36.297
2014    9        4     7  53    3.53   454.4    4.2      36.269
2014    9        4     7  59    3.53   454.2    4.2      36.240
2014    9        4     8   5    3.53   454.0    4.2      36.211
2014    9        4     8  11    3.53   453.8    4.2      36.183
2014    9        4     8  17    3.53   453.6    4.2      36.154
2014    9        4     8  23    3.53   453.4    4.2      36.125
2014    9        4     8  28    3.53   453.2    4.2      36.096
2014    9        4     8  34    3.53   453.0    4.2      36.067
2014    9        4     8  40    3.53   452.8    4.2      36.038
2014    9        4     8  46    3.53   452.6    4.2      36.009
2014    9        4     8  52    3.53   452.4    4.2      35.980
2014    9        4     8  58    3.53   452.2    4.2      35.951
2014    9        4     9   3    3.53   452.0    4.2      35.922
2014    9        4     9   9    3.53   451.8    4.2      35.892
2014    9        4     9  15    3.53   451.6    4.2      35.863
2014    9        4     9  21    3.53   451.4    4.2      35.834
2014    9        4     9  27    3.52   451.2    4.2      35.805
2014    9        4     9  33    3.52   451.0    4.3      35.776
2014    9        4     9  38    3.52   450.8    4.3      35.747
2014    9        4     9  44    3.52   450.6    4.3      35.718
2014    9        4     9  50    3.52   450.4    4.3      35.689
2014    9        4     9  56    3.52   450.2    4.3      35.660
2014    9        4    10   2    3.52   450.0    4.3      35.631
2014    9        4    10   8    3.52   449.8    4.3      35.602
2014    9        4    10  13    3.52   449.6    4.3      35.574
2014    9        4    10  19    3.52   449.4    4.3      35.545
2014    9        4    10  25    3.52   449.2    4.3      35.516
2014    9        4    10  31    3.52   449.0    4.3      35.488
2014    9        4    10  37    3.52   448.8    4.3      35.459
2014    9        4    10  43    3.52   448.6    4.3      35.431
2014    9        4    10  48    3.52   448.4    4.3      35.402
2014    9        4    10  54    3.52   448.1    4.3      35.374
2014    9        4    11   0    3.52   447.9    4.3      35.345
2014    9        4    11   6    3.52   447.7    4.3      35.317
2014    9        4    11  12    3.52   447.5    4.3      35.288
2014    9        4    11  17    3.52   447.3    4.3      35.260
2014    9        4    11  23    3.52   447.1    4.3      35.232
2014    9        4    11  29    3.52   446.9    4.3      35.204
2014    9        4    11  35    3.52   446.7    4.3      35.176
2014    9        4    11  41    3.52   446.5    4.3      35.148
2014    9        4    11  47    3.52   446.3    4.3      35.119
2014    9        4    11  52    3.52   446.1    4.3      35.091
2014    9        4    11  58    3.52   445.9    4.3      35.063
2014    9        4    12   4    3.52   445.7    4.3      35.035
2014    9        4    12  10    3.52   445.5    4.3      35.007
2014    9        4    12  16    3.52   445.3    4.3      34.979
2014    9        4    12  22    3.52   445.1    4.4      34.951
2014    9        4    12  27    3.52   444.9    4.4      34.923
2014    9        4    12  33    3.52   444.7    4.4      34.895
2014    9        4    12  39    3.52   444.5    4.4      34.867
2014    9        4    12  45    3.52   444.3    4.4      34.839
2014    9        4    12  51    3.52   444.1    4.4      34.810
2014    9        4    12  57    3.52   443.9    4.4      34.782
2014    9        4    13   2    3.52   443.7    4.4      34.754
2014    9        4    13   8    3.52   443.5    4.4      34.726
2014    9        4    13  14    3.52   443.3    4.4      34.698
2014    9        4    13  20    3.52   443.1    4.4      34.670
2014    9        4    13  26    3.52   442.9    4.4      34.642
2014    9        4    13  32    3.52   442.8    4.4      34.614
2014    9        4    13  37    3.52   442.6    4.4      34.586
2014    9        4    13  43    3.52   442.4    4.4      34.558
2014    9        4    13  49    3.52   442.2    4.4      34.530
2014    9        4    13  55    3.52   442.0    4.4      34.502
2014    9        4    14   1    3.52   441.8    4.4      34.474
2014    9        4    14   7    3.52   441.6    4.4      34.446
2014    9        4    14  12    3.52   441.4    4.4      34.418
2014    9        4    14  18    3.52   441.2    4.4      34.390
2014    9        4    14  24    3.52   441.0    4.4      34.362
2014    9        4    14  30    3.52   440.8    4.4      34.334
2014    9        4    14  36    3.52   440.6    4.4      34.306
2014    9        4    14  42    3.52   440.4    4.4      34.278
2014    9        4    14  47    3.52   440.2    4.5      34.250
2014    9        4    14  53    3.52   440.0    4.5      34.222
2014    9        4    14  59    3.52   439.8    4.5      34.195
2014    9        4    15   5    3.52   439.6    4.5      34.167
2014    9        4    15  11    3.52   439.4    4.5      34.139
2014    9        4    15  17    3.52   439.2    4.5      34.111
2014    9        4    15  22    3.52   439.0    4.5      34.083
2014    9        4    15  28    3.52   438.8    4.5      34.056
2014    9        4    15  34    3.52   438.6    4.5      34.028
2014    9        4    15  40    3.52   438.4    4.5      34.000
2014    9        4    15  46    3.52   438.2    4.5      33.972
2014    9        4    15  52    3.52   438.0    4.5      33.944
2014    9        4    15  57    3.52   437.8    4.5      33.917
2014    9        4    16   3    3.52   437.6    4.5      33.889
2014    9        4    16   9    3.52   437.4    4.5      33.861
2014    9        4    16  15    3.52   437.2    4.5      33.834
2014    9        4    16  21    3.52   437.0    4.5      33.806
2014    9        4    16  27    3.52   436.8    4.5      33.779
2014    9        4    16  32    3.52   436.6    4.5      33.751
2014    9        4    16  38    3.52   436.4    4.5      33.723
2014    9        4    16  44    3.52   436.2    4.5      33.696
2014    9        4    16  50    3.52   436.0    4.5      33.668
2014    9        4    16  56    3.52   435.8    4.5      33.641
2014    9        4    17   2    3.52   435.6    4.5      33.613
2014    9        4    17   7    3.52   435.4    4.6      33.586
2014    9        4    17  13    3.52   435.2    4.6      33.559
2014    9        4    17  19    3.52   435.0    4.6      33.531
2014    9        4    17  25    3.52   434.8    4.6      33.504
2014    9        4    17  31    3.52   434.6    4.6      33.477
2014    9        4    17  36    3.52   434.4    4.6      33.449
2014    9        4    17  42    3.52   434.2    4.6      33.422
2014    9        4    17  48    3.52   434.0    4.6      33.395
2014    9        4    17  54    3.52   433.8    4.6      33.368
2014    9        4    18   0    3.52   433.6    4.6      33.341
2014    9        4    18   6    3.52   433.4    4.6      33.314
2014    9        4    18  11    3.52   433.2    4.6      33.287
2014    9        4    18  17    3.52   433.0    4.6      33.260
2014    9        4    18  23    3.53   432.9    4.6      33.233
2014    9        4    18  29    3.53   432.7    4.6      33.206
2014    9        4    18  35    3.53   432.5    4.6      33.180
2014    9        4    18  41    3.53   432.3    4.6      33.153
2014    9        4    18  46    3.53   432.1    4.6      33.126
2014    9        4    18  52    3.53   431.9    4.6      33.100
2014    9        4    18  58    3.53   431.7    4.6      33.073
2014    9        4    19   4    3.53   431.5    4.6      33.047
2014    9        4    19  10    3.53   431.3    4.6      33.020
2014    9        4    19  16    3.53   431.1    4.7      32.994
2014    9        4    19  21    3.53   430.9    4.7      32.968
2014    9        4    19  27    3.53   430.7    4.7      32.942
2014    9        4    19  33    3.53   430.5    4.7      32.916
2014    9        4    19  39    3.53   430.3    4.7      32.890
2014    9        4    19  45    3.53   430.1    4.7      32.864
2014    9        4    19  51    3.53   429.9    4.7      32.838
2014    9        4    19  56    3.53   429.7    4.7      32.812
2014    9        4    20   2    3.53   429.5    4.7      32.786
2014    9        4    20   8    3.53   429.3    4.7      32.760
2014    9        4    20  14    3.53   429.1    4.7      32.735
2014    9        4    20  20    3.53   428.9    4.7      32.709
2014    9        4    20  26    3.53   428.8    4.7      32.683
2014    9        4    20  31    3.53   428.6    4.7      32.658
2014    9        4    20  37    3.53   428.4    4.7      32.633
2014    9        4    20  43    3.53   428.2    4.7      32.607
2014    9        4    20  49    3.53   428.0    4.7      32.582
2014    9        4    20  55    3.54   427.8    4.7      32.556
2014    9        4    21   1    3.54   427.6    4.7      32.531
2014    9        4    21   6    3.54   427.4    4.7      32.506
2014    9        4    21  12    3.54   427.2    4.8      32.481
2014    9        4    21  18    3.54   427.0    4.8      32.456
2014    9        4    21  24    3.54   426.8    4.8      32.431
2014    9        4    21  30    3.54   426.6    4.8      32.406
2014    9        4    21  36    3.54   426.4    4.8      32.381
2014    9        4    21  41    3.54   426.2    4.8      32.356
2014    9        4    21  47    3.54   426.1    4.8      32.331
2014    9        4    21  53    3.54   425.9    4.8      32.306
2014    9        4    21  59    3.54   425.7    4.8      32.282
2014    9        4    22   5    3.54   425.5    4.8      32.257
2014    9        4    22  11    3.54   425.3    4.8      32.232
2014    9        4    22  16    3.54   425.1    4.8      32.208
2014    9        4    22  22    3.54   424.9    4.8      32.183
2014    9        4    22  28    3.54   424.7    4.8      32.159
2014    9        4    22  34    3.54   424.5    4.8      32.135
2014    9        4    22  40    3.55   424.3    4.8      32.110
2014    9        4    22  46    3.55   424.1    4.8      32.086
2014    9        4    22  51    3.55   423.9    4.8      32.062
2014    9        4    22  57    3.55   423.8    4.8      32.037
2014    9        4    23   3    3.55   423.6    4.8      32.013
2014    9        4    23   9    3.55   423.4    4.9      31.989
2014    9        4    23  15    3.55   423.2    4.9      31.965
2014    9        4    23  21    3.55   423.0    4.9      31.941
2014    9        4    23  26    3.55   422.8    4.9      31.917
2014    9        4    23  32    3.55   422.6    4.9      31.894
2014    9        4    23  38    3.55   422.4    4.9      31.870
2014    9        4    23  44    3.55   422.2    4.9      31.846
2014    9        4    23  50    3.55   422.0    4.9      31.823
2014    9        4    23  55    3.55   421.8    4.9      31.799
2014    9        5     0   1    3.55   421.7    4.9      31.776
2014    9        5     0   7    3.56   421.5    4.9      31.752
2014    9        5     0  13    3.56   421.3    4.9      31.729
2014    9        5     0  19    3.56   421.1    4.9      31.706
2014    9        5     0  25    3.56   420.9    4.9      31.683
2014    9        5     0  30    3.56   420.7    4.9      31.660
2014    9        5     0  36    3.56   420.5    4.9      31.637
2014    9        5     0  42    3.56   420.3    4.9      31.614
2014    9        5     0  48    3.56   420.1    4.9      31.591
2014    9        5     0  54    3.56   420.0    5.0      31.568
2014    9        5     1   0    3.56   419.8    5.0      31.546
2014    9        5     1   5    3.56   419.6    5.0      31.523
2014    9        5     1  11    3.56   419.4    5.0      31.501
2014    9        5     1  17    3.56   419.2    5.0      31.479
2014    9        5     1  23    3.57   419.0    5.0      31.456
2014    9        5     1  29    3.57   418.8    5.0      31.434
2014    9        5     1  35    3.57   418.6    5.0      31.412
2014    9        5     1  40    3.57   418.5    5.0      31.390
2014    9        5     1  46    3.57   418.3    5.0      31.369
2014    9        5     1  52    3.57   418.1    5.0      31.347
2014    9        5     1  58    3.57   417.9    5.0      31.325
2014    9        5     2   4    3.57   417.7    5.0      31.304
2014    9        5     2  10    3.57   417.5    5.0      31.282
2014    9        5     2  15    3.57   417.3    5.0      31.261
2014    9        5     2  21    3.57   417.2    5.0      31.240
2014    9        5     2  27    3.58   417.0    5.0      31.219
2014    9        5     2  33    3.58   416.8    5.1      31.198
2014    9        5     2  39    3.58   416.6    5.1      31.177
2014    9        5     2  45    3.58   416.4    5.1      31.157
2014    9        5     2  50    3.58   416.2    5.1      31.136
2014    9        5     2  56    3.58   416.1    5.1      31.116
2014    9        5     3   2    3.58   415.9    5.1      31.096
2014    9        5     3   8    3.58   415.7    5.1      31.075
2014    9        5     3  14    3.58   415.5    5.1      31.055
2014    9        5     3  20    3.58   415.3    5.1      31.035
2014    9        5     3  25    3.59   415.1    5.1      31.016
2014    9        5     3  31    3.59   415.0    5.1      30.996
2014    9        5     3  37    3.59   414.8    5.1      30.976
2014    9        5     3  43    3.59   414.6    5.1      30.957
2014    9        5     3  49    3.59   414.4    5.1      30.938
2014    9        5     3  55    3.59   414.2    5.1      30.919
2014    9        5     4   0    3.59   414.0    5.1      30.899
2014    9        5     4   6    3.59   413.9    5.1      30.881
2014    9        5     4  12    3.59   413.7    5.2      30.862
2014    9        5     4  18    3.60   413.5    5.2      30.843
2014    9        5     4  24    3.60   413.3    5.2      30.825
2014    9        5     4  30    3.60   413.1    5.2      30.806
2014    9        5     4  35    3.60   413.0    5.2      30.788
2014    9        5     4  41    3.60   412.8    5.2      30.770
2014    9        5     4  47    3.60   412.6    5.2      30.752
2014    9        5     4  53    3.60   412.4    5.2      30.734
2014    9        5     4  59    3.60   412.2    5.2      30.716
2014    9        5     5   5    3.61   412.1    5.2      30.699
2014    9        5     5  10    3.61   411.9    5.2      30.681
2014    9        5     5  16    3.61   411.7    5.2      30.664
2014    9        5     5  22    3.61   411.5    5.2      30.646
2014    9        5     5  28    3.61   411.4    5.2      30.629
2014    9        5     5  34    3.61   411.2    5.2      30.612
2014    9        5     5  40    3.61   411.0    5.2      30.595
2014    9        5     5  45    3.61   410.8    5.3      30.578
2014    9        5     5  51    3.62   410.6    5.3      30.562
2014    9        5     5  57    3.62   410.5    5.3      30.545
2014    9        5     6   3    3.62   410.3    5.3      30.529
2014    9        5     6   9    3.62   410.1    5.3      30.512
2014    9        5     6  15    3.62   409.9    5.3      30.496
2014    9        5     6  20    3.62   409.8    5.3      30.480
2014    9        5     6  26    3.62   409.6    5.3      30.463
2014    9        5     6  32    3.63   409.4    5.3      30.448
2014    9        5     6  38    3.63   409.3    5.3      30.432
2014    9        5     6  44    3.63   409.1    5.3      30.416
2014    9        5     6  49    3.63   408.9    5.3      30.400
2014    9        5     6  55    3.63   408.7    5.3      30.385
2014    9        5     7   1    3.63   408.6    5.3      30.369
2014    9        5     7   7    3.63   408.4    5.3      30.354
2014    9        5     7  13    3.64   408.2    5.4      30.338
2014    9        5     7  19    3.64   408.0    5.4      30.323
2014    9        5     7  24    3.64   407.9    5.4      30.308
2014    9        5     7  30    3.64   407.7    5.4      30.293
2014    9        5     7  36    3.64   407.5    5.4      30.278
2014    9        5     7  42    3.64   407.4    5.4      30.264
2014    9        5     7  48    3.64   407.2    5.4      30.249
2014    9        5     7  54    3.65   407.0    5.4      30.234
2014    9        5     7  59    3.65   406.8    5.4      30.220
2014    9        5     8   5    3.65   406.7    5.4      30.206
2014    9        5     8  11    3.65   406.5    5.4      30.191
2014    9        5     8  17    3.65   406.3    5.4      30.177
2014    9        5     8  23    3.65   406.2    5.4      30.163
2014    9        5     8  29    3.66   406.0    5.4      30.149
2014    9        5     8  34    3.66   405.8    5.4      30.135
2014    9        5     8  40    3.66   405.7    5.5      30.121
2014    9        5     8  46    3.66   405.5    5.5      30.108
2014    9        5     8  52    3.66   405.3    5.5      30.094
2014    9        5     8  58    3.66   405.2    5.5      30.081
2014    9        5     9   4    3.67   405.0    5.5      30.067
2014    9        5     9   9    3.67   404.8    5.5      30.054
2014    9        5     9  15    3.67   404.7    5.5      30.041
2014    9        5     9  21    3.67   404.5    5.5      30.028
2014    9        5     9  27    3.67   404.3    5.5      30.016
2014    9        5     9  33    3.67   404.2    5.5      30.003
2014    9        5     9  39    3.68   404.0    5.5      29.990
2014    9        5     9  44    3.68   403.8    5.5      29.978
2014    9        5     9  50    3.68   403.7    5.5      29.966
2014    9        5     9  56    3.68   403.5    5.5      29.954
2014    9        5    10   2    3.68   403.3    5.6      29.942
2014    9        5    10   8    3.68   403.2    5.6      29.930
2014    9        5    10  14    3.69   403.0    5.6      29.918
2014    9        5    10  19    3.69   402.9    5.6      29.907
2014    9        5    10  25    3.69   402.7    5.6      29.895
2014    9        5    10  31    3.69   402.5    5.6      29.884
2014    9        5    10  37    3.69   402.4    5.6      29.873
2014    9        5    10  43    3.69   402.2    5.6      29.862
2014    9        5    10  49    3.70   402.1    5.6      29.851
2014    9        5    10  54    3.70   401.9    5.6      29.840
2014    9        5    11   0    3.70   401.7    5.6      29.830
2014    9        5    11   6    3.70   401.6    5.6      29.820
2014    9        5    11  12    3.70   401.4    5.6      29.810
2014    9        5    11  18    3.71   401.3    5.6      29.800
2014    9        5    11  24    3.71   401.1    5.7      29.790
2014    9        5    11  29    3.71   400.9    5.7      29.780
2014    9        5    11  35    3.71   400.8    5.7      29.771
2014    9        5    11  41    3.71   400.6    5.7      29.761
2014    9        5    11  47    3.72   400.5    5.7      29.752
2014    9        5    11  53    3.72   400.3    5.7      29.743
2014    9        5    11  59    3.72   400.2    5.7      29.734
2014    9        5    12   4    3.72   400.0    5.7      29.726
2014    9        5    12  10    3.72   399.9    5.7      29.717
2014    9        5    12  16    3.73   399.7    5.7      29.709
2014    9        5    12  22    3.73   399.6    5.7      29.701
2014    9        5    12  28    3.73   399.4    5.7      29.693
2014    9        5    12  34    3.73   399.3    5.7      29.685
2014    9        5    12  39    3.73   399.1    5.7      29.677
2014    9        5    12  45    3.74   398.9    5.8      29.669
2014    9        5    12  51    3.74   398.8    5.8      29.662
2014    9        5    12  57    3.74   398.6    5.8      29.655
2014    9        5    13   3    3.74   398.5    5.8      29.647
2014    9        5    13   9    3.74   398.3    5.8      29.640
2014    9        5    13  14    3.75   398.2    5.8      29.633
2014    9        5    13  20    3.75   398.0    5.8      29.627
2014    9        5    13  26    3.75   397.9    5.8      29.620
2014    9        5    13  32    3.75   397.8    5.8      29.613
2014    9        5    13  38    3.76   397.6    5.8      29.607
2014    9        5    13  44    3.76   397.5    5.8      29.601
2014    9        5    13  49    3.76   397.3    5.8      29.594
2014    9        5    13  55    3.76   397.2    5.8      29.588
2014    9        5    14   1    3.76   397.0    5.8      29.582
2014    9        5    14   7    3.77   396.9    5.9      29.576
2014    9        5    14  13    3.77   396.7    5.9      29.570
2014    9        5    14  19    3.77   396.6    5.9      29.565
2014    9        5    14  24    3.77   396.4    5.9      29.559
2014    9        5    14  30    3.78   396.3    5.9      29.553
2014    9        5    14  36    3.78   396.1    5.9      29.548
2014    9        5    14  42    3.78   396.0    5.9      29.543
2014    9        5    14  48    3.78   395.9    5.9      29.538
2014    9        5    14  53    3.78   395.7    5.9      29.532
2014    9        5    14  59    3.79   395.6    5.9      29.527
2014    9        5    15   5    3.79   395.4    5.9      29.522
2014    9        5    15  11    3.79   395.3    5.9      29.517
2014    9        5    15  17    3.79   395.1    5.9      29.512
2014    9        5    15  23    3.80   395.0    6.0      29.508
2014    9        5    15  28    3.80   394.9    6.0      29.503
2014    9        5    15  34    3.80   394.7    6.0      29.499
2014    9        5    15  40    3.80   394.6    6.0      29.494
2014    9        5    15  46    3.81   394.4    6.0      29.490
2014    9        5    15  52    3.81   394.3    6.0      29.485
2014    9        5    15  58    3.81   394.2    6.0      29.481
2014    9        5    16   3    3.81   394.0    6.0      29.477
2014    9        5    16   9    3.82   393.9    6.0      29.473
2014    9        5    16  15    3.82   393.8    6.0      29.469
2014    9        5    16  21    3.82   393.6    6.0      29.465
2014    9        5    16  27    3.82   393.5    6.0      29.462
2014    9        5    16  33    3.83   393.3    6.0      29.458
2014    9        5    16  38    3.83   393.2    6.0      29.454
2014    9        5    16  44    3.83   393.1    6.1      29.451
2014    9        5    16  50    3.83   392.9    6.1      29.448
2014    9        5    16  56    3.84   392.8    6.1      29.444
2014    9        5    17   2    3.84   392.7    6.1      29.441
2014    9        5    17   8    3.84   392.5    6.1      29.438
2014    9        5    17  13    3.84   392.4    6.1      29.435
2014    9        5    17  19    3.84   392.3    6.1      29.432
2014    9        5    17  25    3.85   392.1    6.1      29.429
2014    9        5    17  31    3.85   392.0    6.1      29.427
2014    9        5    17  37    3.85   391.9    6.1      29.424
2014    9        5    17  43    3.85   391.7    6.1      29.422
2014    9        5    17  48    3.86   391.6    6.1      29.419
2014    9        5    17  54    3.86   391.5    6.1      29.417
2014    9        5    18   0    3.86   391.3    6.2      29.415
2014    9        5    18   6    3.87   391.2    6.2      29.413
2014    9        5    18  12    3.87   391.1    6.2      29.411
2014    9        5    18  18    3.87   390.9    6.2      29.409
2014    9        5    18  23    3.87   390.8    6.2      29.408
2014    9        5    18  29    3.88   390.7    6.2      29.406
2014    9        5    18  35    3.88   390.6    6.2      29.405
2014    9        5    18  41    3.88   390.4    6.2      29.404
2014    9        5    18  47    3.88   390.3    6.2      29.402
2014    9        5    18  53    3.89   390.2    6.2      29.401
2014    9        5    18  58    3.89   390.0    6.2      29.400
2014    9        5    19   4    3.89   389.9    6.2      29.400
2014    9        5    19  10    3.89   389.8    6.2      29.399
2014    9        5    19  16    3.90   389.7    6.3      29.398
2014    9        5    19  22    3.90   389.5    6.3      29.398
2014    9        5    19  28    3.90   389.4    6.3      29.397
2014    9        5    19  33    3.91   389.3    6.3      29.397
2014    9        5    19  39    3.91   389.2    6.3      29.397
2014    9        5    19  45    3.91   389.0    6.3      29.397
2014    9        5    19  51    3.91   388.9    6.3      29.397
2014    9        5    19  57    3.92   388.8    6.3      29.397
2014    9        5    20   3    3.92   388.7    6.3      29.397
2014    9        5    20   8    3.92   388.6    6.3      29.398
2014    9        5    20  14    3.92   388.4    6.3      29.398
2014    9        5    20  20    3.93   388.3    6.3      29.399
2014    9        5    20  26    3.93   388.2    6.3      29.399
2014    9        5    20  32    3.93   388.1    6.4      29.400
2014    9        5    20  38    3.94   387.9    6.4      29.401
2014    9        5    20  43    3.94   387.8    6.4      29.402
2014    9        5    20  49    3.94   387.7    6.4      29.403
2014    9        5    20  55    3.94   387.6    6.4      29.404
2014    9        5    21   1    3.95   387.5    6.4      29.405
2014    9        5    21   7    3.95   387.4    6.4      29.407
2014    9        5    21  13    3.95   387.2    6.4      29.408
2014    9        5    21  18    3.96   387.1    6.4      29.410
2014    9        5    21  24    3.96   387.0    6.4      29.411
2014    9        5    21  30    3.96   386.9    6.4      29.413
2014    9        5    21  36    3.97   386.8    6.4      29.415
2014    9        5    21  42    3.97   386.7    6.4      29.417
2014    9        5    21  47    3.97   386.5    6.4      29.419
2014    9        5    21  53    3.97   386.4    6.5      29.421
2014    9        5    21  59    3.98   386.3    6.5      29.423
2014    9        5    22   5    3.98   386.2    6.5      29.425
2014    9        5    22  11    3.98   386.1    6.5      29.427
2014    9        5    22  17    3.99   386.0    6.5      29.430
2014    9        5    22  22    3.99   385.9    6.5      29.433
2014    9        5    22  28    3.99   385.7    6.5      29.435
2014    9        5    22  34    4.00   385.6    6.5      29.438
2014    9        5    22  40    4.00   385.5    6.5      29.441
2014    9        5    22  46    4.00   385.4    6.5      29.444
2014    9        5    22  52    4.00   385.3    6.5      29.447
2014    9        5    22  57    4.01   385.2    6.5      29.450
2014    9        5    23   3    4.01   385.1    6.5      29.454
2014    9        5    23   9    4.01   385.0    6.6      29.457
2014    9        5    23  15    4.02   384.9    6.6      29.461
2014    9        5    23  21    4.02   384.8    6.6      29.465
2014    9        5    23  27    4.02   384.6    6.6      29.469
2014    9        5    23  32    4.03   384.5    6.6      29.473
2014    9        5    23  38    4.03   384.4    6.6      29.477
2014    9        5    23  44    4.03   384.3    6.6      29.481
2014    9        5    23  50    4.04   384.2    6.6      29.485
2014    9        5    23  56    4.04   384.1    6.6      29.490
2014    9        6     0   2    4.04   384.0    6.6      29.495
2014    9        6     0   7    4.05   383.9    6.6      29.500
2014    9        6     0  13    4.05   383.8    6.6      29.505
2014    9        6     0  19    4.05   383.7    6.6      29.510
2014    9        6     0  25    4.06   383.6    6.7      29.515
2014    9        6     0  31    4.06   383.5    6.7      29.520
2014    9        6     0  37    4.06   383.4    6.7      29.526
2014    9        6     0  42    4.06   383.3    6.7      29.532
2014    9        6     0  48    4.07   383.2    6.7      29.537
2014    9        6     0  54    4.07   383.1    6.7      29.543
2014    9        6     1   0    4.07   383.0    6.7      29.549
2014    9        6     1   6    4.08   382.9    6.7      29.555
2014    9        6     1  12    4.08   382.8    6.7      29.561
2014    9        6     1  17    4.08   382.7    6.7      29.568
2014    9        6     1  23    4.09   382.6    6.7      29.574
2014    9        6     1  29    4.09   382.5    6.7      29.581
2014    9        6     1  35    4.09   382.4    6.7      29.587
2014    9        6     1  41    4.10   382.3    6.8      29.594
2014    9        6     1  47    4.10   382.2    6.8      29.601
2014    9        6     1  52    4.10   382.1    6.8      29.608
2014    9        6     1  58    4.11   382.0    6.8      29.615
2014    9        6     2   4    4.11   381.9    6.8      29.622
2014    9        6     2  10    4.11   381.8    6.8      29.629
2014    9        6     2  16    4.12   381.7    6.8      29.637
2014    9        6     2  22    4.12   381.6    6.8      29.644
2014    9        6     2  27    4.12   381.5    6.8      29.651
2014    9        6     2  33    4.13   381.4    6.8      29.659
2014    9        6     2  39    4.13   381.3    6.8      29.666
2014    9        6     2  45    4.13   381.2    6.8      29.674
2014    9        6     2  51    4.14   381.1    6.9      29.681
2014    9        6     2  57    4.14   381.0    6.9      29.689
2014    9        6     3   2    4.15   380.9    6.9      29.697
2014    9        6     3   8    4.15   380.8    6.9      29.705
2014    9        6     3  14    4.15   380.7    6.9      29.712
2014    9        6     3  20    4.16   380.6    6.9      29.720
2014    9        6     3  26    4.16   380.6    6.9      29.728
2014    9        6     3  32    4.16   380.5    6.9      29.736
2014    9        6     3  37    4.17   380.4    6.9      29.744
2014    9        6     3  43    4.17   380.3    6.9      29.752
2014    9        6     3  49    4.17   380.2    6.9      29.760
2014    9        6     3  55    4.18   380.1    6.9      29.768
2014    9        6     4   1    4.18   380.0    6.9      29.776
2014    9        6     4   7    4.18   379.9    7.0      29.785
2014    9        6     4  12    4.19   379.8    7.0      29.793
2014    9        6     4  18    4.19   379.8    7.0      29.801
2014    9        6     4  24    4.19   379.7    7.0      29.809
2014    9        6     4  30    4.20   379.6    7.0      29.817
2014    9        6     4  36    4.20   379.5    7.0      29.826
2014    9        6     4  41    4.21   379.4    7.0      29.834
2014    9        6     4  47    4.21   379.3    7.0      29.843
2014    9        6     4  53    4.21   379.3    7.0      29.851
2014    9        6     4  59    4.22   379.2    7.0      29.859
2014    9        6     5   5    4.22   379.1    7.0      29.868
2014    9        6     5  11    4.22   379.0    7.0      29.876
2014    9        6     5  16    4.23   378.9    7.0      29.885
2014    9        6     5  22    4.23   378.8    7.1      29.894
2014    9        6     5  28    4.23   378.8    7.1      29.902
2014    9        6     5  34    4.24   378.7    7.1      29.911
2014    9        6     5  40    4.24   378.6    7.1      29.920
2014    9        6     5  46    4.24   378.5    7.1      29.929
2014    9        6     5  51    4.25   378.4    7.1      29.938
2014    9        6     5  57    4.25   378.4    7.1      29.947
2014    9        6     6   3    4.26   378.3    7.1      29.956
2014    9        6     6   9    4.26   378.2    7.1      29.965
2014    9        6     6  15    4.26   378.1    7.1      29.975
2014    9        6     6  21    4.27   378.0    7.1      29.984
2014    9        6     6  26    4.27   378.0    7.1      29.994
2014    9        6     6  32    4.27   377.9    7.1      30.003
2014    9        6     6  38    4.28   377.8    7.1      30.013
2014    9        6     6  44    4.28   377.7    7.2      30.023
2014    9        6     6  50    4.29   377.7    7.2      30.034
2014    9        6     6  56    4.29   377.6    7.2      30.044
2014    9        6     7   1    4.29   377.5    7.2      30.054
2014    9        6     7   7    4.30   377.4    7.2      30.065
2014    9        6     7  13    4.30   377.4    7.2      30.076
2014    9        6     7  19    4.30   377.3    7.2      30.087
2014    9        6     7  25    4.31   377.2    7.2      30.098
2014    9        6     7  31    4.31   377.1    7.2      30.110
2014    9        6     7  36    4.32   377.1    7.2      30.121
2014    9        6     7  42    4.32   377.0    7.2      30.133
2014    9        6     7  48    4.32   376.9    7.2      30.145
2014    9        6     7  54    4.33   376.9    7.2      30.157
2014    9        6     8   0    4.33   376.8    7.3      30.169
2014    9        6     8   6    4.33   376.7    7.3      30.182
2014    9        6     8  11    4.34   376.6    7.3      30.195
2014    9        6     8  17    4.34   376.6    7.3      30.208
2014    9        6     8  23    4.35   376.5    7.3      30.221
2014    9        6     8  29    4.35   376.4    7.3      30.235
2014    9        6     8  35    4.35   376.4    7.3      30.248
2014    9        6     8  41    4.36   376.3    7.3      30.262
2014    9        6     8  46    4.36   376.2    7.3      30.276
2014    9        6     8  52    4.37   376.2    7.3      30.291
2014    9        6     8  58    4.37   376.1    7.3      30.305
2014    9        6     9   4    4.37   376.1    7.3      30.320
2014    9        6     9  10    4.38   376.0    7.4      30.334
2014    9        6     9  16    4.38   375.9    7.4      30.350
2014    9        6     9  21    4.39   375.9    7.4      30.365
2014    9        6     9  27    4.39   375.8    7.4      30.380
2014    9        6     9  33    4.39   375.7    7.4      30.396
2014    9        6     9  39    4.40   375.7    7.4      30.411
2014    9        6     9  45    4.40   375.6    7.4      30.427
2014    9        6     9  51    4.41   375.6    7.4      30.443
2014    9        6     9  56    4.41   375.5    7.4      30.459
2014    9        6    10   2    4.41   375.5    7.4      30.475
2014    9        6    10   8    4.42   375.4    7.4      30.491
2014    9        6    10  14    4.42   375.3    7.4      30.508
2014    9        6    10  20    4.43   375.3    7.5      30.524
2014    9        6    10  25    4.43   375.2    7.5      30.541
2014    9        6    10  31    4.44   375.2    7.5      30.557
2014    9        6    10  37    4.44   375.1    7.5      30.574
2014    9        6    10  43    4.44   375.1    7.5      30.591
2014    9        6    10  49    4.45   375.0    7.5      30.608
2014    9        6    10  55    4.45   375.0    7.5      30.625
2014    9        6    11   0    4.46   374.9    7.5      30.643
2014    9        6    11   6    4.46   374.9    7.5      30.660
2014    9        6    11  12    4.46   374.8    7.5      30.678
2014    9        6    11  18    4.47   374.8    7.5      30.696
2014    9        6    11  24    4.47   374.7    7.5      30.714
2014    9        6    11  30    4.48   374.7    7.6      30.733
2014    9        6    11  35    4.48   374.6    7.6      30.751
2014    9        6    11  41    4.48   374.6    7.6      30.770
2014    9        6    11  47    4.49   374.5    7.6      30.789
2014    9        6    11  53    4.49   374.5    7.6      30.808
2014    9        6    11  59    4.50   374.4    7.6      30.826
2014    9        6    12   5    4.50   374.4    7.6      30.845
2014    9        6    12  10    4.50   374.3    7.6      30.864
2014    9        6    12  16    4.51   374.3    7.6      30.883
2014    9        6    12  22    4.51   374.2    7.6      30.902
2014    9        6    12  28    4.52   374.2    7.6      30.922
2014    9        6    12  34    4.52   374.2    7.6      30.941
2014    9        6    12  40    4.52   374.1    7.6      30.960
2014    9        6    12  45    4.53   374.1    7.7      30.979
2014    9        6    12  51    4.53   374.0    7.7      30.998
2014    9        6    12  57    4.54   374.0    7.7      31.017
2014    9        6    13   3    4.54   373.9    7.7      31.037
2014    9        6    13   9    4.54   373.9    7.7      31.056
2014    9        6    13  15    4.55   373.9    7.7      31.075
2014    9        6    13  20    4.55   373.8    7.7      31.094
2014    9        6    13  26    4.56   373.8    7.7      31.113
2014    9        6    13  32    4.56   373.7    7.7      31.133
2014    9        6    13  38    4.56   373.7    7.7      31.152
2014    9        6    13  44    4.57   373.6    7.7      31.171
2014    9        6    13  50    4.57   373.6    7.7      31.190
2014    9        6    13  55    4.58   373.6    7.7      31.209
2014    9        6    14   1    4.58   373.5    7.7      31.228
2014    9        6    14   7    4.58   373.5    7.8      31.247
2014    9        6    14  13    4.59   373.4    7.8      31.266
2014    9        6    14  19    4.59   373.4    7.8      31.285
2014    9        6    14  25    4.60   373.4    7.8      31.304
2014    9        6    14  30    4.60   373.3    7.8      31.323
2014    9        6    14  36    4.60   373.3    7.8      31.342
2014    9        6    14  42    4.61   373.2    7.8      31.361
2014    9        6    14  48    4.61   373.2    7.8      31.380
2014    9        6    14  54    4.62   373.2    7.8      31.399
2014    9        6    15   0    4.62   373.1    7.8      31.419
2014    9        6    15   5    4.62   373.1    7.8      31.438
2014    9        6    15  11    4.63   373.1    7.8      31.457
2014    9        6    15  17    4.63   373.0    7.8      31.477
2014    9        6    15  23    4.64   373.0    7.8      31.497
2014    9        6    15  29    4.64   373.0    7.8      31.517
2014    9        6    15  35    4.64   372.9    7.9      31.537
2014    9        6    15  40    4.65   372.9    7.9      31.557
2014    9        6    15  46    4.65   372.9    7.9      31.578
2014    9        6    15  52    4.66   372.8    7.9      31.598
2014    9        6    15  58    4.66   372.8    7.9      31.619
2014    9        6    16   4    4.67   372.8    7.9      31.640
2014    9        6    16  10    4.67   372.7    7.9      31.661
2014    9        6    16  15    4.67   372.7    7.9      31.682
2014    9        6    16  21    4.68   372.7    7.9      31.704
2014    9        6    16  27    4.68   372.7    7.9      31.726
2014    9        6    16  33    4.69   372.6    7.9      31.748
2014    9        6    16  39    4.69   372.6    7.9      31.770
2014    9        6    16  45    4.70   372.6    7.9      31.792
2014    9        6    16  50    4.70   372.6    7.9      31.815
2014    9        6    16  56    4.70   372.5    7.9      31.837
2014    9        6    17   2    4.71   372.5    8.0      31.860
2014    9        6    17   8    4.71   372.5    8.0      31.883
2014    9        6    17  14    4.72   372.5    8.0      31.907
2014    9        6    17  19    4.72   372.4    8.0      31.930
2014    9        6    17  25    4.73   372.4    8.0      31.954
2014    9        6    17  31    4.73   372.4    8.0      31.977
2014    9        6    17  37    4.73   372.4    8.0      32.001
2014    9        6    17  43    4.74   372.4    8.0      32.025
2014    9        6    17  49    4.74   372.3    8.0      32.050
2014    9        6    17  54    4.75   372.3    8.0      32.074
2014    9        6    18   0    4.75   372.3    8.0      32.099
2014    9        6    18   6    4.76   372.3    8.0      32.124
2014    9        6    18  12    4.76   372.3    8.0      32.149
2014    9        6    18  18    4.76   372.3    8.1      32.175
2014    9        6    18  24    4.77   372.3    8.1      32.200
2014    9        6    18  29    4.77   372.2    8.1      32.226
2014    9        6    18  35    4.78   372.2    8.1      32.252
2014    9        6    18  41    4.78   372.2    8.1      32.279
2014    9        6    18  47    4.79   372.2    8.1      32.305
2014    9        6    18  53    4.79   372.2    8.1      32.332
2014    9        6    18  59    4.80   372.2    8.1      32.360
2014    9        6    19   4    4.80   372.2    8.1      32.387
2014    9        6    19  10    4.80   372.2    8.1      32.416
2014    9        6    19  16    4.81   372.2    8.1      32.445
2014    9        6    19  22    4.81   372.2    8.1      32.474
2014    9        6    19  28    4.82   372.1    8.2      32.505
2014    9        6    19  34    4.82   372.1    8.2      32.535
2014    9        6    19  39    4.83   372.1    8.2      32.566
2014    9        6    19  45    4.83   372.1    8.2      32.597
2014    9        6    19  51    4.83   372.1    8.2      32.628
2014    9        6    19  57    4.84   372.1    8.2      32.660
2014    9        6    20   3    4.84   372.1    8.2      32.691
2014    9        6    20   9    4.85   372.1    8.2      32.722
2014    9        6    20  14    4.85   372.1    8.2      32.754
2014    9        6    20  20    4.86   372.1    8.2      32.785
2014    9        6    20  26    4.86   372.1    8.2      32.816
2014    9        6    20  32    4.86   372.1    8.2      32.848
2014    9        6    20  38    4.87   372.1    8.2      32.879
2014    9        6    20  44    4.87   372.1    8.2      32.910
2014    9        6    20  49    4.88   372.1    8.2      32.940
2014    9        6    20  55    4.88   372.1    8.3      32.971
2014    9        6    21   1    4.88   372.1    8.3      33.001
2014    9        6    21   7    4.89   372.1    8.3      33.031
2014    9        6    21  13    4.89   372.1    8.3      33.061
2014    9        6    21  19    4.90   372.1    8.3      33.091
2014    9        6    21  24    4.90   372.1    8.3      33.120
2014    9        6    21  30    4.90   372.1    8.3      33.149
2014    9        6    21  36    4.91   372.1    8.3      33.178
2014    9        6    21  42    4.91   372.1    8.3      33.206
2014    9        6    21  48    4.92   372.1    8.3      33.235
2014    9        6    21  54    4.92   372.1    8.3      33.263
2014    9        6    21  59    4.92   372.1    8.3      33.291
2014    9        6    22   5    4.93   372.1    8.3      33.319
2014    9        6    22  11    4.93   372.1    8.3      33.347
2014    9        6    22  17    4.94   372.1    8.3      33.374
2014    9        6    22  23    4.94   372.1    8.3      33.401
2014    9        6    22  29    4.94   372.1    8.3      33.428
2014    9        6    22  34    4.95   372.1    8.3      33.455
2014    9        6    22  40    4.95   372.1    8.3      33.482
2014    9        6    22  46    4.95   372.1    8.3      33.509
2014    9        6    22  52    4.96   372.1    8.4      33.535
2014    9        6    22  58    4.96   372.1    8.4      33.562
2014    9        6    23   3    4.97   372.1    8.4      33.588
2014    9        6    23   9    4.97   372.1    8.4      33.614
2014    9        6    23  15    4.97   372.1    8.4      33.641
2014    9        6    23  21    4.98   372.1    8.4      33.666
2014    9        6    23  27    4.98   372.1    8.4      33.693
2014    9        6    23  33    4.98   372.1    8.4      33.719
2014    9        6    23  38    4.99   372.1    8.4      33.745
2014    9        6    23  44    4.99   372.1    8.4      33.770
2014    9        6    23  50    5.00   372.1    8.4      33.797
2014    9        6    23  56    5.00   372.1    8.4      33.823
2014    9        7     0   2    5.00   372.1    8.4      33.849
2014    9        7     0   8    5.01   372.1    8.4      33.875
2014    9        7     0  13    5.01   372.1    8.4      33.901
2014    9        7     0  19    5.02   372.1    8.4      33.928
2014    9        7     0  25    5.02   372.1    8.4      33.955
2014    9        7     0  31    5.02   372.1    8.4      33.981
2014    9        7     0  37    5.03   372.2    8.4      34.008
2014    9        7     0  43    5.03   372.2    8.4      34.035
2014    9        7     0  48    5.04   372.2    8.4      34.063
2014    9        7     0  54    5.04   372.2    8.4      34.090
2014    9        7     1   0    5.04   372.2    8.5      34.118
2014    9        7     1   6    5.05   372.2    8.5      34.146
2014    9        7     1  12    5.05   372.2    8.5      34.174
2014    9        7     1  18    5.06   372.3    8.5      34.203
2014    9        7     1  23    5.06   372.3    8.5      34.231
2014    9        7     1  29    5.06   372.3    8.5      34.260
2014    9        7     1  35    5.07   372.3    8.5      34.289
2014    9        7     1  41    5.07   372.3    8.5      34.319
2014    9        7     1  47    5.08   372.3    8.5      34.348
2014    9        7     1  53    5.08   372.4    8.5      34.378
2014    9        7     1  58    5.09   372.4    8.5      34.408
2014    9        7     2   4    5.09   372.4    8.5      34.439
2014    9        7     2  10    5.09   372.4    8.5      34.470
2014    9        7     2  16    5.10   372.5    8.5      34.501
2014    9        7     2  22    5.10   372.5    8.5      34.533
2014    9        7     2  28    5.11   372.5    8.5      34.566
2014    9        7     2  33    5.11   372.6    8.5      34.600
2014    9        7     2  39    5.12   372.6    8.6      34.634
2014    9        7     2  45    5.12   372.6    8.6      34.669
2014    9        7     2  51    5.13   372.7    8.6      34.704
2014    9        7     2  57    5.13   372.7    8.6      34.740
2014    9        7     3   3    5.14   372.7    8.6      34.776
2014    9        7     3   8    5.14   372.8    8.6      34.812
2014    9        7     3  14    5.14   372.8    8.6      34.848
2014    9        7     3  20    5.15   372.9    8.6      34.884
2014    9        7     3  26    5.15   372.9    8.6      34.921
2014    9        7     3  32    5.16   372.9    8.6      34.959
2014    9        7     3  38    5.16   373.0    8.6      34.997
2014    9        7     3  43    5.17   373.0    8.6      35.036
2014    9        7     3  49    5.17   373.1    8.6      35.075
2014    9        7     3  55    5.18   373.1    8.6      35.115
2014    9        7     4   1    5.18   373.2    8.7      35.155
2014    9        7     4   7    5.18   373.2    8.7      35.195
2014    9        7     4  13    5.19   373.3    8.7      35.235
2014    9        7     4  18    5.19   373.3    8.7      35.274
2014    9        7     4  24    5.20   373.3    8.7      35.314
2014    9        7     4  30    5.20   373.4    8.7      35.353
2014    9        7     4  36    5.20   373.4    8.7      35.392
2014    9        7     4  42    5.21   373.5    8.7      35.431
2014    9        7     4  48    5.21   373.5    8.7      35.469
2014    9        7     4  53    5.22   373.6    8.7      35.507
2014    9        7     4  59    5.22   373.6    8.7      35.544
2014    9        7     5   5    5.22   373.7    8.7      35.581
2014    9        7     5  11    5.23   373.7    8.7      35.617
2014    9        7     5  17    5.23   373.8    8.7      35.653
2014    9        7     5  23    5.23   373.8    8.7      35.689
2014    9        7     5  28    5.24   373.8    8.7      35.724
2014    9        7     5  34    5.24   373.9    8.7      35.758
2014    9        7     5  40    5.25   373.9    8.7      35.792
2014    9        7     5  46    5.25   374.0    8.7      35.825
2014    9        7     5  52    5.25   374.0    8.7      35.858
2014    9        7     5  57    5.26   374.1    8.7      35.891
2014    9        7     6   3    5.26   374.1    8.7      35.923
2014    9        7     6   9    5.26   374.1    8.8      35.955
2014    9        7     6  15    5.27   374.2    8.8      35.986
2014    9        7     6  21    5.27   374.2    8.8      36.016
2014    9        7     6  27    5.27   374.3    8.8      36.047
2014    9        7     6  32    5.28   374.3    8.8      36.076
2014    9        7     6  38    5.28   374.4    8.8      36.106
2014    9        7     6  44    5.28   374.4    8.8      36.135
2014    9        7     6  50    5.29   374.4    8.8      36.163
2014    9        7     6  56    5.29   374.5    8.8      36.192
2014    9        7     7   2    5.29   374.5    8.8      36.220
2014    9        7     7   7    5.30   374.5    8.8      36.248
2014    9        7     7  13    5.30   374.6    8.8      36.275
2014    9        7     7  19    5.30   374.6    8.8      36.303
2014    9        7     7  25    5.31   374.7    8.8      36.330
2014    9        7     7  31    5.31   374.7    8.8      36.357
2014    9        7     7  37    5.31   374.7    8.8      36.384
2014    9        7     7  42    5.31   374.8    8.8      36.410
2014    9        7     7  48    5.32   374.8    8.8      36.437
2014    9        7     7  54    5.32   374.9    8.8      36.464
2014    9        7     8   0    5.32   374.9    8.8      36.490
2014    9        7     8   6    5.33   374.9    8.8      36.517
2014    9        7     8  12    5.33   375.0    8.8      36.543
2014    9        7     8  17    5.33   375.0    8.8      36.569
2014    9        7     8  23    5.34   375.1    8.8      36.596
2014    9        7     8  29    5.34   375.1    8.8      36.622
2014    9        7     8  35    5.34   375.2    8.8      36.649
2014    9        7     8  41    5.35   375.2    8.8      36.675
2014    9        7     8  47    5.35   375.2    8.8      36.702
2014    9        7     8  52    5.35   375.3    8.8      36.729
2014    9        7     8  58    5.36   375.3    8.8      36.756
2014    9        7     9   4    5.36   375.4    8.8      36.783
2014    9        7     9  10    5.36   375.4    8.8      36.810
2014    9        7     9  16    5.37   375.5    8.8      36.837
2014    9        7     9  22    5.37   375.5    8.8      36.865
2014    9        7     9  27    5.38   375.6    8.8      36.893
2014    9        7     9  33    5.38   375.6    8.8      36.921
2014    9        7     9  39    5.38   375.7    8.8      36.949
2014    9        7     9  45    5.39   375.7    8.8      36.977
2014    9        7     9  51    5.39   375.8    8.8      37.006
2014    9        7     9  57    5.39   375.8    8.8      37.035
2014    9        7    10   2    5.40   375.9    8.8      37.064
2014    9        7    10   8    5.40   375.9    8.8      37.094
2014    9        7    10  14    5.41   376.0    8.8      37.124
2014    9        7    10  20    5.41   376.1    8.8      37.154
2014    9        7    10  26    5.41   376.1    8.8      37.184
2014    9        7    10  32    5.42   376.2    8.8      37.215
2014    9        7    10  37    5.42   376.2    8.8      37.245
2014    9        7    10  43    5.43   376.3    8.8      37.277
2014    9        7    10  49    5.43   376.4    8.9      37.309
2014    9        7    10  55    5.43   376.4    8.9      37.343
2014    9        7    11   1    5.44   376.5    8.9      37.377
2014    9        7    11   7    5.44   376.6    8.9      37.411
2014    9        7    11  12    5.45   376.6    8.9      37.447
2014    9        7    11  18    5.45   376.7    8.9      37.484
2014    9        7    11  24    5.45   376.8    8.9      37.522
2014    9        7    11  30    5.46   376.9    8.9      37.559
2014    9        7    11  36    5.46   376.9    8.9      37.598
2014    9        7    11  42    5.47   377.0    8.9      37.636
2014    9        7    11  47    5.47   377.1    8.9      37.675
2014    9        7    11  53    5.48   377.2    8.9      37.714
2014    9        7    11  59    5.48   377.2    8.9      37.754
2014    9        7    12   5    5.48   377.3    8.9      37.794
2014    9        7    12  11    5.49   377.4    8.9      37.835
2014    9        7    12  17    5.49   377.5    8.9      37.875
2014    9        7    12  22    5.50   377.6    9.0      37.915
2014    9        7    12  28    5.50   377.6    9.0      37.956
2014    9        7    12  34    5.50   377.7    9.0      37.998
2014    9        7    12  40    5.51   377.8    9.0      38.041
2014    9        7    12  46    5.51   377.9    9.0      38.086
2014    9        7    12  51    5.52   378.0    9.0      38.133
2014    9        7    12  57    5.52   378.1    9.0      38.179
2014    9        7    13   3    5.52   378.2    9.0      38.228
2014    9        7    13   9    5.53   378.3    9.0      38.277
2014    9        7    13  15    5.53   378.4    9.0      38.326
2014    9        7    13  21    5.54   378.5    9.0      38.375
2014    9        7    13  26    5.54   378.6    9.0      38.423
2014    9        7    13  32    5.54   378.7    9.0      38.471
2014    9        7    13  38    5.55   378.8    9.0      38.517
2014    9        7    13  44    5.55   378.9    9.0      38.563
2014    9        7    13  50    5.55   378.9    9.0      38.608
2014    9        7    13  56    5.56   379.0    9.0      38.652
2014    9        7    14   1    5.56   379.1    9.0      38.696
2014    9        7    14   7    5.56   379.2    9.1      38.738
2014    9        7    14  13    5.56   379.3    9.1      38.779
2014    9        7    14  19    5.57   379.4    9.1      38.820
2014    9        7    14  25    5.57   379.5    9.1      38.860
2014    9        7    14  31    5.57   379.6    9.1      38.899
2014    9        7    14  36    5.58   379.7    9.1      38.937
2014    9        7    14  42    5.58   379.8    9.1      38.974
2014    9        7    14  48    5.58   379.9    9.1      39.011
2014    9        7    14  54    5.58   380.0    9.1      39.047
2014    9        7    15   0    5.59   380.1    9.1      39.082
2014    9        7    15   6    5.59   380.2    9.1      39.116
2014    9        7    15  11    5.59   380.3    9.1      39.150
2014    9        7    15  17    5.59   380.3    9.1      39.183
2014    9        7    15  23    5.60   380.4    9.1      39.215
2014    9        7    15  29    5.60   380.5    9.1      39.247
2014    9        7    15  35    5.60   380.6    9.1      39.278
2014    9        7    15  41    5.60   380.7    9.1      39.309
2014    9        7    15  46    5.61   380.8    9.1      39.339
2014    9        7    15  52    5.61   380.9    9.1      39.369
2014    9        7    15  58    5.61   381.0    9.1      39.398
2014    9        7    16   4    5.61   381.1    9.1      39.426
2014    9        7    16  10    5.62   381.1    9.1      39.454
2014    9        7    16  16    5.62   381.2    9.1      39.482
2014    9        7    16  21    5.62   381.3    9.0      39.509
2014    9        7    16  27    5.62   381.4    9.0      39.536
2014    9        7    16  33    5.63   381.5    9.0      39.563
2014    9        7    16  39    5.63   381.6    9.0      39.589
2014    9        7    16  45    5.63   381.7    9.0      39.615
2014    9        7    16  51    5.64   381.8    9.0      39.641
2014    9        7    16  56    5.64   381.9    9.0      39.667
2014    9        7    17   2    5.64   381.9    9.0      39.693
2014    9        7    17   8    5.64   382.0    9.0      39.718
2014    9        7    17  14    5.65   382.1    9.0      39.743
2014    9        7    17  20    5.65   382.2    9.0      39.769
2014    9        7    17  26    5.65   382.3    9.0      39.794
2014    9        7    17  31    5.65   382.4    9.0      39.819
2014    9        7    17  37    5.66   382.5    9.0      39.844
2014    9        7    17  43    5.66   382.6    9.0      39.869
2014    9        7    17  49    5.66   382.7    9.0      39.895
2014    9        7    17  55    5.66   382.7    9.0      39.920
2014    9        7    18   1    5.67   382.8    9.0      39.946
2014    9        7    18   6    5.67   382.9    9.0      39.971
2014    9        7    18  12    5.67   383.0    9.0      39.997
2014    9        7    18  18    5.68   383.1    9.0      40.023
2014    9        7    18  24    5.68   383.2    9.0      40.049
2014    9        7    18  30    5.68   383.3    9.0      40.075
2014    9        7    18  36    5.68   383.4    9.0      40.102
2014    9        7    18  41    5.69   383.5    9.0      40.129
2014    9        7    18  47    5.69   383.6    9.0      40.156
2014    9        7    18  53    5.69   383.7    9.0      40.183
2014    9        7    18  59    5.70   383.8    9.0      40.211
2014    9        7    19   5    5.70   383.9    9.0      40.239
2014    9        7    19  11    5.70   384.0    9.0      40.267
2014    9        7    19  16    5.71   384.0    9.0      40.296
2014    9        7    19  22    5.71   384.1    9.0      40.326
2014    9        7    19  28    5.71   384.2    9.0      40.356
2014    9        7    19  34    5.72   384.3    9.0      40.387
2014    9        7    19  40    5.72   384.4    9.0      40.419
2014    9        7    19  45    5.72   384.5    9.0      40.452
2014    9        7    19  51    5.73   384.6    9.0      40.487
2014    9        7    19  57    5.73   384.7    9.0      40.524
2014    9        7    20   3    5.73   384.9    9.1      40.562
2014    9        7    20   9    5.74   385.0    9.1      40.602
2014    9        7    20  15    5.74   385.1    9.1      40.643
2014    9        7    20  20    5.74   385.2    9.1      40.685
2014    9        7    20  26    5.74   385.3    9.1      40.728
2014    9        7    20  32    5.75   385.4    9.1      40.771
2014    9        7    20  38    5.75   385.5    9.1      40.814
2014    9        7    20  44    5.75   385.7    9.1      40.856
2014    9        7    20  50    5.76   385.8    9.1      40.899
2014    9        7    20  55    5.76   385.9    9.1      40.942
2014    9        7    21   1    5.76   386.0    9.1      40.984
2014    9        7    21   7    5.76   386.1    9.1      41.027
2014    9        7    21  13    5.77   386.2    9.1      41.070
2014    9        7    21  19    5.77   386.3    9.1      41.113
2014    9        7    21  25    5.77   386.5    9.1      41.156
2014    9        7    21  30    5.78   386.6    9.1      41.200
2014    9        7    21  36    5.78   386.7    9.1      41.244
2014    9        7    21  42    5.78   386.8    9.1      41.288
2014    9        7    21  48    5.78   386.9    9.1      41.334
2014    9        7    21  54    5.79   387.0    9.1      41.381
2014    9        7    22   0    5.79   387.2    9.1      41.429
2014    9        7    22   5    5.79   387.3    9.1      41.479
2014    9        7    22  11    5.79   387.4    9.1      41.529
2014    9        7    22  17    5.80   387.5    9.2      41.580
2014    9        7    22  23    5.80   387.7    9.2      41.632
2014    9        7    22  29    5.80   387.8    9.2      41.683
2014    9        7    22  35    5.81   387.9    9.2      41.734
2014    9        7    22  40    5.81   388.1    9.2      41.784
2014    9        7    22  46    5.81   388.2    9.2      41.833
2014    9        7    22  52    5.81   388.4    9.2      41.881
2014    9        7    22  58    5.82   388.5    9.2      41.928
2014    9        7    23   4    5.82   388.6    9.2      41.973
2014    9        7    23  10    5.82   388.8    9.2      42.017
2014    9        7    23  15    5.82   388.9    9.2      42.061
2014    9        7    23  21    5.82   389.0    9.2      42.103
2014    9        7    23  27    5.83   389.2    9.2      42.144
2014    9        7    23  33    5.83   389.3    9.2      42.184
2014    9        7    23  39    5.83   389.4    9.2      42.223
2014    9        7    23  45    5.83   389.6    9.2      42.260
2014    9        7    23  50    5.83   389.7    9.2      42.297
2014    9        7    23  56    5.84   389.9    9.2      42.332
2014    9        8     0   2    5.84   390.0    9.1      42.367
2014    9        8     0   8    5.84   390.1    9.1      42.401
2014    9        8     0  14    5.84   390.3    9.1      42.434
2014    9        8     0  20    5.84   390.4    9.1      42.466
2014    9        8     0  25    5.85   390.6    9.1      42.497
2014    9        8     0  31    5.85   390.7    9.1      42.528
2014    9        8     0  37    5.85   390.8    9.1      42.557
2014    9        8     0  43    5.85   391.0    9.1      42.586
2014    9        8     0  49    5.85   391.1    9.1      42.615
2014    9        8     0  55    5.85   391.3    9.1      42.643
2014    9        8     1   0    5.86   391.4    9.1      42.670
2014    9        8     1   6    5.86   391.5    9.1      42.697
2014    9        8     1  12    5.86   391.7    9.1      42.723
2014    9        8     1  18    5.86   391.8    9.1      42.748
2014    9        8     1  24    5.86   392.0    9.1      42.773
2014    9        8     1  30    5.86   392.1    9.1      42.798
2014    9        8     1  35    5.87   392.3    9.1      42.822
2014    9        8     1  41    5.87   392.4    9.1      42.846
2014    9        8     1  47    5.87   392.5    9.1      42.870
2014    9        8     1  53    5.87   392.7    9.1      42.893
2014    9        8     1  59    5.87   392.8    9.1      42.916
2014    9        8     2   4    5.87   393.0    9.0      42.938
2014    9        8     2  10    5.87   393.1    9.0      42.961
2014    9        8     2  16    5.88   393.2    9.0      42.983
2014    9        8     2  22    5.88   393.4    9.0      43.005
2014    9        8     2  28    5.88   393.5    9.0      43.026
2014    9        8     2  34    5.88   393.7    9.0      43.048
2014    9        8     2  39    5.88   393.8    9.0      43.069
2014    9        8     2  45    5.88   394.0    9.0      43.090
2014    9        8     2  51    5.88   394.1    9.0      43.112
2014    9        8     2  57    5.89   394.2    9.0      43.133
2014    9        8     3   3    5.89   394.4    9.0      43.154
2014    9        8     3   9    5.89   394.5    9.0      43.175
2014    9        8     3  14    5.89   394.7    9.0      43.195
2014    9        8     3  20    5.89   394.8    9.0      43.216
2014    9        8     3  26    5.89   394.9    9.0      43.237
2014    9        8     3  32    5.89   395.1    9.0      43.258
2014    9        8     3  38    5.90   395.2    9.0      43.279
2014    9        8     3  44    5.90   395.4    9.0      43.301
2014    9        8     3  49    5.90   395.5    9.0      43.322
2014    9        8     3  55    5.90   395.6    9.0      43.343
2014    9        8     4   1    5.90   395.8    8.9      43.365
2014    9        8     4   7    5.90   395.9    8.9      43.387
2014    9        8     4  13    5.90   396.1    8.9      43.409
2014    9        8     4  19    5.91   396.2    8.9      43.431
2014    9        8     4  24    5.91   396.3    8.9      43.454
2014    9        8     4  30    5.91   396.5    8.9      43.478
2014    9        8     4  36    5.91   396.6    8.9      43.501
2014    9        8     4  42    5.91   396.7    8.9      43.526
2014    9        8     4  48    5.91   396.9    8.9      43.550
2014    9        8     4  54    5.92   397.0    8.9      43.577
2014    9        8     4  59    5.92   397.2    8.9      43.604
2014    9        8     5   5    5.92   397.3    8.9      43.632
2014    9        8     5  11    5.92   397.4    8.9      43.661
2014    9        8     5  17    5.92   397.6    8.9      43.693
2014    9        8     5  23    5.92   397.7    8.9      43.726
2014    9        8     5  29    5.93   397.9    8.9      43.761
2014    9        8     5  34    5.93   398.0    8.9      43.797
2014    9        8     5  40    5.93   398.2    8.9      43.833
2014    9        8     5  46    5.93   398.3    8.9      43.870
2014    9        8     5  52    5.93   398.4    8.9      43.909
2014    9        8     5  58    5.93   398.6    8.9      43.949
2014    9        8     6   4    5.94   398.7    8.9      43.990
2014    9        8     6   9    5.94   398.9    8.9      44.032
2014    9        8     6  15    5.94   399.0    8.9      44.074
2014    9        8     6  21    5.94   399.2    8.9      44.117
2014    9        8     6  27    5.94   399.4    8.9      44.161
2014    9        8     6  33    5.94   399.5    8.9      44.206
2014    9        8     6  39    5.95   399.7    8.9      44.251
2014    9        8     6  44    5.95   399.8    8.9      44.295
2014    9        8     6  50    5.95   400.0    8.9      44.339
2014    9        8     6  56    5.95   400.2    8.9      44.382
2014    9        8     7   2    5.95   400.3    8.9      44.425
2014    9        8     7   8    5.95   400.5    8.9      44.467
2014    9        8     7  14    5.96   400.7    8.9      44.508
2014    9        8     7  19    5.96   400.8    8.9      44.550
2014    9        8     7  25    5.96   401.0    8.9      44.591
2014    9        8     7  31    5.96   401.2    8.9      44.633
2014    9        8     7  37    5.96   401.3    8.9      44.674
2014    9        8     7  43    5.96   401.5    8.9      44.715
2014    9        8     7  49    5.96   401.7    8.9      44.756
2014    9        8     7  54    5.97   401.9    8.9      44.797
2014    9        8     8   0    5.97   402.1    8.9      44.838
2014    9        8     8   6    5.97   402.2    8.9      44.878
2014    9        8     8  12    5.97   402.4    8.9      44.918
2014    9        8     8  18    5.97   402.6    8.9      44.956
2014    9        8     8  24    5.97   402.8    8.9      44.994
2014    9        8     8  29    5.97   403.0    8.9      45.031
2014    9        8     8  35    5.97   403.2    8.9      45.067
2014    9        8     8  41    5.97   403.4    8.9      45.103
2014    9        8     8  47    5.97   403.6    8.9      45.138
2014    9        8     8  53    5.97   403.8    8.9      45.172
2014    9        8     8  58    5.98   404.0    8.9      45.205
2014    9        8     9   4    5.98   404.2    8.9      45.237
2014    9        8     9  10    5.98   404.4    8.9      45.269
2014    9        8     9  16    5.98   404.6    8.9      45.300
2014    9        8     9  22    5.98   404.8    8.9      45.331
2014    9        8     9  28    5.98   405.0    8.9      45.361
2014    9        8     9  33    5.98   405.2    8.9      45.390
2014    9        8     9  39    5.98   405.4    8.9      45.419
2014    9        8     9  45    5.98   405.6    8.9      45.447
2014    9        8     9  51    5.98   405.8    8.8      45.475
2014    9        8     9  57    5.98   406.0    8.8      45.502
2014    9        8    10   3    5.98   406.2    8.8      45.529
2014    9        8    10   8    5.98   406.4    8.8      45.556
2014    9        8    10  14    5.98   406.6    8.8      45.582
2014    9        8    10  20    5.98   406.8    8.8      45.607
2014    9        8    10  26    5.98   407.0    8.8      45.633
2014    9        8    10  32    5.98   407.2    8.8      45.658
2014    9        8    10  38    5.98   407.4    8.8      45.683
2014    9        8    10  43    5.98   407.6    8.8      45.708
2014    9        8    10  49    5.98   407.8    8.8      45.733
2014    9        8    10  55    5.98   408.0    8.8      45.757
2014    9        8    11   1    5.98   408.1    8.8      45.782
2014    9        8    11   7    5.98   408.3    8.8      45.806
2014    9        8    11  13    5.98   408.5    8.8      45.831
2014    9        8    11  18    5.97   408.7    8.7      45.856
2014    9        8    11  24    5.97   408.9    8.7      45.881
2014    9        8    11  30    5.97   409.1    8.7      45.905
2014    9        8    11  36    5.97   409.3    8.7      45.930
2014    9        8    11  42    5.97   409.5    8.7      45.955
2014    9        8    11  48    5.97   409.7    8.7      45.981
2014    9        8    11  53    5.97   409.9    8.7      46.006
2014    9        8    11  59    5.97   410.1    8.7      46.033
2014    9        8    12   5    5.97   410.3    8.7      46.060
2014    9        8    12  11    5.97   410.5    8.7      46.087
2014    9        8    12  17    5.97   410.7    8.7      46.116
2014    9        8    12  23    5.97   410.9    8.7      46.145
2014    9        8    12  28    5.97   411.1    8.7      46.175
2014    9        8    12  34    5.97   411.3    8.7      46.205
2014    9        8    12  40    5.97   411.5    8.7      46.236
2014    9        8    12  46    5.97   411.7    8.6      46.267
2014    9        8    12  52    5.97   411.9    8.6      46.297
2014    9        8    12  58    5.96   412.1    8.6      46.327
2014    9        8    13   3    5.96   412.3    8.6      46.357
2014    9        8    13   9    5.96   412.5    8.6      46.387
2014    9        8    13  15    5.96   412.7    8.6      46.417
2014    9        8    13  21    5.96   412.9    8.6      46.446
2014    9        8    13  27    5.96   413.1    8.6      46.475
2014    9        8    13  33    5.96   413.3    8.6      46.504
2014    9        8    13  38    5.96   413.5    8.6      46.533
2014    9        8    13  44    5.96   413.7    8.6      46.561
2014    9        8    13  50    5.96   413.9    8.6      46.589
2014    9        8    13  56    5.96   414.1    8.6      46.617
2014    9        8    14   2    5.96   414.3    8.6      46.644
2014    9        8    14   8    5.95   414.5    8.6      46.672
2014    9        8    14  13    5.95   414.7    8.6      46.700
2014    9        8    14  19    5.95   414.9    8.5      46.727
2014    9        8    14  25    5.95   415.1    8.5      46.755
2014    9        8    14  31    5.95   415.3    8.5      46.783
2014    9        8    14  37    5.95   415.5    8.5      46.811
2014    9        8    14  43    5.95   415.7    8.5      46.840
2014    9        8    14  48    5.95   415.9    8.5      46.869
2014    9        8    14  54    5.95   416.1    8.5      46.898
2014    9        8    15   0    5.95   416.3    8.5      46.927
2014    9        8    15   6    5.94   416.5    8.5      46.955
2014    9        8    15  12    5.94   416.7    8.5      46.983
2014    9        8    15  18    5.94   416.9    8.5      47.011
2014    9        8    15  23    5.94   417.1    8.5      47.038
2014    9        8    15  29    5.94   417.3    8.5      47.064
2014    9        8    15  35    5.94   417.5    8.5      47.090
2014    9        8    15  41    5.94   417.7    8.4      47.114
2014    9        8    15  47    5.93   417.9    8.4      47.138
2014    9        8    15  52    5.93   418.2    8.4      47.160
2014    9        8    15  58    5.93   418.4    8.4      47.182
2014    9        8    16   4    5.93   418.6    8.4      47.203
2014    9        8    16  10    5.93   418.8    8.4      47.223
2014    9        8    16  16    5.93   419.0    8.4      47.242
2014    9        8    16  22    5.92   419.2    8.4      47.260
2014    9        8    16  27    5.92   419.4    8.4      47.277
2014    9        8    16  33    5.92   419.7    8.4      47.293
2014    9        8    16  39    5.92   419.9    8.3      47.308
2014    9        8    16  45    5.91   420.1    8.3      47.322
2014    9        8    16  51    5.91   420.3    8.3      47.335
2014    9        8    16  57    5.91   420.5    8.3      47.347
2014    9        8    17   2    5.91   420.7    8.3      47.358
2014    9        8    17   8    5.90   420.9    8.3      47.368
2014    9        8    17  14    5.90   421.2    8.3      47.377
2014    9        8    17  20    5.90   421.4    8.3      47.385
2014    9        8    17  26    5.90   421.6    8.3      47.393
2014    9        8    17  32    5.89   421.8    8.2      47.401
2014    9        8    17  37    5.89   422.0    8.2      47.408
2014    9        8    17  43    5.89   422.2    8.2      47.415
2014    9        8    17  49    5.88   422.4    8.2      47.420
2014    9        8    17  55    5.88   422.7    8.2      47.425
2014    9        8    18   1    5.88   422.9    8.2      47.429
2014    9        8    18   7    5.87   423.1    8.2      47.431
2014    9        8    18  12    5.87   423.3    8.2      47.433
2014    9        8    18  18    5.87   423.5    8.1      47.433
2014    9        8    18  24    5.86   423.7    8.1      47.433
2014    9        8    18  30    5.86   423.9    8.1      47.433
2014    9        8    18  36    5.86   424.0    8.1      47.433
2014    9        8    18  42    5.85   424.2    8.1      47.432
2014    9        8    18  47    5.85   424.4    8.1      47.430
2014    9        8    18  53    5.84   424.6    8.1      47.429
2014    9        8    18  59    5.84   424.7    8.1      47.427
2014    9        8    19   5    5.84   424.9    8.0      47.426
2014    9        8    19  11    5.83   425.1    8.0      47.425
2014    9        8    19  17    5.83   425.3    8.0      47.425
2014    9        8    19  22    5.83   425.5    8.0      47.425
2014    9        8    19  28    5.82   425.7    8.0      47.427
2014    9        8    19  34    5.82   425.8    8.0      47.428
2014    9        8    19  40    5.82   426.0    8.0      47.430
2014    9        8    19  46    5.81   426.2    8.0      47.432
2014    9        8    19  52    5.81   426.4    8.0      47.433
2014    9        8    19  57    5.81   426.6    7.9      47.434
2014    9        8    20   3    5.80   426.8    7.9      47.434
2014    9        8    20   9    5.80   427.0    7.9      47.432
2014    9        8    20  15    5.80   427.2    7.9      47.430
2014    9        8    20  21    5.79   427.4    7.9      47.427
2014    9        8    20  27    5.79   427.6    7.9      47.424
2014    9        8    20  32    5.79   427.8    7.9      47.421
2014    9        8    20  38    5.78   428.0    7.9      47.417
2014    9        8    20  44    5.78   428.1    7.9      47.413
2014    9        8    20  50    5.77   428.3    7.8      47.409
2014    9        8    20  56    5.77   428.5    7.8      47.405
2014    9        8    21   2    5.77   428.7    7.8      47.400
2014    9        8    21   7    5.76   428.9    7.8      47.395
2014    9        8    21  13    5.76   429.0    7.8      47.391
2014    9        8    21  19    5.75   429.2    7.8      47.386
2014    9        8    21  25    5.75   429.4    7.8      47.381
2014    9        8    21  31    5.75   429.6    7.8      47.377
2014    9        8    21  37    5.74   429.7    7.8      47.372
2014    9        8    21  42    5.74   429.9    7.7      47.368
2014    9        8    21  48    5.73   430.1    7.7      47.364
2014    9        8    21  54    5.73   430.2    7.7      47.360
2014    9        8    22   0    5.73   430.4    7.7      47.356
2014    9        8    22   6    5.72   430.6    7.7      47.352
2014    9        8    22  11    5.72   430.7    7.7      47.347
2014    9        8    22  17    5.71   430.9    7.7      47.343
2014    9        8    22  23    5.71   431.1    7.7      47.338
2014    9        8    22  29    5.71   431.3    7.7      47.333
2014    9        8    22  35    5.70   431.4    7.6      47.327
2014    9        8    22  41    5.70   431.6    7.6      47.321
2014    9        8    22  46    5.69   431.8    7.6      47.314
2014    9        8    22  52    5.69   431.9    7.6      47.307
2014    9        8    22  58    5.68   432.1    7.6      47.299
2014    9        8    23   4    5.68   432.3    7.6      47.290
2014    9        8    23  10    5.67   432.4    7.6      47.281
2014    9        8    23  16    5.67   432.6    7.6      47.271
2014    9        8    23  21    5.67   432.8    7.6      47.260
2014    9        8    23  27    5.66   432.9    7.5      47.249
2014    9        8    23  33    5.66   433.1    7.5      47.237
2014    9        8    23  39    5.65   433.2    7.5      47.224
2014    9        8    23  45    5.65   433.4    7.5      47.212
2014    9        8    23  51    5.64   433.5    7.5      47.199
2014    9        8    23  56    5.64   433.7    7.5      47.186
2014    9        9     0   2    5.63   433.8    7.5      47.172
2014    9        9     0   8    5.63   434.0    7.5      47.159
2014    9        9     0  14    5.62   434.1    7.5      47.147
2014    9        9     0  20    5.62   434.3    7.4      47.135
2014    9        9     0  26    5.61   434.4    7.4      47.123
2014    9        9     0  31    5.61   434.6    7.4      47.111
2014    9        9     0  37    5.61   434.7    7.4      47.098
2014    9        9     0  43    5.60   434.9    7.4      47.085
2014    9        9     0  49    5.60   435.0    7.4      47.071
2014    9        9     0  55    5.59   435.1    7.4      47.056
2014    9        9     1   1    5.58   435.3    7.4      47.041
2014    9        9     1   6    5.58   435.4    7.4      47.025
2014    9        9     1  12    5.57   435.5    7.4      47.010
2014    9        9     1  18    5.57   435.6    7.3      46.995
2014    9        9     1  24    5.56   435.7    7.3      46.980
2014    9        9     1  30    5.56   435.8    7.3      46.965
2014    9        9     1  36    5.55   435.9    7.3      46.950
2014    9        9     1  41    5.55   436.0    7.3      46.935
2014    9        9     1  47    5.55   436.1    7.3      46.920
2014    9        9     1  53    5.54   436.2    7.3      46.905
2014    9        9     1  59    5.54   436.3    7.3      46.890
2014    9        9     2   5    5.53   436.4    7.3      46.876
2014    9        9     2  11    5.53   436.5    7.3      46.862
2014    9        9     2  16    5.52   436.6    7.3      46.849
2014    9        9     2  22    5.52   436.8    7.2      46.837
2014    9        9     2  28    5.51   436.9    7.2      46.824
2014    9        9     2  34    5.51   437.0    7.2      46.812
2014    9        9     2  40    5.50   437.1    7.2      46.800
2014    9        9     2  46    5.50   437.2    7.2      46.786
2014    9        9     2  51    5.49   437.4    7.2      46.772
2014    9        9     2  57    5.49   437.5    7.2      46.756
2014    9        9     3   3    5.49   437.6    7.2      46.739
2014    9        9     3   9    5.48   437.7    7.2      46.722
2014    9        9     3  15    5.48   437.8    7.2      46.703
2014    9        9     3  21    5.47   437.9    7.2      46.685
2014    9        9     3  26    5.47   438.0    7.1      46.666
2014    9        9     3  32    5.46   438.1    7.1      46.647
2014    9        9     3  38    5.46   438.2    7.1      46.627
2014    9        9     3  44    5.45   438.4    7.1      46.607
2014    9        9     3  50    5.45   438.5    7.1      46.587
2014    9        9     3  56    5.44   438.6    7.1      46.566
2014    9        9     4   1    5.44   438.7    7.1      46.545
2014    9        9     4   7    5.43   438.8    7.1      46.524
2014    9        9     4  13    5.43   438.9    7.1      46.502
2014    9        9     4  19    5.42   439.0    7.1      46.480
2014    9        9     4  25    5.42   439.1    7.1      46.457
2014    9        9     4  30    5.41   439.1    7.0      46.435
2014    9        9     4  36    5.41   439.2    7.0      46.412
2014    9        9     4  42    5.41   439.3    7.0      46.389
2014    9        9     4  48    5.40   439.4    7.0      46.366
2014    9        9     4  54    5.40   439.5    7.0      46.343
2014    9        9     5   0    5.39   439.6    7.0      46.321
2014    9        9     5   5    5.39   439.7    7.0      46.298
2014    9        9     5  11    5.38   439.8    7.0      46.276
2014    9        9     5  17    5.38   439.9    7.0      46.253
2014    9        9     5  23    5.37   440.0    7.0      46.231
2014    9        9     5  29    5.37   440.0    7.0      46.209
2014    9        9     5  35    5.36   440.1    7.0      46.188
2014    9        9     5  40    5.36   440.2    6.9      46.166
2014    9        9     5  46    5.35   440.3    6.9      46.144
2014    9        9     5  52    5.35   440.4    6.9      46.121
2014    9        9     5  58    5.34   440.5    6.9      46.099
2014    9        9     6   4    5.34   440.6    6.9      46.077
2014    9        9     6  10    5.34   440.7    6.9      46.054
2014    9        9     6  15    5.33   440.7    6.9      46.032
2014    9        9     6  21    5.33   440.8    6.9      46.009
2014    9        9     6  27    5.32   440.9    6.9      45.986
2014    9        9     6  33    5.32   441.0    6.9      45.962
2014    9        9     6  39    5.31   441.0    6.9      45.939
2014    9        9     6  45    5.31   441.1    6.9      45.916
2014    9        9     6  50    5.30   441.2    6.9      45.893
2014    9        9     6  56    5.30   441.2    6.8      45.870
2014    9        9     7   2    5.30   441.3    6.8      45.847
2014    9        9     7   8    5.29   441.3    6.8      45.825
2014    9        9     7  14    5.29   441.4    6.8      45.803
2014    9        9     7  20    5.28   441.4    6.8      45.782
2014    9        9     7  25    5.28   441.5    6.8      45.761
2014    9        9     7  31    5.27   441.5    6.8      45.741
2014    9        9     7  37    5.27   441.6    6.8      45.722
2014    9        9     7  43    5.27   441.6    6.8      45.703
2014    9        9     7  49    5.26   441.6    6.8      45.686
2014    9        9     7  55    5.26   441.7    6.8      45.669
2014    9        9     8   0    5.25   441.7    6.8      45.653
2014    9        9     8   6    5.25   441.7    6.8      45.638
2014    9        9     8  12    5.25   441.8    6.8      45.625
2014    9        9     8  18    5.24   441.8    6.8      45.612
2014    9        9     8  24    5.24   441.8    6.8      45.599
2014    9        9     8  30    5.23   441.9    6.8      45.587
2014    9        9     8  35    5.23   441.9    6.8      45.575
2014    9        9     8  41    5.23   441.9    6.8      45.563
2014    9        9     8  47    5.22   442.0    6.8      45.552
2014    9        9     8  53    5.22   442.0    6.8      45.540
2014    9        9     8  59    5.22   442.0    6.7      45.528
2014    9        9     9   5    5.21   442.1    6.7      45.515
2014    9        9     9  10    5.21   442.1    6.7      45.502
2014    9        9     9  16    5.20   442.1    6.7      45.489
2014    9        9     9  22    5.20   442.1    6.7      45.476
2014    9        9     9  28    5.20   442.2    6.7      45.462
2014    9        9     9  34    5.19   442.2    6.7      45.448
2014    9        9     9  40    5.19   442.2    6.7      45.433
2014    9        9     9  45    5.19   442.2    6.7      45.419
2014    9        9     9  51    5.18   442.3    6.7      45.404
2014    9        9     9  57    5.18   442.3    6.7      45.388
2014    9        9    10   3    5.18   442.3    6.7      45.373
2014    9        9    10   9    5.17   442.4    6.7      45.357
2014    9        9    10  14    5.17   442.4    6.7      45.341
2014    9        9    10  20    5.17   442.4    6.7      45.325
2014    9        9    10  26    5.16   442.4    6.7      45.308
2014    9        9    10  32    5.16   442.5    6.7      45.291
2014    9        9    10  38    5.16   442.5    6.7      45.274
2014    9        9    10  44    5.15   442.5    6.7      45.257
2014    9        9    10  49    5.15   442.5    6.7      45.240
2014    9        9    10  55    5.14   442.6    6.7      45.222
2014    9        9    11   1    5.14   442.6    6.7      45.205
2014    9        9    11   7    5.14   442.6    6.7      45.187
2014    9        9    11  13    5.13   442.6    6.7      45.169
2014    9        9    11  19    5.13   442.6    6.7      45.151
2014    9        9    11  24    5.13   442.7    6.7      45.132
2014    9        9    11  30    5.12   442.7    6.6      45.113
2014    9        9    11  36    5.12   442.7    6.6      45.094
2014    9        9    11  42    5.12   442.7    6.6      45.075
2014    9        9    11  48    5.11   442.7    6.6      45.056
2014    9        9    11  54    5.11   442.8    6.6      45.037
2014    9        9    11  59    5.11   442.8    6.6      45.017
2014    9        9    12   5    5.10   442.8    6.6      44.998
2014    9        9    12  11    5.10   442.8    6.6      44.978
2014    9        9    12  17    5.10   442.8    6.6      44.958
2014    9        9    12  23    5.09   442.9    6.6      44.938
2014    9        9    12  29    5.09   442.9    6.6      44.917
2014    9        9    12  34    5.09   442.9    6.6      44.897
2014    9        9    12  40    5.08   442.9    6.6      44.877
2014    9        9    12  46    5.08   442.9    6.6      44.856
2014    9        9    12  52    5.08   443.0    6.6      44.836
2014    9        9    12  58    5.07   443.0    6.6      44.815
2014    9        9    13   4    5.07   443.0    6.6      44.795
2014    9        9    13   9    5.07   443.0    6.6      44.774
2014    9        9    13  15    5.06   443.0    6.6      44.754
2014    9        9    13  21    5.06   443.0    6.6      44.733
2014    9        9    13  27    5.06   443.0    6.6      44.712
2014    9        9    13  33    5.05   443.1    6.6      44.691
2014    9        9    13  39    5.05   443.1    6.6      44.671
2014    9        9    13  44    5.05   443.1    6.6      44.650
2014    9        9    13  50    5.04   443.1    6.6      44.630
2014    9        9    13  56    5.04   443.1    6.5      44.609
2014    9        9    14   2    5.04   443.1    6.5      44.589
2014    9        9    14   8    5.03   443.1    6.5      44.568
2014    9        9    14  14    5.03   443.1    6.5      44.548
2014    9        9    14  19    5.03   443.1    6.5      44.528
2014    9        9    14  25    5.02   443.1    6.5      44.509
2014    9        9    14  31    5.02   443.1    6.5      44.489
2014    9        9    14  37    5.02   443.1    6.5      44.470
2014    9        9    14  43    5.01   443.1    6.5      44.450
2014    9        9    14  49    5.01   443.1    6.5      44.432
2014    9        9    14  54    5.01   443.1    6.5      44.413
2014    9        9    15   0    5.00   443.1    6.5      44.395
2014    9        9    15   6    5.00   443.1    6.5      44.377
2014    9        9    15  12    5.00   443.1    6.5      44.359
2014    9        9    15  18    5.00   443.1    6.5      44.342
2014    9        9    15  24    4.99   443.1    6.5      44.325
2014    9        9    15  29    4.99   443.1    6.5      44.308
2014    9        9    15  35    4.99   443.1    6.5      44.292
2014    9        9    15  41    4.98   443.1    6.5      44.276
2014    9        9    15  47    4.98   443.1    6.5      44.260
2014    9        9    15  53    4.98   443.0    6.5      44.245
2014    9        9    15  59    4.98   443.0    6.5      44.230
2014    9        9    16   4    4.97   443.0    6.5      44.215
2014    9        9    16  10    4.97   443.0    6.5      44.200
2014    9        9    16  16    4.97   443.0    6.5      44.185
2014    9        9    16  22    4.97   443.0    6.5      44.171
2014    9        9    16  28    4.96   443.0    6.5      44.157
2014    9        9    16  33    4.96   442.9    6.5      44.142
2014    9        9    16  39    4.96   442.9    6.5      44.128
2014    9        9    16  45    4.96   442.9    6.5      44.113
2014    9        9    16  51    4.95   442.9    6.5      44.099
2014    9        9    16  57    4.95   442.9    6.5      44.084
2014    9        9    17   3    4.95   442.9    6.5      44.070
2014    9        9    17   8    4.95   442.9    6.5      44.055
2014    9        9    17  14    4.95   442.8    6.5      44.041
2014    9        9    17  20    4.94   442.8    6.5      44.026
2014    9        9    17  26    4.94   442.8    6.5      44.011
2014    9        9    17  32    4.94   442.8    6.5      43.995
2014    9        9    17  38    4.94   442.8    6.5      43.980
2014    9        9    17  43    4.93   442.7    6.5      43.965
2014    9        9    17  49    4.93   442.7    6.5      43.950
2014    9        9    17  55    4.93   442.7    6.5      43.935
2014    9        9    18   1    4.93   442.7    6.4      43.919
2014    9        9    18   7    4.93   442.7    6.4      43.904
2014    9        9    18  13    4.92   442.7    6.4      43.889
2014    9        9    18  18    4.92   442.6    6.4      43.873
2014    9        9    18  24    4.92   442.6    6.4      43.858
2014    9        9    18  30    4.92   442.6    6.4      43.842
2014    9        9    18  36    4.91   442.6    6.4      43.827
2014    9        9    18  42    4.91   442.6    6.4      43.811
2014    9        9    18  48    4.91   442.5    6.4      43.795
2014    9        9    18  53    4.91   442.5    6.4      43.780
2014    9        9    18  59    4.91   442.5    6.4      43.764
2014    9        9    19   5    4.90   442.5    6.4      43.749
2014    9        9    19  11    4.90   442.5    6.4      43.734
2014    9        9    19  17    4.90   442.4    6.4      43.718
2014    9        9    19  23    4.90   442.4    6.4      43.703
2014    9        9    19  28    4.90   442.4    6.4      43.688
2014    9        9    19  34    4.89   442.4    6.4      43.673
2014    9        9    19  40    4.89   442.4    6.4      43.658
2014    9        9    19  46    4.89   442.3    6.4      43.643
2014    9        9    19  52    4.89   442.3    6.4      43.628
2014    9        9    19  58    4.89   442.3    6.4      43.613
2014    9        9    20   3    4.88   442.3    6.4      43.599
2014    9        9    20   9    4.88   442.3    6.4      43.584
2014    9        9    20  15    4.88   442.2    6.4      43.569
2014    9        9    20  21    4.88   442.2    6.4      43.555
2014    9        9    20  27    4.88   442.2    6.4      43.540
2014    9        9    20  33    4.87   442.2    6.4      43.526
2014    9        9    20  38    4.87   442.2    6.4      43.512
2014    9        9    20  44    4.87   442.1    6.4      43.498
2014    9        9    20  50    4.87   442.1    6.4      43.483
2014    9        9    20  56    4.87   442.1    6.4      43.469
2014    9        9    21   2    4.87   442.1    6.4      43.455
2014    9        9    21   8    4.86   442.0    6.4      43.441
2014    9        9    21  13    4.86   442.0    6.4      43.427
2014    9        9    21  19    4.86   442.0    6.4      43.413
2014    9        9    21  25    4.86   442.0    6.4      43.399
2014    9        9    21  31    4.86   441.9    6.4      43.385
2014    9        9    21  37    4.86   441.9    6.4      43.371
2014    9        9    21  43    4.85   441.9    6.4      43.358
2014    9        9    21  48    4.85   441.9    6.4      43.344
2014    9        9    21  54    4.85   441.8    6.4      43.330
2014    9        9    22   0    4.85   441.8    6.4      43.317
2014    9        9    22   6    4.85   441.8    6.4      43.303
2014    9        9    22  12    4.85   441.7    6.4      43.290
2014    9        9    22  18    4.84   441.7    6.4      43.276
2014    9        9    22  23    4.84   441.7    6.4      43.263
2014    9        9    22  29    4.84   441.6    6.4      43.250
2014    9        9    22  35    4.84   441.6    6.4      43.236
2014    9        9    22  41    4.84   441.6    6.4      43.223
2014    9        9    22  47    4.84   441.5    6.4      43.210
2014    9        9    22  52    4.83   441.5    6.4      43.197
2014    9        9    22  58    4.83   441.5    6.4      43.184
2014    9        9    23   4    4.83   441.4    6.4      43.171
2014    9        9    23  10    4.83   441.4    6.4      43.158
2014    9        9    23  16    4.83   441.3    6.4      43.145
2014    9        9    23  22    4.83   441.3    6.4      43.132
2014    9        9    23  27    4.83   441.3    6.4      43.119
2014    9        9    23  33    4.82   441.2    6.4      43.106
2014    9        9    23  39    4.82   441.2    6.4      43.093
2014    9        9    23  45    4.82   441.1    6.4      43.080
2014    9        9    23  51    4.82   441.1    6.4      43.067
2014    9        9    23  57    4.82   441.1    6.4      43.054
2014    9       10     0   2    4.82   441.0    6.4      43.041
2014    9       10     0   8    4.82   441.0    6.4      43.028
2014    9       10     0  14    4.82   440.9    6.4      43.015
2014    9       10     0  20    4.81   440.9    6.4      43.002
2014    9       10     0  26    4.81   440.8    6.4      42.989
2014    9       10     0  32    4.81   440.8    6.4      42.975
2014    9       10     0  37    4.81   440.8    6.4      42.961
2014    9       10     0  43    4.81   440.7    6.4      42.948
2014    9       10     0  49    4.81   440.7    6.4      42.934
2014    9       10     0  55    4.81   440.6    6.4      42.920
2014    9       10     1   1    4.81   440.6    6.4      42.907
2014    9       10     1   7    4.81   440.5    6.4      42.893
2014    9       10     1  12    4.80   440.5    6.4      42.879
2014    9       10     1  18    4.80   440.4    6.4      42.865
2014    9       10     1  24    4.80   440.4    6.4      42.852
2014    9       10     1  30    4.80   440.3    6.4      42.838
2014    9       10     1  36    4.80   440.3    6.4      42.825
2014    9       10     1  42    4.80   440.3    6.4      42.811
2014    9       10     1  47    4.80   440.2    6.4      42.798
2014    9       10     1  53    4.80   440.2    6.4      42.785
2014    9       10     1  59    4.80   440.1    6.4      42.772
2014    9       10     2   5    4.80   440.1    6.4      42.760
2014    9       10     2  11    4.80   440.0    6.4      42.748
2014    9       10     2  17    4.79   440.0    6.4      42.736
2014    9       10     2  22    4.79   439.9    6.4      42.724
2014    9       10     2  28    4.79   439.9    6.4      42.712
2014    9       10     2  34    4.79   439.8    6.4      42.701
2014    9       10     2  40    4.79   439.8    6.4      42.690
2014    9       10     2  46    4.79   439.7    6.4      42.680
2014    9       10     2  52    4.79   439.7    6.4      42.670
2014    9       10     2  57    4.79   439.6    6.4      42.660
2014    9       10     3   3    4.79   439.6    6.4      42.651
2014    9       10     3   9    4.79   439.5    6.4      42.641
2014    9       10     3  15    4.79   439.5    6.4      42.633
2014    9       10     3  21    4.79   439.4    6.4      42.624
2014    9       10     3  27    4.79   439.4    6.4      42.616
2014    9       10     3  32    4.79   439.3    6.4      42.608
2014    9       10     3  38    4.78   439.3    6.4      42.600
2014    9       10     3  44    4.78   439.2    6.4      42.593
2014    9       10     3  50    4.78   439.2    6.4      42.585
2014    9       10     3  56    4.78   439.1    6.4      42.578
2014    9       10     4   2    4.78   439.1    6.4      42.571
2014    9       10     4   7    4.78   439.1    6.4      42.564
2014    9       10     4  13    4.78   439.0    6.4      42.558
2014    9       10     4  19    4.78   439.0    6.4      42.551
2014    9       10     4  25    4.78   438.9    6.4      42.545
2014    9       10     4  31    4.78   438.9    6.4      42.538
2014    9       10     4  37    4.78   438.8    6.4      42.532
2014    9       10     4  42    4.78   438.8    6.4      42.526
2014    9       10     4  48    4.78   438.7    6.4      42.520
2014    9       10     4  54    4.78   438.7    6.4      42.514
2014    9       10     5   0    4.78   438.6    6.4      42.507
2014    9       10     5   6    4.78   438.6    6.4      42.501
2014    9       10     5  12    4.78   438.5    6.4      42.495
2014    9       10     5  17    4.78   438.5    6.4      42.489
2014    9       10     5  23    4.78   438.4    6.4      42.483
2014    9       10     5  29    4.78   438.4    6.4      42.477
2014    9       10     5  35    4.78   438.3    6.4      42.471
2014    9       10     5  41    4.78   438.3    6.4      42.464
2014    9       10     5  46    4.78   438.2    6.4      42.458
2014    9       10     5  52    4.78   438.2    6.4      42.452
2014    9       10     5  58    4.78   438.1    6.4      42.446
2014    9       10     6   4    4.78   438.0    6.4      42.439
2014    9       10     6  10    4.78   438.0    6.5      42.433
2014    9       10     6  16    4.77   437.9    6.5      42.427
2014    9       10     6  21    4.77   437.9    6.5      42.421
2014    9       10     6  27    4.77   437.8    6.5      42.414
2014    9       10     6  33    4.77   437.8    6.5      42.408
2014    9       10     6  39    4.77   437.7    6.5      42.402
2014    9       10     6  45    4.77   437.7    6.5      42.395
2014    9       10     6  51    4.77   437.6    6.5      42.389
2014    9       10     6  56    4.77   437.6    6.5      42.383
2014    9       10     7   2    4.77   437.5    6.5      42.376
2014    9       10     7   8    4.77   437.5    6.5      42.370
2014    9       10     7  14    4.77   437.4    6.5      42.363
2014    9       10     7  20    4.77   437.3    6.5      42.357
2014    9       10     7  26    4.77   437.3    6.5      42.350
2014    9       10     7  31    4.77   437.2    6.5      42.344
2014    9       10     7  37    4.77   437.2    6.5      42.337
2014    9       10     7  43    4.77   437.1    6.5      42.331
2014    9       10     7  49    4.77   437.1    6.5      42.324
2014    9       10     7  55    4.77   437.0    6.5      42.318
2014    9       10     8   1    4.77   437.0    6.5      42.311
2014    9       10     8   6    4.77   436.9    6.5      42.304
2014    9       10     8  12    4.77   436.9    6.5      42.298
2014    9       10     8  18    4.77   436.8    6.5      42.291
2014    9       10     8  24    4.78   436.7    6.5      42.284
2014    9       10     8  30    4.78   436.7    6.5      42.277
2014    9       10     8  36    4.78   436.6    6.5      42.271
2014    9       10     8  41    4.78   436.6    6.5      42.264
2014    9       10     8  47    4.78   436.5    6.5      42.257
2014    9       10     8  53    4.78   436.5    6.5      42.251
2014    9       10     8  59    4.78   436.4    6.5      42.244
2014    9       10     9   5    4.78   436.3    6.5      42.237
2014    9       10     9  11    4.78   436.3    6.5      42.231
2014    9       10     9  16    4.78   436.2    6.5      42.224
2014    9       10     9  22    4.78   436.2    6.5      42.218
2014    9       10     9  28    4.78   436.1    6.5      42.212
2014    9       10     9  34    4.78   436.1    6.5      42.206
2014    9       10     9  40    4.78   436.0    6.5      42.200
2014    9       10     9  46    4.78   435.9    6.5      42.195
2014    9       10     9  51    4.78   435.9    6.5      42.189
2014    9       10     9  57    4.78   435.8    6.5      42.184
2014    9       10    10   3    4.78   435.8    6.5      42.180
2014    9       10    10   9    4.78   435.7    6.5      42.175
2014    9       10    10  15    4.78   435.7    6.5      42.171
2014    9       10    10  21    4.78   435.6    6.5      42.168
2014    9       10    10  26    4.78   435.6    6.5      42.164
2014    9       10    10  32    4.78   435.5    6.5      42.161
2014    9       10    10  38    4.78   435.4    6.6      42.159
2014    9       10    10  44    4.79   435.4    6.6      42.157
2014    9       10    10  50    4.79   435.3    6.6      42.155
2014    9       10    10  56    4.79   435.3    6.6      42.154
2014    9       10    11   1    4.79   435.2    6.6      42.153
2014    9       10    11   7    4.79   435.2    6.6      42.153
2014    9       10    11  13    4.79   435.1    6.6      42.153
2014    9       10    11  19    4.79   435.1    6.6      42.153
2014    9       10    11  25    4.79   435.0    6.6      42.154
2014    9       10    11  31    4.79   435.0    6.6      42.155
2014    9       10    11  36    4.79   434.9    6.6      42.156
2014    9       10    11  42    4.79   434.9    6.6      42.158
2014    9       10    11  48    4.80   434.8    6.6      42.160
2014    9       10    11  54    4.80   434.8    6.6      42.163
2014    9       10    12   0    4.80   434.7    6.6      42.166
2014    9       10    12   6    4.80   434.7    6.6      42.170
2014    9       10    12  11    4.80   434.6    6.6      42.174
2014    9       10    12  17    4.80   434.6    6.6      42.178
2014    9       10    12  23    4.80   434.6    6.6      42.182
2014    9       10    12  29    4.80   434.5    6.6      42.187
2014    9       10    12  35    4.80   434.5    6.6      42.191
2014    9       10    12  40    4.80   434.4    6.6      42.196
2014    9       10    12  46    4.81   434.4    6.6      42.201
2014    9       10    12  52    4.81   434.3    6.6      42.206
2014    9       10    12  58    4.81   434.3    6.6      42.212
2014    9       10    13   4    4.81   434.3    6.7      42.217
2014    9       10    13  10    4.81   434.2    6.7      42.222
2014    9       10    13  15    4.81   434.2    6.7      42.228
2014    9       10    13  21    4.81   434.1    6.7      42.234
2014    9       10    13  27    4.81   434.1    6.7      42.239
2014    9       10    13  33    4.82   434.0    6.7      42.245
2014    9       10    13  39    4.82   434.0    6.7      42.251
2014    9       10    13  45    4.82   434.0    6.7      42.258
2014    9       10    13  50    4.82   433.9    6.7      42.264
2014    9       10    13  56    4.82   433.9    6.7      42.270
2014    9       10    14   2    4.82   433.8    6.7      42.277
2014    9       10    14   8    4.82   433.8    6.7      42.284
2014    9       10    14  14    4.82   433.8    6.7      42.291
2014    9       10    14  20    4.83   433.7    6.7      42.298
2014    9       10    14  25    4.83   433.7    6.7      42.305
2014    9       10    14  31    4.83   433.6    6.7      42.313
2014    9       10    14  37    4.83   433.6    6.7      42.320
2014    9       10    14  43    4.83   433.6    6.7      42.328
2014    9       10    14  49    4.83   433.5    6.7      42.336
2014    9       10    14  55    4.83   433.5    6.7      42.344
2014    9       10    15   0    4.84   433.5    6.7      42.352
2014    9       10    15   6    4.84   433.4    6.7      42.360
2014    9       10    15  12    4.84   433.4    6.7      42.369
2014    9       10    15  18    4.84   433.4    6.7      42.377
2014    9       10    15  24    4.84   433.3    6.7      42.386
2014    9       10    15  30    4.84   433.3    6.8      42.395
2014    9       10    15  35    4.84   433.3    6.8      42.403
2014    9       10    15  41    4.85   433.3    6.8      42.412
2014    9       10    15  47    4.85   433.2    6.8      42.421
2014    9       10    15  53    4.85   433.2    6.8      42.430
2014    9       10    15  59    4.85   433.2    6.8      42.439
2014    9       10    16   5    4.85   433.1    6.8      42.448
2014    9       10    16  10    4.85   433.1    6.8      42.458
2014    9       10    16  16    4.85   433.1    6.8      42.467
2014    9       10    16  22    4.86   433.1    6.8      42.476
2014    9       10    16  28    4.86   433.0    6.8      42.485
2014    9       10    16  34    4.86   433.0    6.8      42.495
2014    9       10    16  40    4.86   433.0    6.8      42.504
2014    9       10    16  45    4.86   432.9    6.8      42.514
2014    9       10    16  51    4.86   432.9    6.8      42.523
2014    9       10    16  57    4.87   432.9    6.8      42.532
2014    9       10    17   3    4.87   432.9    6.8      42.542
2014    9       10    17   9    4.87   432.8    6.8      42.552
2014    9       10    17  15    4.87   432.8    6.8      42.562
2014    9       10    17  20    4.87   432.8    6.8      42.572
2014    9       10    17  26    4.87   432.8    6.8      42.583
2014    9       10    17  32    4.88   432.7    6.8      42.594
2014    9       10    17  38    4.88   432.7    6.8      42.606
2014    9       10    17  44    4.88   432.7    6.8      42.618
2014    9       10    17  50    4.88   432.7    6.9      42.630
2014    9       10    17  55    4.88   432.7    6.9      42.644
2014    9       10    18   1    4.89   432.6    6.9      42.657
2014    9       10    18   7    4.89   432.6    6.9      42.671
2014    9       10    18  13    4.89   432.6    6.9      42.685
2014    9       10    18  19    4.89   432.6    6.9      42.699
2014    9       10    18  25    4.89   432.6    6.9      42.713
2014    9       10    18  30    4.90   432.6    6.9      42.728
2014    9       10    18  36    4.90   432.6    6.9      42.743
2014    9       10    18  42    4.90   432.6    6.9      42.758
2014    9       10    18  48    4.90   432.6    6.9      42.773
2014    9       10    18  54    4.90   432.5    6.9      42.789
2014    9       10    19   0    4.91   432.5    6.9      42.804
2014    9       10    19   5    4.91   432.5    6.9      42.820
2014    9       10    19  11    4.91   432.5    6.9      42.836
2014    9       10    19  17    4.91   432.5    6.9      42.853
2014    9       10    19  23    4.91   432.5    6.9      42.869
2014    9       10    19  29    4.92   432.5    6.9      42.886
2014    9       10    19  34    4.92   432.5    6.9      42.903
2014    9       10    19  40    4.92   432.5    6.9      42.919
2014    9       10    19  46    4.92   432.5    6.9      42.936
2014    9       10    19  52    4.92   432.5    6.9      42.953
2014    9       10    19  58    4.92   432.5    6.9      42.970
2014    9       10    20   4    4.93   432.6    6.9      42.986
2014    9       10    20   9    4.93   432.6    7.0      43.003
2014    9       10    20  15    4.93   432.6    7.0      43.019
2014    9       10    20  21    4.93   432.6    7.0      43.036
2014    9       10    20  27    4.93   432.6    7.0      43.052
2014    9       10    20  33    4.94   432.6    7.0      43.068
2014    9       10    20  39    4.94   432.6    7.0      43.084
2014    9       10    20  44    4.94   432.6    7.0      43.100
2014    9       10    20  50    4.94   432.6    7.0      43.115
2014    9       10    20  56    4.94   432.6    7.0      43.131
2014    9       10    21   2    4.95   432.6    7.0      43.147
2014    9       10    21   8    4.95   432.6    7.0      43.162
2014    9       10    21  14    4.95   432.6    7.0      43.178
2014    9       10    21  19    4.95   432.6    7.0      43.193
2014    9       10    21  25    4.95   432.6    7.0      43.209
2014    9       10    21  31    4.96   432.6    7.0      43.225
2014    9       10    21  37    4.96   432.6    7.0      43.241
2014    9       10    21  43    4.96   432.6    7.0      43.257
2014    9       10    21  49    4.96   432.6    7.0      43.273
2014    9       10    21  54    4.96   432.6    7.0      43.290
2014    9       10    22   0    4.97   432.7    7.0      43.306
2014    9       10    22   6    4.97   432.7    7.0      43.324
2014    9       10    22  12    4.97   432.7    7.0      43.341
2014    9       10    22  18    4.97   432.7    7.0      43.358
2014    9       10    22  24    4.97   432.7    7.0      43.376
2014    9       10    22  29    4.98   432.7    7.0      43.395
2014    9       10    22  35    4.98   432.7    7.0      43.413
2014    9       10    22  41    4.98   432.7    7.0      43.432
2014    9       10    22  47    4.98   432.7    7.0      43.452
2014    9       10    22  53    4.98   432.7    7.1      43.472
2014    9       10    22  59    4.99   432.8    7.1      43.492
2014    9       10    23   4    4.99   432.8    7.1      43.513
2014    9       10    23  10    4.99   432.8    7.1      43.534
2014    9       10    23  16    4.99   432.8    7.1      43.555
2014    9       10    23  22    4.99   432.8    7.1      43.578
2014    9       10    23  28    5.00   432.8    7.1      43.601
2014    9       10    23  34    5.00   432.8    7.1      43.625
2014    9       10    23  39    5.00   432.9    7.1      43.650
2014    9       10    23  45    5.00   432.9    7.1      43.676
2014    9       10    23  51    5.00   432.9    7.1      43.702
2014    9       10    23  57    5.01   432.9    7.1      43.729
2014    9       11     0   3    5.01   433.0    7.1      43.755
2014    9       11     0   9    5.01   433.0    7.1      43.782
2014    9       11     0  14    5.01   433.0    7.1      43.807
2014    9       11     0  20    5.02   433.0    7.1      43.834
2014    9       11     0  26    5.02   433.1    7.1      43.859
2014    9       11     0  32    5.02   433.1    7.1      43.885
2014    9       11     0  38    5.02   433.1    7.1      43.911
2014    9       11     0  44    5.02   433.1    7.1      43.938
2014    9       11     0  49    5.03   433.2    7.1      43.964
2014    9       11     0  55    5.03   433.2    7.1      43.991
2014    9       11     1   1    5.03   433.2    7.1      44.017
2014    9       11     1   7    5.03   433.3    7.1      44.044
2014    9       11     1  13    5.03   433.3    7.1      44.071
2014    9       11     1  19    5.04   433.4    7.2      44.098
2014    9       11     1  24    5.04   433.4    7.2      44.124
2014    9       11     1  30    5.04   433.4    7.2      44.151
2014    9       11     1  36    5.04   433.5    7.2      44.177
2014    9       11     1  42    5.04   433.5    7.2      44.203
2014    9       11     1  48    5.05   433.6    7.2      44.229
2014    9       11     1  53    5.05   433.6    7.2      44.255
2014    9       11     1  59    5.05   433.6    7.2      44.281
2014    9       11     2   5    5.05   433.7    7.2      44.307
2014    9       11     2  11    5.05   433.7    7.2      44.332
2014    9       11     2  17    5.06   433.8    7.2      44.357
2014    9       11     2  23    5.06   433.8    7.2      44.382
2014    9       11     2  28    5.06   433.9    7.2      44.407
2014    9       11     2  34    5.06   433.9    7.2      44.431
2014    9       11     2  40    5.06   433.9    7.2      44.455
2014    9       11     2  46    5.06   434.0    7.2      44.479
2014    9       11     2  52    5.07   434.0    7.2      44.503
2014    9       11     2  58    5.07   434.1    7.2      44.526
2014    9       11     3   3    5.07   434.1    7.2      44.550
2014    9       11     3   9    5.07   434.2    7.2      44.573
2014    9       11     3  15    5.07   434.2    7.2      44.595
2014    9       11     3  21    5.08   434.3    7.2      44.618
2014    9       11     3  27    5.08   434.3    7.2      44.641
2014    9       11     3  33    5.08   434.4    7.2      44.663
2014    9       11     3  38    5.08   434.4    7.2      44.685
2014    9       11     3  44    5.08   434.5    7.2      44.707
2014    9       11     3  50    5.09   434.5    7.2      44.729
2014    9       11     3  56    5.09   434.6    7.2      44.751
2014    9       11     4   2    5.09   434.6    7.2      44.773
2014    9       11     4   8    5.09   434.7    7.2      44.795
2014    9       11     4  13    5.09   434.7    7.2      44.817
2014    9       11     4  19    5.10   434.8    7.2      44.838
2014    9       11     4  25    5.10   434.8    7.2      44.860
2014    9       11     4  31    5.10   434.9    7.2      44.882
2014    9       11     4  37    5.10   434.9    7.2      44.904
2014    9       11     4  43    5.10   435.0    7.2      44.926
2014    9       11     4  48    5.10   435.0    7.2      44.948
2014    9       11     4  54    5.11   435.1    7.2      44.970
2014    9       11     5   0    5.11   435.1    7.2      44.993
2014    9       11     5   6    5.11   435.2    7.2      45.017
2014    9       11     5  12    5.11   435.3    7.2      45.041
2014    9       11     5  18    5.11   435.3    7.2      45.066
2014    9       11     5  23    5.12   435.4    7.3      45.091
2014    9       11     5  29    5.12   435.4    7.3      45.116
2014    9       11     5  35    5.12   435.5    7.3      45.142
2014    9       11     5  41    5.12   435.5    7.3      45.167
2014    9       11     5  47    5.12   435.6    7.3      45.193
2014    9       11     5  53    5.12   435.7    7.3      45.218
2014    9       11     5  58    5.13   435.7    7.3      45.244
2014    9       11     6   4    5.13   435.8    7.3      45.270
2014    9       11     6  10    5.13   435.8    7.3      45.295
2014    9       11     6  16    5.13   435.9    7.3      45.321
2014    9       11     6  22    5.13   435.9    7.3      45.347
2014    9       11     6  28    5.13   436.0    7.3      45.373
2014    9       11     6  33    5.14   436.0    7.3      45.399
2014    9       11     6  39    5.14   436.1    7.3      45.425
2014    9       11     6  45    5.14   436.2    7.3      45.451
2014    9       11     6  51    5.14   436.2    7.3      45.478
2014    9       11     6  57    5.14   436.3    7.3      45.505
2014    9       11     7   3    5.14   436.3    7.3      45.533
2014    9       11     7   8    5.15   436.4    7.3      45.561
2014    9       11     7  14    5.15   436.5    7.3      45.590
2014    9       11     7  20    5.15   436.5    7.3      45.619
2014    9       11     7  26    5.15   436.6    7.3      45.647
2014    9       11     7  32    5.15   436.7    7.3      45.675
2014    9       11     7  38    5.15   436.7    7.3      45.703
2014    9       11     7  43    5.15   436.8    7.3      45.731
2014    9       11     7  49    5.16   436.9    7.3      45.758
2014    9       11     7  55    5.16   436.9    7.3      45.784
2014    9       11     8   1    5.16   437.0    7.3      45.810
2014    9       11     8   7    5.16   437.1    7.3      45.836
2014    9       11     8  12    5.16   437.1    7.3      45.862
2014    9       11     8  18    5.16   437.2    7.3      45.887
2014    9       11     8  24    5.16   437.3    7.3      45.911
2014    9       11     8  30    5.17   437.3    7.3      45.935
2014    9       11     8  36    5.17   437.4    7.3      45.959
2014    9       11     8  42    5.17   437.5    7.3      45.983
2014    9       11     8  47    5.17   437.5    7.3      46.007
2014    9       11     8  53    5.17   437.6    7.3      46.030
2014    9       11     8  59    5.17   437.7    7.3      46.054
2014    9       11     9   5    5.17   437.8    7.3      46.077
2014    9       11     9  11    5.17   437.8    7.3      46.101
2014    9       11     9  17    5.18   437.9    7.3      46.124
2014    9       11     9  22    5.18   438.0    7.3      46.147
2014    9       11     9  28    5.18   438.0    7.3      46.170
2014    9       11     9  34    5.18   438.1    7.3      46.193
2014    9       11     9  40    5.18   438.2    7.3      46.215
2014    9       11     9  46    5.18   438.2    7.3      46.238
2014    9       11     9  52    5.18   438.3    7.3      46.260
2014    9       11     9  57    5.18   438.4    7.3      46.282
2014    9       11    10   3    5.19   438.5    7.3      46.304
2014    9       11    10   9    5.19   438.5    7.3      46.326
2014    9       11    10  15    5.19   438.6    7.3      46.348
2014    9       11    10  21    5.19   438.7    7.3      46.370
2014    9       11    10  27    5.19   438.7    7.3      46.392
2014    9       11    10  32    5.19   438.8    7.3      46.413
2014    9       11    10  38    5.19   438.9    7.3      46.435
2014    9       11    10  44    5.20   439.0    7.3      46.457
2014    9       11    10  50    5.20   439.0    7.3      46.479
2014    9       11    10  56    5.20   439.1    7.3      46.501
2014    9       11    11   2    5.20   439.2    7.3      46.523
2014    9       11    11   7    5.20   439.2    7.3      46.546
2014    9       11    11  13    5.20   439.3    7.3      46.569
2014    9       11    11  19    5.21   439.4    7.3      46.591
2014    9       11    11  25    5.21   439.5    7.3      46.615
2014    9       11    11  31    5.21   439.6    7.3      46.639
2014    9       11    11  37    5.21   439.6    7.3      46.664
2014    9       11    11  42    5.21   439.7    7.3      46.689
2014    9       11    11  48    5.21   439.8    7.3      46.715
2014    9       11    11  54    5.22   439.9    7.3      46.741
2014    9       11    12   0    5.22   440.0    7.3      46.769
2014    9       11    12   6    5.22   440.0    7.3      46.799
2014    9       11    12  12    5.22   440.1    7.3      46.829
2014    9       11    12  17    5.22   440.2    7.3      46.861
2014    9       11    12  23    5.22   440.3    7.3      46.894
2014    9       11    12  29    5.23   440.4    7.3      46.929
2014    9       11    12  35    5.23   440.5    7.4      46.964
2014    9       11    12  41    5.23   440.6    7.4      46.999
2014    9       11    12  47    5.23   440.7    7.4      47.034
2014    9       11    12  52    5.23   440.8    7.4      47.068
2014    9       11    12  58    5.23   440.9    7.4      47.101
2014    9       11    13   4    5.23   441.0    7.4      47.133
2014    9       11    13  10    5.23   441.1    7.4      47.165
2014    9       11    13  16    5.24   441.2    7.4      47.196
2014    9       11    13  22    5.24   441.3    7.4      47.227
2014    9       11    13  27    5.24   441.4    7.4      47.256
2014    9       11    13  33    5.24   441.5    7.4      47.285
2014    9       11    13  39    5.24   441.6    7.4      47.313
2014    9       11    13  45    5.24   441.8    7.4      47.341
2014    9       11    13  51    5.24   441.9    7.4      47.368
2014    9       11    13  57    5.24   442.0    7.4      47.394
2014    9       11    14   2    5.24   442.1    7.4      47.420
2014    9       11    14   8    5.24   442.2    7.4      47.445
2014    9       11    14  14    5.25   442.3    7.4      47.470
2014    9       11    14  20    5.25   442.4    7.4      47.494
2014    9       11    14  26    5.25   442.5    7.4      47.518
2014    9       11    14  31    5.25   442.6    7.4      47.542
2014    9       11    14  37    5.25   442.7    7.4      47.564
2014    9       11    14  43    5.25   442.8    7.4      47.587
2014    9       11    14  49    5.25   442.9    7.4      47.609
2014    9       11    14  55    5.25   443.0    7.3      47.631
2014    9       11    15   1    5.25   443.1    7.3      47.652
2014    9       11    15   6    5.25   443.2    7.3      47.673
2014    9       11    15  12    5.25   443.3    7.3      47.693
2014    9       11    15  18    5.25   443.4    7.3      47.713
2014    9       11    15  24    5.26   443.5    7.3      47.733
2014    9       11    15  30    5.26   443.6    7.3      47.752
2014    9       11    15  36    5.26   443.7    7.3      47.771
2014    9       11    15  41    5.26   443.8    7.3      47.790
2014    9       11    15  47    5.26   443.9    7.3      47.808
2014    9       11    15  53    5.26   444.0    7.3      47.826
2014    9       11    15  59    5.26   444.1    7.3      47.844
2014    9       11    16   5    5.26   444.2    7.3      47.861
2014    9       11    16  11    5.26   444.3    7.3      47.879
2014    9       11    16  16    5.26   444.4    7.3      47.895
2014    9       11    16  22    5.26   444.5    7.3      47.912
2014    9       11    16  28    5.26   444.6    7.3      47.929
2014    9       11    16  34    5.26   444.6    7.3      47.945
2014    9       11    16  40    5.26   444.7    7.3      47.961
2014    9       11    16  46    5.26   444.8    7.3      47.977
2014    9       11    16  51    5.27   444.9    7.3      47.992
2014    9       11    16  57    5.27   445.0    7.3      48.008
2014    9       11    17   3    5.27   445.1    7.3      48.023
2014    9       11    17   9    5.27   445.2    7.3      48.039
2014    9       11    17  15    5.27   445.3    7.3      48.054
2014    9       11    17  21    5.27   445.4    7.3      48.069
2014    9       11    17  26    5.27   445.5    7.3      48.084
2014    9       11    17  32    5.27   445.6    7.3      48.099
2014    9       11    17  38    5.27   445.7    7.3      48.114
2014    9       11    17  44    5.27   445.8    7.3      48.129
2014    9       11    17  50    5.27   445.9    7.3      48.144
2014    9       11    17  56    5.27   446.0    7.3      48.158
2014    9       11    18   1    5.27   446.1    7.3      48.174
2014    9       11    18   7    5.28   446.2    7.3      48.189
2014    9       11    18  13    5.28   446.3    7.3      48.205
2014    9       11    18  19    5.28   446.4    7.3      48.221
2014    9       11    18  25    5.28   446.5    7.3      48.237
2014    9       11    18  31    5.28   446.6    7.3      48.253
2014    9       11    18  36    5.28   446.7    7.3      48.270
2014    9       11    18  42    5.28   446.8    7.3      48.288
2014    9       11    18  48    5.28   446.9    7.3      48.307
2014    9       11    18  54    5.28   447.0    7.3      48.327
2014    9       11    19   0    5.28   447.1    7.3      48.349
2014    9       11    19   6    5.29   447.2    7.3      48.372
2014    9       11    19  11    5.29   447.3    7.3      48.396
2014    9       11    19  17    5.29   447.4    7.3      48.422
2014    9       11    19  23    5.29   447.5    7.3      48.450
2014    9       11    19  29    5.29   447.6    7.3      48.478
2014    9       11    19  35    5.29   447.7    7.3      48.508
2014    9       11    19  41    5.29   447.8    7.3      48.538
2014    9       11    19  46    5.29   448.0    7.3      48.570
2014    9       11    19  52    5.30   448.1    7.3      48.602
2014    9       11    19  58    5.30   448.2    7.3      48.633
2014    9       11    20   4    5.30   448.3    7.3      48.665
2014    9       11    20  10    5.30   448.5    7.3      48.696
2014    9       11    20  15    5.30   448.6    7.3      48.726
2014    9       11    20  21    5.30   448.7    7.3      48.755
2014    9       11    20  27    5.30   448.8    7.3      48.784
2014    9       11    20  33    5.30   449.0    7.3      48.812
2014    9       11    20  39    5.30   449.1    7.3      48.838
2014    9       11    20  45    5.30   449.2    7.3      48.864
2014    9       11    20  50    5.30   449.4    7.3      48.889
2014    9       11    20  56    5.30   449.5    7.3      48.914
2014    9       11    21   2    5.30   449.6    7.3      48.938
2014    9       11    21   8    5.31   449.7    7.3      48.961
2014    9       11    21  14    5.31   449.9    7.3      48.983
2014    9       11    21  20    5.31   450.0    7.3      49.005
2014    9       11    21  25    5.31   450.1    7.3      49.026
2014    9       11    21  31    5.31   450.3    7.3      49.047
2014    9       11    21  37    5.31   450.4    7.3      49.067
2014    9       11    21  43    5.31   450.5    7.3      49.087
2014    9       11    21  49    5.31   450.6    7.3      49.106
2014    9       11    21  55    5.31   450.8    7.3      49.125
2014    9       11    22   0    5.31   450.9    7.3      49.144
2014    9       11    22   6    5.31   451.0    7.3      49.162
2014    9       11    22  12    5.31   451.1    7.3      49.180
2014    9       11    22  18    5.31   451.3    7.3      49.197
2014    9       11    22  24    5.31   451.4    7.3      49.214
2014    9       11    22  30    5.31   451.5    7.2      49.231
2014    9       11    22  35    5.31   451.7    7.2      49.248
2014    9       11    22  41    5.31   451.8    7.2      49.264
2014    9       11    22  47    5.31   451.9    7.2      49.280
2014    9       11    22  53    5.31   452.0    7.2      49.296
2014    9       11    22  59    5.31   452.2    7.2      49.312
2014    9       11    23   5    5.31   452.3    7.2      49.327
2014    9       11    23  10    5.32   452.4    7.2      49.343
2014    9       11    23  16    5.32   452.5    7.2      49.358
2014    9       11    23  22    5.32   452.7    7.2      49.373
2014    9       11    23  28    5.32   452.8    7.2      49.388
2014    9       11    23  34    5.32   452.9    7.2      49.403
2014    9       11    23  40    5.32   453.0    7.2      49.417
2014    9       11    23  45    5.32   453.2    7.2      49.432
2014    9       11    23  51    5.32   453.3    7.2      49.447
2014    9       11    23  57    5.32   453.4    7.2      49.461
2014    9       12     0   3    5.32   453.5    7.2      49.475
2014    9       12     0   9    5.32   453.7    7.2      49.490
2014    9       12     0  15    5.32   453.8    7.2      49.504
2014    9       12     0  20    5.32   453.9    7.2      49.518
2014    9       12     0  26    5.32   454.1    7.2      49.532
2014    9       12     0  32    5.32   454.2    7.2      49.546
2014    9       12     0  38    5.32   454.3    7.2      49.560
2014    9       12     0  44    5.32   454.4    7.2      49.574
2014    9       12     0  50    5.32   454.5    7.2      49.588
2014    9       12     0  55    5.32   454.7    7.2      49.602
2014    9       12     1   1    5.32   454.8    7.2      49.616
2014    9       12     1   7    5.32   454.9    7.2      49.630
2014    9       12     1  13    5.32   455.0    7.2      49.644
2014    9       12     1  19    5.32   455.2    7.2      49.658
2014    9       12     1  25    5.32   455.3    7.1      49.672
2014    9       12     1  30    5.32   455.4    7.1      49.686
2014    9       12     1  36    5.32   455.5    7.1      49.700
2014    9       12     1  42    5.32   455.7    7.1      49.714
2014    9       12     1  48    5.32   455.8    7.1      49.728
2014    9       12     1  54    5.32   455.9    7.1      49.741
2014    9       12     2   0    5.32   456.0    7.1      49.755
2014    9       12     2   5    5.32   456.1    7.1      49.770
2014    9       12     2  11    5.32   456.3    7.1      49.785
2014    9       12     2  17    5.32   456.4    7.1      49.801
2014    9       12     2  23    5.33   456.5    7.1      49.818
2014    9       12     2  29    5.33   456.6    7.1      49.835
2014    9       12     2  34    5.33   456.8    7.1      49.853
2014    9       12     2  40    5.33   456.9    7.1      49.871
2014    9       12     2  46    5.33   457.0    7.1      49.889
2014    9       12     2  52    5.33   457.1    7.1      49.907
2014    9       12     2  58    5.33   457.3    7.1      49.925
2014    9       12     3   4    5.33   457.4    7.1      49.944
2014    9       12     3   9    5.33   457.5    7.1      49.962
2014    9       12     3  15    5.33   457.6    7.1      49.981
2014    9       12     3  21    5.33   457.8    7.1      50.000
2014    9       12     3  27    5.33   457.9    7.1      50.018
2014    9       12     3  33    5.33   458.0    7.1      50.037
2014    9       12     3  39    5.33   458.2    7.1      50.054
2014    9       12     3  44    5.33   458.3    7.1      50.072
2014    9       12     3  50    5.33   458.4    7.1      50.089
2014    9       12     3  56    5.33   458.6    7.1      50.106
2014    9       12     4   2    5.33   458.7    7.1      50.122
2014    9       12     4   8    5.33   458.8    7.1      50.139
2014    9       12     4  14    5.33   458.9    7.1      50.155
2014    9       12     4  19    5.33   459.1    7.1      50.171
2014    9       12     4  25    5.33   459.2    7.1      50.187
2014    9       12     4  31    5.33   459.3    7.1      50.202
2014    9       12     4  37    5.33   459.4    7.1      50.218
2014    9       12     4  43    5.33   459.6    7.1      50.233
2014    9       12     4  49    5.33   459.7    7.1      50.249
2014    9       12     4  54    5.33   459.8    7.0      50.265
2014    9       12     5   0    5.33   460.0    7.0      50.280
2014    9       12     5   6    5.33   460.1    7.0      50.296
2014    9       12     5  12    5.33   460.2    7.0      50.312
2014    9       12     5  18    5.33   460.3    7.0      50.328
2014    9       12     5  24    5.33   460.5    7.0      50.344
2014    9       12     5  29    5.34   460.6    7.0      50.360
2014    9       12     5  35    5.34   460.7    7.0      50.377
2014    9       12     5  41    5.34   460.9    7.0      50.394
2014    9       12     5  47    5.34   461.0    7.0      50.411
2014    9       12     5  53    5.34   461.1    7.0      50.428
2014    9       12     5  59    5.34   461.3    7.0      50.446
2014    9       12     6   4    5.34   461.4    7.0      50.465
2014    9       12     6  10    5.34   461.5    7.0      50.483
2014    9       12     6  16    5.34   461.7    7.0      50.502
2014    9       12     6  22    5.34   461.8    7.0      50.522
2014    9       12     6  28    5.34   461.9    7.0      50.541
2014    9       12     6  34    5.34   462.1    7.0      50.562
2014    9       12     6  39    5.34   462.2    7.0      50.583
2014    9       12     6  45    5.34   462.4    7.0      50.606
2014    9       12     6  51    5.35   462.5    7.0      50.630
2014    9       12     6  57    5.35   462.6    7.0      50.655
2014    9       12     7   3    5.35   462.8    7.0      50.682
2014    9       12     7   9    5.35   462.9    7.0      50.709
2014    9       12     7  14    5.35   463.1    7.0      50.737
2014    9       12     7  20    5.35   463.2    7.0      50.764
2014    9       12     7  26    5.35   463.4    7.0      50.791
2014    9       12     7  32    5.35   463.5    7.0      50.819
2014    9       12     7  38    5.35   463.7    7.0      50.847
2014    9       12     7  44    5.35   463.8    7.0      50.875
2014    9       12     7  49    5.35   463.9    7.0      50.903
2014    9       12     7  55    5.35   464.1    7.0      50.930
2014    9       12     8   1    5.35   464.2    7.0      50.958
2014    9       12     8   7    5.35   464.4    7.0      50.986
2014    9       12     8  13    5.35   464.5    7.0      51.014
2014    9       12     8  19    5.35   464.7    7.0      51.041
2014    9       12     8  24    5.35   464.8    7.0      51.067
2014    9       12     8  30    5.35   464.9    7.0      51.093
2014    9       12     8  36    5.35   465.1    7.0      51.119
2014    9       12     8  42    5.35   465.2    7.0      51.144
2014    9       12     8  48    5.35   465.4    7.0      51.169
2014    9       12     8  53    5.35   465.5    7.0      51.193
2014    9       12     8  59    5.35   465.7    7.0      51.216
2014    9       12     9   5    5.35   465.8    7.0      51.239
2014    9       12     9  11    5.35   465.9    7.0      51.261
2014    9       12     9  17    5.35   466.1    7.0      51.282
2014    9       12     9  23    5.35   466.2    6.9      51.303
2014    9       12     9  28    5.35   466.4    6.9      51.323
2014    9       12     9  34    5.36   466.5    6.9      51.343
2014    9       12     9  40    5.36   466.6    6.9      51.363
2014    9       12     9  46    5.36   466.8    6.9      51.381
2014    9       12     9  52    5.36   466.9    6.9      51.400
2014    9       12     9  58    5.36   467.0    6.9      51.418
2014    9       12    10   3    5.36   467.2    6.9      51.435
2014    9       12    10   9    5.36   467.3    6.9      51.453
2014    9       12    10  15    5.36   467.4    6.9      51.470
2014    9       12    10  21    5.36   467.6    6.9      51.486
2014    9       12    10  27    5.36   467.7    6.9      51.502
2014    9       12    10  33    5.36   467.8    6.9      51.518
2014    9       12    10  38    5.36   468.0    6.9      51.534
2014    9       12    10  44    5.36   468.1    6.9      51.549
2014    9       12    10  50    5.36   468.2    6.9      51.564
2014    9       12    10  56    5.36   468.4    6.9      51.579
2014    9       12    11   2    5.36   468.5    6.9      51.594
2014    9       12    11   8    5.36   468.6    6.9      51.608
2014    9       12    11  13    5.36   468.8    6.9      51.623
2014    9       12    11  19    5.36   468.9    6.9      51.637
2014    9       12    11  25    5.36   469.0    6.9      51.651
2014    9       12    11  31    5.36   469.2    6.9      51.665
2014    9       12    11  37    5.36   469.3    6.9      51.680
2014    9       12    11  43    5.36   469.4    6.9      51.694
2014    9       12    11  48    5.36   469.5    6.9      51.708
2014    9       12    11  54    5.36   469.7    6.8      51.723
2014    9       12    12   0    5.36   469.8    6.8      51.738
2014    9       12    12   6    5.36   469.9    6.8      51.753
2014    9       12    12  12    5.36   470.1    6.8      51.769
2014    9       12    12  18    5.36   470.2    6.8      51.785
2014    9       12    12  23    5.36   470.3    6.8      51.801
2014    9       12    12  29    5.36   470.4    6.8      51.818
2014    9       12    12  35    5.36   470.6    6.8      51.836
2014    9       12    12  41    5.36   470.7    6.8      51.854
2014    9       12    12  47    5.36   470.8    6.8      51.873
2014    9       12    12  53    5.36   471.0    6.8      51.892
2014    9       12    12  58    5.36   471.1    6.8      51.913
2014    9       12    13   4    5.36   471.3    6.8      51.934
2014    9       12    13  10    5.36   471.4    6.8      51.957
2014    9       12    13  16    5.37   471.5    6.8      51.981
2014    9       12    13  22    5.37   471.7    6.8      52.005
2014    9       12    13  28    5.37   471.8    6.8      52.031
2014    9       12    13  33    5.37   472.0    6.8      52.058
2014    9       12    13  39    5.37   472.1    6.8      52.087
2014    9       12    13  45    5.37   472.2    6.8      52.117
2014    9       12    13  51    5.37   472.4    6.8      52.148
2014    9       12    13  57    5.38   472.5    6.8      52.181
2014    9       12    14   3    5.38   472.7    6.8      52.216
2014    9       12    14   8    5.38   472.8    6.8      52.255
2014    9       12    14  14    5.38   473.0    6.8      52.299
2014    9       12    14  20    5.38   473.2    6.8      52.346
2014    9       12    14  26    5.38   473.3    6.8      52.397
2014    9       12    14  32    5.38   473.5    6.8      52.450
2014    9       12    14  38    5.38   473.7    6.8      52.505
2014    9       12    14  43    5.39   473.9    6.8      52.560
2014    9       12    14  49    5.39   474.0    6.8      52.615
2014    9       12    14  55    5.39   474.2    6.8      52.668
2014    9       12    15   1    5.39   474.4    6.8      52.721
2014    9       12    15   7    5.39   474.6    6.8      52.774
2014    9       12    15  12    5.39   474.7    6.8      52.825
2014    9       12    15  18    5.39   474.9    6.8      52.877
2014    9       12    15  24    5.39   475.1    6.8      52.926
2014    9       12    15  30    5.39   475.3    6.8      52.975
2014    9       12    15  36    5.39   475.4    6.8      53.023
2014    9       12    15  42    5.39   475.6    6.8      53.070
2014    9       12    15  47    5.39   475.8    6.8      53.116
2014    9       12    15  53    5.39   475.9    6.8      53.160
2014    9       12    15  59    5.40   476.1    6.8      53.204
2014    9       12    16   5    5.40   476.3    6.8      53.246
2014    9       12    16  11    5.40   476.4    6.8      53.287
2014    9       12    16  17    5.40   476.6    6.8      53.328
2014    9       12    16  22    5.40   476.8    6.8      53.367
2014    9       12    16  28    5.40   477.0    6.8      53.407
2014    9       12    16  34    5.40   477.1    6.8      53.446
2014    9       12    16  40    5.40   477.3    6.8      53.484
2014    9       12    16  46    5.40   477.5    6.8      53.523
2014    9       12    16  52    5.40   477.6    6.8      53.561
2014    9       12    16  57    5.40   477.8    6.8      53.599
2014    9       12    17   3    5.40   478.0    6.8      53.636
2014    9       12    17   9    5.40   478.2    6.8      53.672
2014    9       12    17  15    5.40   478.4    6.8      53.706
2014    9       12    17  21    5.40   478.5    6.8      53.740
2014    9       12    17  27    5.40   478.7    6.8      53.773
2014    9       12    17  32    5.40   478.9    6.8      53.805
2014    9       12    17  38    5.40   479.1    6.8      53.836
2014    9       12    17  44    5.40   479.2    6.8      53.866
2014    9       12    17  50    5.40   479.4    6.8      53.896
2014    9       12    17  56    5.40   479.6    6.8      53.924
2014    9       12    18   2    5.40   479.8    6.8      53.952
2014    9       12    18   7    5.40   479.9    6.8      53.979
2014    9       12    18  13    5.40   480.1    6.8      54.006
2014    9       12    18  19    5.41   480.3    6.8      54.032
2014    9       12    18  25    5.41   480.5    6.8      54.057
2014    9       12    18  31    5.41   480.7    6.8      54.082
2014    9       12    18  37    5.41   480.8    6.8      54.107
2014    9       12    18  42    5.41   481.0    6.8      54.131
2014    9       12    18  48    5.41   481.2    6.8      54.155
2014    9       12    18  54    5.41   481.4    6.7      54.179
2014    9       12    19   0    5.41   481.5    6.7      54.202
2014    9       12    19   6    5.41   481.7    6.7      54.225
2014    9       12    19  12    5.41   481.9    6.7      54.249
2014    9       12    19  17    5.41   482.1    6.7      54.272
2014    9       12    19  23    5.41   482.3    6.7      54.295
2014    9       12    19  29    5.41   482.4    6.7      54.319
2014    9       12    19  35    5.41   482.6    6.7      54.342
2014    9       12    19  41    5.41   482.8    6.7      54.366
2014    9       12    19  47    5.41   483.0    6.7      54.390
2014    9       12    19  52    5.41   483.2    6.7      54.415
2014    9       12    19  58    5.41   483.3    6.7      54.441
2014    9       12    20   4    5.41   483.5    6.7      54.467
2014    9       12    20  10    5.41   483.7    6.7      54.494
2014    9       12    20  16    5.41   483.9    6.7      54.523
2014    9       12    20  22    5.41   484.1    6.7      54.552
2014    9       12    20  27    5.41   484.3    6.7      54.583
2014    9       12    20  33    5.42   484.5    6.7      54.615
2014    9       12    20  39    5.42   484.6    6.7      54.648
2014    9       12    20  45    5.42   484.8    6.7      54.684
2014    9       12    20  51    5.42   485.0    6.7      54.723
2014    9       12    20  57    5.42   485.2    6.7      54.764
2014    9       12    21   2    5.42   485.4    6.7      54.806
2014    9       12    21   8    5.42   485.6    6.7      54.850
2014    9       12    21  14    5.43   485.8    6.7      54.899
2014    9       12    21  20    5.43   486.0    6.7      54.954
2014    9       12    21  26    5.43   486.2    6.7      55.016
2014    9       12    21  31    5.43   486.4    6.7      55.083
2014    9       12    21  37    5.43   486.7    6.7      55.155
2014    9       12    21  43    5.43   486.9    6.7      55.233
2014    9       12    21  49    5.43   487.1    6.7      55.313
2014    9       12    21  55    5.44   487.4    6.7      55.393
2014    9       12    22   1    5.44   487.6    6.7      55.472
2014    9       12    22   6    5.44   487.9    6.7      55.548
2014    9       12    22  12    5.44   488.1    6.7      55.623
2014    9       12    22  18    5.44   488.3    6.7      55.696
2014    9       12    22  24    5.44   488.6    6.7      55.766
2014    9       12    22  30    5.44   488.8    6.7      55.834
2014    9       12    22  36    5.44   489.1    6.7      55.900
2014    9       12    22  41    5.44   489.3    6.7      55.963
2014    9       12    22  47    5.44   489.5    6.7      56.023
2014    9       12    22  53    5.44   489.8    6.7      56.081
2014    9       12    22  59    5.44   490.0    6.7      56.138
2014    9       12    23   5    5.44   490.3    6.7      56.191
2014    9       12    23  11    5.44   490.5    6.7      56.243
2014    9       12    23  16    5.44   490.7    6.7      56.294
2014    9       12    23  22    5.44   491.0    6.7      56.342
2014    9       12    23  28    5.44   491.2    6.7      56.389
2014    9       12    23  34    5.44   491.5    6.7      56.435
2014    9       12    23  40    5.44   491.7    6.7      56.481
2014    9       12    23  46    5.44   492.0    6.7      56.527
2014    9       12    23  51    5.44   492.2    6.7      56.574
2014    9       12    23  57    5.44   492.5    6.7      56.620
2014    9       13     0   3    5.44   492.7    6.7      56.666
