year    month   day   hour  minute  B_enl V_enl   n_enl       T_enl
[year] [month] [day] [hour][minute] [nT]  [km/s]  [cm-3]      [kK]
2014    9        1     0   1    4.74   551.3    3.8      52.105
2014    9        1     0   7    4.74   551.3    3.8      52.105
2014    9        1     0  13    4.74   551.2    3.8      52.105
2014    9        1     0  18    4.74   551.2    3.8      52.106
2014    9        1     0  24    4.74   551.2    3.8      52.106
2014    9        1     0  30    4.74   551.1    3.8      52.107
2014    9        1     0  35    4.74   551.1    3.8      52.108
2014    9        1     0  41    4.74   551.1    3.8      52.109
2014    9        1     0  47    4.74   551.0    3.8      52.110
2014    9        1     0  52    4.74   551.0    3.8      52.112
2014    9        1     0  58    4.74   551.0    3.8      52.114
2014    9        1     1   4    4.74   550.9    3.8      52.116
2014    9        1     1   9    4.74   550.9    3.8      52.118
2014    9        1     1  15    4.74   550.9    3.8      52.120
2014    9        1     1  21    4.74   550.9    3.8      52.123
2014    9        1     1  26    4.74   550.8    3.8      52.126
2014    9        1     1  32    4.74   550.8    3.8      52.130
2014    9        1     1  38    4.74   550.8    3.8      52.133
2014    9        1     1  43    4.74   550.7    3.8      52.137
2014    9        1     1  49    4.74   550.7    3.8      52.142
2014    9        1     1  55    4.74   550.7    3.8      52.147
2014    9        1     2   0    4.74   550.6    3.8      52.152
2014    9        1     2   6    4.74   550.6    3.9      52.157
2014    9        1     2  12    4.74   550.6    3.9      52.163
2014    9        1     2  17    4.74   550.5    3.9      52.169
2014    9        1     2  23    4.74   550.5    3.9      52.174
2014    9        1     2  29    4.74   550.5    3.9      52.180
2014    9        1     2  34    4.74   550.5    3.9      52.185
2014    9        1     2  40    4.74   550.4    3.9      52.191
2014    9        1     2  46    4.74   550.4    3.9      52.196
2014    9        1     2  51    4.74   550.4    3.9      52.201
2014    9        1     2  57    4.74   550.3    3.9      52.206
2014    9        1     3   2    4.74   550.3    3.9      52.210
2014    9        1     3   8    4.74   550.3    3.9      52.215
2014    9        1     3  14    4.74   550.2    3.9      52.219
2014    9        1     3  19    4.74   550.2    3.9      52.222
2014    9        1     3  25    4.74   550.2    3.9      52.226
2014    9        1     3  31    4.74   550.1    3.9      52.229
2014    9        1     3  36    4.74   550.1    3.9      52.232
2014    9        1     3  42    4.74   550.1    3.9      52.234
2014    9        1     3  48    4.73   550.0    3.9      52.237
2014    9        1     3  53    4.73   550.0    3.9      52.239
2014    9        1     3  59    4.73   550.0    3.9      52.241
2014    9        1     4   5    4.73   549.9    3.9      52.242
2014    9        1     4  10    4.73   549.9    3.9      52.243
2014    9        1     4  16    4.73   549.9    3.9      52.244
2014    9        1     4  22    4.73   549.8    3.9      52.245
2014    9        1     4  27    4.73   549.8    3.9      52.245
2014    9        1     4  33    4.73   549.7    3.9      52.246
2014    9        1     4  39    4.73   549.7    3.9      52.246
2014    9        1     4  44    4.73   549.7    3.9      52.245
2014    9        1     4  50    4.73   549.6    3.9      52.245
2014    9        1     4  56    4.73   549.6    3.9      52.244
2014    9        1     5   1    4.73   549.5    3.9      52.243
2014    9        1     5   7    4.73   549.5    3.9      52.242
2014    9        1     5  13    4.73   549.5    3.9      52.240
2014    9        1     5  18    4.73   549.4    3.9      52.239
2014    9        1     5  24    4.73   549.4    3.9      52.236
2014    9        1     5  30    4.73   549.3    3.9      52.234
2014    9        1     5  35    4.73   549.3    3.9      52.232
2014    9        1     5  41    4.73   549.3    3.9      52.229
2014    9        1     5  47    4.73   549.2    3.9      52.226
2014    9        1     5  52    4.72   549.2    3.9      52.223
2014    9        1     5  58    4.72   549.1    3.9      52.219
2014    9        1     6   4    4.72   549.1    3.9      52.216
2014    9        1     6   9    4.72   549.0    3.9      52.212
2014    9        1     6  15    4.72   549.0    3.9      52.208
2014    9        1     6  21    4.72   549.0    3.9      52.203
2014    9        1     6  26    4.72   548.9    3.9      52.199
2014    9        1     6  32    4.72   548.9    3.9      52.194
2014    9        1     6  38    4.72   548.8    3.9      52.189
2014    9        1     6  43    4.72   548.8    3.9      52.184
2014    9        1     6  49    4.72   548.7    3.9      52.180
2014    9        1     6  55    4.72   548.7    3.9      52.175
2014    9        1     7   0    4.72   548.7    3.9      52.169
2014    9        1     7   6    4.72   548.6    3.9      52.164
2014    9        1     7  12    4.72   548.6    3.9      52.158
2014    9        1     7  17    4.72   548.5    3.9      52.152
2014    9        1     7  23    4.72   548.5    3.9      52.146
2014    9        1     7  29    4.71   548.4    3.9      52.139
2014    9        1     7  34    4.71   548.4    3.9      52.133
2014    9        1     7  40    4.71   548.4    3.9      52.126
2014    9        1     7  46    4.71   548.3    3.9      52.118
2014    9        1     7  51    4.71   548.3    3.9      52.111
2014    9        1     7  57    4.71   548.2    3.9      52.103
2014    9        1     8   3    4.71   548.2    3.9      52.096
2014    9        1     8   8    4.71   548.1    3.9      52.088
2014    9        1     8  14    4.71   548.1    3.9      52.080
2014    9        1     8  20    4.71   548.0    3.9      52.071
2014    9        1     8  25    4.71   548.0    3.9      52.063
2014    9        1     8  31    4.71   547.9    3.9      52.055
2014    9        1     8  37    4.71   547.9    3.9      52.046
2014    9        1     8  42    4.70   547.9    3.9      52.037
2014    9        1     8  48    4.70   547.8    3.9      52.029
2014    9        1     8  53    4.70   547.8    3.8      52.020
2014    9        1     8  59    4.70   547.7    3.8      52.011
2014    9        1     9   5    4.70   547.7    3.8      52.003
2014    9        1     9  10    4.70   547.6    3.8      51.994
2014    9        1     9  16    4.70   547.6    3.8      51.985
2014    9        1     9  22    4.70   547.5    3.8      51.976
2014    9        1     9  27    4.70   547.5    3.8      51.968
2014    9        1     9  33    4.70   547.4    3.8      51.959
2014    9        1     9  39    4.70   547.4    3.8      51.950
2014    9        1     9  44    4.70   547.3    3.8      51.942
2014    9        1     9  50    4.69   547.3    3.8      51.933
2014    9        1     9  56    4.69   547.2    3.8      51.925
2014    9        1    10   1    4.69   547.2    3.8      51.916
2014    9        1    10   7    4.69   547.1    3.8      51.907
2014    9        1    10  13    4.69   547.1    3.8      51.899
2014    9        1    10  18    4.69   547.0    3.8      51.890
2014    9        1    10  24    4.69   546.9    3.8      51.882
2014    9        1    10  30    4.69   546.9    3.8      51.873
2014    9        1    10  35    4.69   546.8    3.8      51.865
2014    9        1    10  41    4.69   546.8    3.8      51.856
2014    9        1    10  47    4.69   546.7    3.8      51.848
2014    9        1    10  52    4.68   546.7    3.8      51.840
2014    9        1    10  58    4.68   546.6    3.8      51.831
2014    9        1    11   4    4.68   546.5    3.8      51.823
2014    9        1    11   9    4.68   546.5    3.8      51.815
2014    9        1    11  15    4.68   546.4    3.8      51.807
2014    9        1    11  21    4.68   546.4    3.8      51.799
2014    9        1    11  26    4.68   546.3    3.8      51.791
2014    9        1    11  32    4.68   546.2    3.8      51.783
2014    9        1    11  38    4.68   546.2    3.8      51.775
2014    9        1    11  43    4.68   546.1    3.8      51.768
2014    9        1    11  49    4.67   546.1    3.8      51.760
2014    9        1    11  55    4.67   546.0    3.8      51.753
2014    9        1    12   0    4.67   545.9    3.8      51.745
2014    9        1    12   6    4.67   545.9    3.8      51.738
2014    9        1    12  12    4.67   545.8    3.8      51.731
2014    9        1    12  17    4.67   545.7    3.8      51.724
2014    9        1    12  23    4.67   545.7    3.8      51.716
2014    9        1    12  29    4.67   545.6    3.8      51.709
2014    9        1    12  34    4.67   545.5    3.8      51.702
2014    9        1    12  40    4.67   545.5    3.8      51.695
2014    9        1    12  46    4.67   545.4    3.8      51.688
2014    9        1    12  51    4.66   545.3    3.8      51.680
2014    9        1    12  57    4.66   545.3    3.8      51.673
2014    9        1    13   3    4.66   545.2    3.8      51.665
2014    9        1    13   8    4.66   545.1    3.8      51.657
2014    9        1    13  14    4.66   545.1    3.8      51.650
2014    9        1    13  20    4.66   545.0    3.8      51.642
2014    9        1    13  25    4.66   544.9    3.8      51.634
2014    9        1    13  31    4.66   544.9    3.8      51.626
2014    9        1    13  37    4.66   544.8    3.8      51.618
2014    9        1    13  42    4.66   544.7    3.8      51.610
2014    9        1    13  48    4.65   544.6    3.8      51.602
2014    9        1    13  54    4.65   544.6    3.8      51.593
2014    9        1    13  59    4.65   544.5    3.8      51.585
2014    9        1    14   5    4.65   544.4    3.8      51.576
2014    9        1    14  11    4.65   544.4    3.8      51.567
2014    9        1    14  16    4.65   544.3    3.8      51.558
2014    9        1    14  22    4.65   544.2    3.8      51.548
2014    9        1    14  28    4.65   544.1    3.8      51.539
2014    9        1    14  33    4.65   544.1    3.8      51.529
2014    9        1    14  39    4.64   544.0    3.8      51.518
2014    9        1    14  45    4.64   543.9    3.8      51.508
2014    9        1    14  50    4.64   543.9    3.8      51.496
2014    9        1    14  56    4.64   543.8    3.8      51.485
2014    9        1    15   1    4.64   543.7    3.8      51.473
2014    9        1    15   7    4.64   543.6    3.8      51.461
2014    9        1    15  13    4.64   543.6    3.8      51.449
2014    9        1    15  18    4.64   543.5    3.8      51.436
2014    9        1    15  24    4.63   543.4    3.8      51.422
2014    9        1    15  30    4.63   543.3    3.8      51.409
2014    9        1    15  35    4.63   543.3    3.8      51.395
2014    9        1    15  41    4.63   543.2    3.8      51.381
2014    9        1    15  47    4.63   543.1    3.8      51.367
2014    9        1    15  52    4.63   543.0    3.8      51.352
2014    9        1    15  58    4.63   542.9    3.8      51.337
2014    9        1    16   4    4.63   542.9    3.8      51.322
2014    9        1    16   9    4.62   542.8    3.8      51.306
2014    9        1    16  15    4.62   542.7    3.8      51.291
2014    9        1    16  21    4.62   542.6    3.8      51.275
2014    9        1    16  26    4.62   542.5    3.8      51.259
2014    9        1    16  32    4.62   542.5    3.8      51.242
2014    9        1    16  38    4.62   542.4    3.8      51.226
2014    9        1    16  43    4.62   542.3    3.8      51.209
2014    9        1    16  49    4.62   542.2    3.8      51.193
2014    9        1    16  55    4.61   542.1    3.8      51.175
2014    9        1    17   0    4.61   542.0    3.8      51.158
2014    9        1    17   6    4.61   541.9    3.8      51.141
2014    9        1    17  12    4.61   541.9    3.8      51.124
2014    9        1    17  17    4.61   541.8    3.8      51.106
2014    9        1    17  23    4.61   541.7    3.8      51.089
2014    9        1    17  29    4.61   541.6    3.8      51.071
2014    9        1    17  34    4.60   541.5    3.8      51.053
2014    9        1    17  40    4.60   541.4    3.8      51.036
2014    9        1    17  46    4.60   541.3    3.8      51.018
2014    9        1    17  51    4.60   541.3    3.8      51.001
2014    9        1    17  57    4.60   541.2    3.8      50.983
2014    9        1    18   3    4.60   541.1    3.8      50.966
2014    9        1    18   8    4.60   541.0    3.8      50.949
2014    9        1    18  14    4.60   540.9    3.8      50.931
2014    9        1    18  20    4.59   540.8    3.8      50.914
2014    9        1    18  25    4.59   540.7    3.8      50.897
2014    9        1    18  31    4.59   540.6    3.8      50.881
2014    9        1    18  37    4.59   540.5    3.8      50.864
2014    9        1    18  42    4.59   540.5    3.8      50.848
2014    9        1    18  48    4.59   540.4    3.8      50.832
2014    9        1    18  54    4.59   540.3    3.8      50.816
2014    9        1    18  59    4.58   540.2    3.8      50.800
2014    9        1    19   5    4.58   540.1    3.8      50.784
2014    9        1    19  11    4.58   540.0    3.8      50.769
2014    9        1    19  16    4.58   539.9    3.8      50.754
2014    9        1    19  22    4.58   539.8    3.8      50.739
2014    9        1    19  28    4.58   539.7    3.8      50.724
2014    9        1    19  33    4.58   539.6    3.8      50.709
2014    9        1    19  39    4.58   539.6    3.8      50.694
2014    9        1    19  45    4.57   539.5    3.8      50.680
2014    9        1    19  50    4.57   539.4    3.8      50.665
2014    9        1    19  56    4.57   539.3    3.8      50.651
2014    9        1    20   2    4.57   539.2    3.8      50.636
2014    9        1    20   7    4.57   539.1    3.8      50.622
2014    9        1    20  13    4.57   539.0    3.8      50.608
2014    9        1    20  19    4.57   538.9    3.8      50.593
2014    9        1    20  24    4.56   538.8    3.8      50.579
2014    9        1    20  30    4.56   538.7    3.8      50.565
2014    9        1    20  36    4.56   538.6    3.8      50.550
2014    9        1    20  41    4.56   538.5    3.8      50.536
2014    9        1    20  47    4.56   538.4    3.8      50.522
2014    9        1    20  52    4.56   538.3    3.8      50.507
2014    9        1    20  58    4.56   538.2    3.8      50.493
2014    9        1    21   4    4.56   538.1    3.8      50.478
2014    9        1    21   9    4.55   538.0    3.8      50.464
2014    9        1    21  15    4.55   537.9    3.8      50.449
2014    9        1    21  21    4.55   537.8    3.8      50.434
2014    9        1    21  26    4.55   537.7    3.8      50.418
2014    9        1    21  32    4.55   537.6    3.8      50.403
2014    9        1    21  38    4.55   537.5    3.8      50.388
2014    9        1    21  43    4.55   537.4    3.8      50.372
2014    9        1    21  49    4.54   537.3    3.8      50.356
2014    9        1    21  55    4.54   537.2    3.8      50.341
2014    9        1    22   0    4.54   537.1    3.8      50.325
2014    9        1    22   6    4.54   537.0    3.8      50.309
2014    9        1    22  12    4.54   536.9    3.8      50.293
2014    9        1    22  17    4.54   536.8    3.8      50.278
2014    9        1    22  23    4.54   536.7    3.8      50.262
2014    9        1    22  29    4.53   536.6    3.8      50.246
2014    9        1    22  34    4.53   536.5    3.8      50.230
2014    9        1    22  40    4.53   536.4    3.8      50.214
2014    9        1    22  46    4.53   536.3    3.8      50.198
2014    9        1    22  51    4.53   536.2    3.8      50.182
2014    9        1    22  57    4.53   536.0    3.8      50.166
2014    9        1    23   3    4.53   535.9    3.8      50.150
2014    9        1    23   8    4.52   535.8    3.8      50.134
2014    9        1    23  14    4.52   535.7    3.8      50.118
2014    9        1    23  20    4.52   535.6    3.8      50.102
2014    9        1    23  25    4.52   535.5    3.8      50.086
2014    9        1    23  31    4.52   535.4    3.8      50.070
2014    9        1    23  37    4.52   535.3    3.8      50.053
2014    9        1    23  42    4.52   535.2    3.8      50.036
2014    9        1    23  48    4.52   535.1    3.8      50.018
2014    9        1    23  54    4.51   535.0    3.8      50.000
2014    9        1    23  59    4.51   534.9    3.8      49.981
2014    9        2     0   5    4.51   534.8    3.8      49.962
2014    9        2     0  11    4.51   534.7    3.8      49.942
2014    9        2     0  16    4.51   534.6    3.8      49.922
2014    9        2     0  22    4.51   534.5    3.8      49.902
2014    9        2     0  28    4.51   534.3    3.8      49.881
2014    9        2     0  33    4.50   534.2    3.8      49.860
2014    9        2     0  39    4.50   534.1    3.8      49.839
2014    9        2     0  45    4.50   534.0    3.8      49.817
2014    9        2     0  50    4.50   533.9    3.8      49.795
2014    9        2     0  55    4.50   533.8    3.8      49.778
2014    9        2     1   0    4.50   533.7    3.8      49.764
2014    9        2     1   4    4.50   533.6    3.8      49.750
2014    9        2     1   9    4.49   533.5    3.8      49.736
2014    9        2     1  13    4.49   533.5    3.8      49.722
2014    9        2     1  18    4.49   533.4    3.8      49.708
2014    9        2     1  22    4.49   533.3    3.8      49.695
2014    9        2     1  27    4.49   533.2    3.8      49.681
2014    9        2     1  31    4.49   533.1    3.8      49.668
2014    9        2     1  36    4.49   533.0    3.8      49.655
2014    9        2     1  40    4.49   532.9    3.8      49.642
2014    9        2     1  44    4.49   532.8    3.8      49.629
2014    9        2     1  49    4.48   532.7    3.8      49.616
2014    9        2     1  53    4.48   532.7    3.8      49.604
2014    9        2     1  58    4.48   532.6    3.8      49.591
2014    9        2     2   2    4.48   532.5    3.8      49.579
2014    9        2     2   6    4.48   532.4    3.8      49.567
2014    9        2     2  11    4.48   532.3    3.8      49.555
2014    9        2     2  15    4.48   532.2    3.8      49.543
2014    9        2     2  20    4.48   532.1    3.8      49.531
2014    9        2     2  24    4.48   532.1    3.8      49.520
2014    9        2     2  28    4.47   532.0    3.8      49.508
2014    9        2     2  33    4.47   531.9    3.8      49.497
2014    9        2     2  37    4.47   531.8    3.8      49.485
2014    9        2     2  41    4.47   531.7    3.8      49.474
2014    9        2     2  46    4.47   531.6    3.8      49.463
2014    9        2     2  50    4.47   531.5    3.8      49.452
2014    9        2     2  54    4.47   531.4    3.8      49.441
2014    9        2     2  59    4.47   531.4    3.8      49.429
2014    9        2     3   3    4.47   531.3    3.8      49.418
2014    9        2     3   8    4.46   531.2    3.8      49.407
2014    9        2     3  12    4.46   531.1    3.8      49.396
2014    9        2     3  16    4.46   531.0    3.8      49.384
2014    9        2     3  21    4.46   530.9    3.8      49.373
2014    9        2     3  25    4.46   530.8    3.8      49.362
2014    9        2     3  29    4.46   530.7    3.8      49.350
2014    9        2     3  34    4.46   530.7    3.8      49.339
2014    9        2     3  38    4.46   530.6    3.8      49.327
2014    9        2     3  43    4.46   530.5    3.8      49.316
2014    9        2     3  47    4.46   530.4    3.8      49.304
2014    9        2     3  51    4.45   530.3    3.8      49.292
2014    9        2     3  56    4.45   530.2    3.8      49.280
2014    9        2     4   0    4.45   530.1    3.8      49.269
2014    9        2     4   5    4.45   530.0    3.8      49.257
2014    9        2     4   9    4.45   529.9    3.8      49.246
2014    9        2     4  13    4.45   529.8    3.8      49.235
2014    9        2     4  18    4.45   529.8    3.8      49.223
2014    9        2     4  22    4.45   529.7    3.8      49.212
2014    9        2     4  27    4.45   529.6    3.8      49.200
2014    9        2     4  31    4.44   529.5    3.8      49.189
2014    9        2     4  36    4.44   529.4    3.8      49.178
2014    9        2     4  40    4.44   529.3    3.8      49.167
2014    9        2     4  44    4.44   529.2    3.8      49.156
2014    9        2     4  49    4.44   529.1    3.8      49.145
2014    9        2     4  53    4.44   529.0    3.8      49.135
2014    9        2     4  58    4.44   528.9    3.8      49.124
2014    9        2     5   2    4.44   528.8    3.8      49.114
2014    9        2     5   7    4.44   528.7    3.8      49.103
2014    9        2     5  11    4.43   528.6    3.8      49.093
2014    9        2     5  15    4.43   528.5    3.8      49.082
2014    9        2     5  20    4.43   528.4    3.8      49.072
2014    9        2     5  24    4.43   528.4    3.8      49.061
2014    9        2     5  29    4.43   528.3    3.8      49.051
2014    9        2     5  34    4.43   528.2    3.8      49.041
2014    9        2     5  38    4.43   528.1    3.8      49.030
2014    9        2     5  43    4.43   528.0    3.8      49.020
2014    9        2     5  47    4.43   527.9    3.8      49.009
2014    9        2     5  52    4.42   527.8    3.8      48.998
2014    9        2     5  57    4.42   527.7    3.8      48.987
2014    9        2     6   1    4.42   527.6    3.8      48.977
2014    9        2     6   6    4.42   527.5    3.8      48.966
2014    9        2     6  10    4.42   527.4    3.8      48.955
2014    9        2     6  15    4.42   527.3    3.8      48.943
2014    9        2     6  20    4.42   527.2    3.8      48.932
2014    9        2     6  24    4.42   527.1    3.8      48.921
2014    9        2     6  29    4.42   527.0    3.8      48.909
2014    9        2     6  34    4.41   526.9    3.8      48.898
2014    9        2     6  39    4.41   526.8    3.8      48.886
2014    9        2     6  43    4.41   526.7    3.8      48.874
2014    9        2     6  48    4.41   526.6    3.8      48.862
2014    9        2     6  53    4.41   526.5    3.8      48.850
2014    9        2     6  57    4.41   526.4    3.8      48.837
2014    9        2     7   2    4.41   526.3    3.8      48.824
2014    9        2     7   7    4.41   526.2    3.8      48.810
2014    9        2     7  12    4.40   526.1    3.8      48.795
2014    9        2     7  16    4.40   526.0    3.8      48.781
2014    9        2     7  21    4.40   525.9    3.8      48.766
2014    9        2     7  26    4.40   525.8    3.8      48.750
2014    9        2     7  31    4.40   525.7    3.8      48.734
2014    9        2     7  35    4.40   525.6    3.8      48.718
2014    9        2     7  40    4.40   525.5    3.8      48.702
2014    9        2     7  45    4.40   525.4    3.8      48.685
2014    9        2     7  50    4.39   525.3    3.8      48.668
2014    9        2     7  54    4.39   525.2    3.8      48.650
2014    9        2     7  59    4.39   525.1    3.8      48.633
2014    9        2     8   4    4.39   525.0    3.8      48.615
2014    9        2     8   9    4.39   524.8    3.8      48.597
2014    9        2     8  14    4.39   524.7    3.8      48.579
2014    9        2     8  19    4.39   524.6    3.8      48.561
2014    9        2     8  23    4.38   524.5    3.8      48.543
2014    9        2     8  28    4.38   524.4    3.8      48.525
2014    9        2     8  33    4.38   524.3    3.8      48.506
2014    9        2     8  38    4.38   524.2    3.8      48.488
2014    9        2     8  43    4.38   524.1    3.8      48.471
2014    9        2     8  47    4.38   524.0    3.8      48.453
2014    9        2     8  52    4.38   523.8    3.8      48.435
2014    9        2     8  57    4.38   523.7    3.8      48.417
2014    9        2     9   2    4.38   523.6    3.8      48.400
2014    9        2     9   7    4.37   523.5    3.8      48.383
2014    9        2     9  12    4.37   523.4    3.8      48.367
2014    9        2     9  17    4.37   523.3    3.8      48.350
2014    9        2     9  21    4.37   523.2    3.8      48.334
2014    9        2     9  26    4.37   523.0    3.8      48.319
2014    9        2     9  31    4.37   522.9    3.8      48.304
2014    9        2     9  36    4.37   522.8    3.8      48.289
2014    9        2     9  41    4.37   522.7    3.8      48.275
2014    9        2     9  46    4.37   522.6    3.8      48.261
2014    9        2     9  51    4.36   522.5    3.8      48.248
2014    9        2     9  56    4.36   522.4    3.8      48.235
2014    9        2    10   0    4.36   522.3    3.8      48.221
2014    9        2    10   5    4.36   522.2    3.8      48.207
2014    9        2    10  10    4.36   522.1    3.8      48.193
2014    9        2    10  15    4.36   522.0    3.8      48.178
2014    9        2    10  20    4.36   521.9    3.8      48.164
2014    9        2    10  25    4.36   521.8    3.8      48.149
2014    9        2    10  30    4.36   521.7    3.8      48.134
2014    9        2    10  35    4.35   521.6    3.8      48.119
2014    9        2    10  40    4.35   521.5    3.8      48.103
2014    9        2    10  45    4.35   521.3    3.8      48.088
2014    9        2    10  50    4.35   521.2    3.8      48.072
2014    9        2    10  55    4.35   521.1    3.8      48.057
2014    9        2    10  59    4.35   521.0    3.8      48.041
2014    9        2    11   4    4.35   520.9    3.8      48.026
2014    9        2    11   9    4.35   520.8    3.8      48.011
2014    9        2    11  14    4.34   520.7    3.8      47.995
2014    9        2    11  19    4.34   520.6    3.8      47.979
2014    9        2    11  24    4.34   520.5    3.8      47.964
2014    9        2    11  29    4.34   520.4    3.8      47.948
2014    9        2    11  34    4.34   520.2    3.8      47.933
2014    9        2    11  39    4.34   520.1    3.8      47.917
2014    9        2    11  44    4.34   520.0    3.8      47.901
2014    9        2    11  49    4.34   519.9    3.8      47.886
2014    9        2    11  54    4.33   519.8    3.8      47.870
2014    9        2    11  59    4.33   519.7    3.8      47.854
2014    9        2    12   4    4.33   519.6    3.8      47.838
2014    9        2    12   9    4.33   519.4    3.8      47.822
2014    9        2    12  14    4.33   519.3    3.8      47.806
2014    9        2    12  19    4.33   519.2    3.8      47.791
2014    9        2    12  24    4.33   519.1    3.8      47.775
2014    9        2    12  29    4.33   519.0    3.8      47.759
2014    9        2    12  34    4.32   518.9    3.8      47.743
2014    9        2    12  39    4.32   518.7    3.8      47.727
2014    9        2    12  44    4.32   518.6    3.8      47.711
2014    9        2    12  49    4.32   518.5    3.8      47.695
2014    9        2    12  54    4.32   518.4    3.8      47.678
2014    9        2    12  59    4.32   518.3    3.8      47.662
2014    9        2    13   4    4.32   518.2    3.8      47.645
2014    9        2    13   9    4.32   518.0    3.8      47.628
2014    9        2    13  14    4.31   517.9    3.8      47.611
2014    9        2    13  19    4.31   517.8    3.8      47.593
2014    9        2    13  24    4.31   517.7    3.8      47.576
2014    9        2    13  29    4.31   517.6    3.8      47.558
2014    9        2    13  34    4.31   517.5    3.8      47.541
2014    9        2    13  39    4.31   517.3    3.8      47.523
2014    9        2    13  44    4.31   517.2    3.8      47.506
2014    9        2    13  49    4.31   517.1    3.8      47.489
2014    9        2    13  54    4.30   517.0    3.8      47.472
2014    9        2    14   0    4.30   516.9    3.8      47.456
2014    9        2    14   5    4.30   516.8    3.8      47.441
2014    9        2    14  10    4.30   516.6    3.8      47.425
2014    9        2    14  15    4.30   516.5    3.8      47.409
2014    9        2    14  20    4.30   516.4    3.8      47.394
2014    9        2    14  25    4.30   516.3    3.8      47.378
2014    9        2    14  30    4.29   516.2    3.8      47.362
2014    9        2    14  35    4.29   516.0    3.8      47.345
2014    9        2    14  40    4.29   515.9    3.8      47.328
2014    9        2    14  45    4.29   515.8    3.8      47.312
2014    9        2    14  50    4.29   515.7    3.8      47.294
2014    9        2    14  55    4.29   515.6    3.8      47.277
2014    9        2    15   1    4.29   515.4    3.8      47.259
2014    9        2    15   6    4.29   515.3    3.8      47.241
2014    9        2    15  11    4.28   515.2    3.8      47.223
2014    9        2    15  16    4.28   515.1    3.8      47.204
2014    9        2    15  21    4.28   515.0    3.8      47.186
2014    9        2    15  26    4.28   514.8    3.8      47.167
2014    9        2    15  31    4.28   514.7    3.8      47.148
2014    9        2    15  37    4.28   514.6    3.8      47.129
2014    9        2    15  42    4.28   514.5    3.8      47.110
2014    9        2    15  47    4.28   514.4    3.8      47.091
2014    9        2    15  52    4.27   514.2    3.8      47.071
2014    9        2    15  57    4.27   514.1    3.8      47.052
2014    9        2    16   2    4.27   514.0    3.8      47.033
2014    9        2    16   8    4.27   513.9    3.8      47.014
2014    9        2    16  13    4.27   513.7    3.8      46.995
2014    9        2    16  18    4.27   513.6    3.8      46.976
2014    9        2    16  23    4.27   513.5    3.8      46.957
2014    9        2    16  28    4.27   513.4    3.8      46.938
2014    9        2    16  34    4.26   513.3    3.8      46.919
2014    9        2    16  39    4.26   513.1    3.8      46.900
2014    9        2    16  44    4.26   513.0    3.8      46.882
2014    9        2    16  49    4.26   512.9    3.8      46.863
2014    9        2    16  55    4.26   512.8    3.8      46.845
2014    9        2    17   0    4.26   512.6    3.8      46.827
2014    9        2    17   5    4.26   512.5    3.8      46.809
2014    9        2    17  10    4.26   512.4    3.8      46.791
2014    9        2    17  16    4.25   512.3    3.8      46.772
2014    9        2    17  21    4.25   512.2    3.8      46.752
2014    9        2    17  26    4.25   512.0    3.8      46.733
2014    9        2    17  32    4.25   511.9    3.8      46.712
2014    9        2    17  37    4.25   511.8    3.8      46.691
2014    9        2    17  42    4.25   511.7    3.8      46.669
2014    9        2    17  48    4.25   511.6    3.8      46.647
2014    9        2    17  53    4.25   511.4    3.8      46.625
2014    9        2    17  58    4.24   511.3    3.8      46.602
2014    9        2    18   4    4.24   511.2    3.8      46.578
2014    9        2    18   9    4.24   511.0    3.8      46.554
2014    9        2    18  14    4.24   510.9    3.8      46.530
2014    9        2    18  20    4.24   510.8    3.8      46.505
2014    9        2    18  25    4.24   510.6    3.8      46.480
2014    9        2    18  31    4.24   510.5    3.8      46.455
2014    9        2    18  36    4.23   510.4    3.8      46.429
2014    9        2    18  41    4.23   510.2    3.8      46.404
2014    9        2    18  47    4.23   510.1    3.8      46.378
2014    9        2    18  52    4.23   509.9    3.8      46.353
2014    9        2    18  58    4.23   509.8    3.8      46.327
2014    9        2    19   3    4.23   509.7    3.8      46.302
2014    9        2    19   9    4.23   509.5    3.8      46.276
2014    9        2    19  14    4.22   509.4    3.8      46.251
2014    9        2    19  19    4.22   509.2    3.8      46.226
2014    9        2    19  25    4.22   509.1    3.8      46.201
2014    9        2    19  30    4.22   508.9    3.8      46.176
2014    9        2    19  36    4.22   508.8    3.8      46.152
2014    9        2    19  41    4.22   508.6    3.8      46.127
2014    9        2    19  47    4.22   508.5    3.8      46.104
2014    9        2    19  52    4.21   508.3    3.8      46.080
2014    9        2    19  58    4.21   508.2    3.8      46.057
2014    9        2    20   3    4.21   508.0    3.8      46.034
2014    9        2    20   9    4.21   507.9    3.8      46.011
2014    9        2    20  14    4.21   507.7    3.8      45.990
2014    9        2    20  20    4.21   507.6    3.8      45.969
2014    9        2    20  25    4.21   507.5    3.8      45.949
2014    9        2    20  31    4.21   507.3    3.8      45.929
2014    9        2    20  36    4.21   507.2    3.8      45.909
2014    9        2    20  42    4.20   507.0    3.8      45.890
2014    9        2    20  48    4.20   506.9    3.8      45.872
2014    9        2    20  53    4.20   506.8    3.8      45.853
2014    9        2    20  59    4.20   506.6    3.8      45.835
2014    9        2    21   4    4.20   506.5    3.8      45.817
2014    9        2    21  10    4.20   506.3    3.8      45.800
2014    9        2    21  15    4.20   506.2    3.8      45.783
2014    9        2    21  21    4.20   506.1    3.8      45.767
2014    9        2    21  27    4.19   505.9    3.8      45.752
2014    9        2    21  32    4.19   505.8    3.8      45.736
2014    9        2    21  38    4.19   505.7    3.8      45.721
2014    9        2    21  43    4.19   505.5    3.8      45.705
2014    9        2    21  49    4.19   505.4    3.8      45.690
2014    9        2    21  55    4.19   505.2    3.8      45.674
2014    9        2    22   0    4.19   505.1    3.8      45.658
2014    9        2    22   6    4.19   505.0    3.8      45.642
2014    9        2    22  11    4.18   504.8    3.8      45.626
2014    9        2    22  17    4.18   504.7    3.8      45.609
2014    9        2    22  23    4.18   504.6    3.8      45.592
2014    9        2    22  28    4.18   504.4    3.8      45.575
2014    9        2    22  34    4.18   504.3    3.8      45.557
2014    9        2    22  40    4.18   504.2    3.8      45.539
2014    9        2    22  45    4.18   504.0    3.8      45.521
2014    9        2    22  51    4.18   503.9    3.8      45.503
2014    9        2    22  57    4.17   503.7    3.8      45.483
2014    9        2    23   2    4.17   503.6    3.8      45.464
2014    9        2    23   8    4.17   503.5    3.8      45.444
2014    9        2    23  13    4.17   503.3    3.8      45.424
2014    9        2    23  19    4.17   503.2    3.8      45.404
2014    9        2    23  25    4.17   503.0    3.8      45.383
2014    9        2    23  30    4.17   502.9    3.8      45.361
2014    9        2    23  36    4.16   502.8    3.8      45.340
2014    9        2    23  42    4.16   502.6    3.8      45.318
2014    9        2    23  47    4.16   502.5    3.8      45.295
2014    9        2    23  53    4.16   502.3    3.8      45.272
2014    9        2    23  59    4.16   502.2    3.8      45.249
2014    9        3     0   4    4.16   502.0    3.8      45.226
2014    9        3     0  10    4.15   501.9    3.8      45.202
2014    9        3     0  16    4.15   501.8    3.8      45.178
2014    9        3     0  21    4.15   501.6    3.8      45.154
2014    9        3     0  27    4.15   501.5    3.8      45.130
2014    9        3     0  33    4.15   501.3    3.8      45.105
2014    9        3     0  38    4.15   501.2    3.8      45.080
2014    9        3     0  44    4.15   501.0    3.8      45.055
2014    9        3     0  50    4.14   500.9    3.8      45.030
2014    9        3     0  55    4.14   500.7    3.8      45.005
2014    9        3     1   1    4.14   500.6    3.8      44.980
2014    9        3     1   7    4.14   500.4    3.8      44.955
2014    9        3     1  12    4.14   500.3    3.8      44.929
2014    9        3     1  18    4.14   500.1    3.8      44.904
2014    9        3     1  24    4.14   500.0    3.8      44.879
2014    9        3     1  29    4.14   499.8    3.8      44.854
2014    9        3     1  35    4.13   499.7    3.8      44.829
2014    9        3     1  41    4.13   499.5    3.8      44.804
2014    9        3     1  46    4.13   499.4    3.8      44.779
2014    9        3     1  52    4.13   499.2    3.8      44.754
2014    9        3     1  58    4.13   499.1    3.8      44.729
2014    9        3     2   3    4.13   498.9    3.8      44.704
2014    9        3     2   9    4.13   498.8    3.8      44.679
2014    9        3     2  15    4.12   498.6    3.8      44.654
2014    9        3     2  20    4.12   498.5    3.8      44.628
2014    9        3     2  26    4.12   498.3    3.8      44.603
2014    9        3     2  32    4.12   498.2    3.8      44.578
2014    9        3     2  37    4.12   498.0    3.8      44.552
2014    9        3     2  43    4.12   497.8    3.8      44.526
2014    9        3     2  49    4.12   497.7    3.8      44.501
2014    9        3     2  54    4.12   497.5    3.8      44.475
2014    9        3     3   0    4.11   497.4    3.8      44.450
2014    9        3     3   6    4.11   497.2    3.8      44.425
2014    9        3     3  11    4.11   497.1    3.8      44.400
2014    9        3     3  17    4.11   496.9    3.8      44.374
2014    9        3     3  23    4.11   496.7    3.8      44.350
2014    9        3     3  28    4.11   496.6    3.8      44.326
2014    9        3     3  34    4.11   496.4    3.8      44.303
2014    9        3     3  40    4.11   496.3    3.8      44.280
2014    9        3     3  45    4.11   496.1    3.8      44.258
2014    9        3     3  51    4.10   496.0    3.8      44.236
2014    9        3     3  56    4.10   495.8    3.8      44.213
2014    9        3     4   2    4.10   495.7    3.8      44.191
2014    9        3     4   8    4.10   495.5    3.8      44.168
2014    9        3     4  13    4.10   495.4    3.8      44.146
2014    9        3     4  19    4.10   495.2    3.8      44.123
2014    9        3     4  25    4.10   495.1    3.8      44.100
2014    9        3     4  30    4.10   494.9    3.8      44.077
2014    9        3     4  36    4.09   494.8    3.8      44.053
2014    9        3     4  42    4.09   494.6    3.8      44.030
2014    9        3     4  47    4.09   494.5    3.9      44.007
2014    9        3     4  53    4.09   494.4    3.9      43.983
2014    9        3     4  59    4.09   494.2    3.9      43.959
2014    9        3     5   4    4.09   494.1    3.9      43.936
2014    9        3     5  10    4.09   493.9    3.9      43.912
2014    9        3     5  16    4.09   493.7    3.9      43.888
2014    9        3     5  21    4.08   493.6    3.9      43.864
2014    9        3     5  27    4.08   493.4    3.9      43.840
2014    9        3     5  33    4.08   493.3    3.9      43.816
2014    9        3     5  38    4.08   493.1    3.9      43.791
2014    9        3     5  44    4.08   493.0    3.9      43.767
2014    9        3     5  50    4.08   492.8    3.9      43.742
2014    9        3     5  55    4.08   492.7    3.9      43.718
2014    9        3     6   1    4.07   492.5    3.9      43.693
2014    9        3     6   7    4.07   492.3    3.9      43.667
2014    9        3     6  12    4.07   492.2    3.9      43.642
2014    9        3     6  18    4.07   492.0    3.9      43.617
2014    9        3     6  24    4.07   491.8    3.9      43.591
2014    9        3     6  29    4.07   491.7    3.9      43.566
2014    9        3     6  35    4.07   491.5    3.9      43.540
2014    9        3     6  41    4.06   491.4    3.9      43.514
2014    9        3     6  46    4.06   491.2    3.9      43.489
2014    9        3     6  52    4.06   491.0    3.9      43.465
2014    9        3     6  58    4.06   490.9    3.9      43.440
2014    9        3     7   3    4.06   490.7    3.9      43.415
2014    9        3     7   9    4.06   490.5    3.9      43.391
2014    9        3     7  15    4.06   490.3    3.9      43.367
2014    9        3     7  20    4.06   490.2    3.9      43.343
2014    9        3     7  26    4.05   490.0    3.9      43.319
2014    9        3     7  32    4.05   489.8    3.9      43.295
2014    9        3     7  37    4.05   489.7    3.9      43.271
2014    9        3     7  43    4.05   489.5    3.9      43.248
2014    9        3     7  49    4.05   489.3    3.9      43.224
2014    9        3     7  54    4.05   489.2    3.9      43.201
2014    9        3     8   0    4.05   489.0    3.9      43.179
2014    9        3     8   5    4.05   488.8    3.9      43.156
2014    9        3     8  11    4.05   488.7    3.9      43.134
2014    9        3     8  17    4.04   488.5    3.9      43.112
2014    9        3     8  22    4.04   488.4    3.9      43.090
2014    9        3     8  28    4.04   488.2    3.9      43.068
2014    9        3     8  34    4.04   488.0    3.9      43.047
2014    9        3     8  39    4.04   487.9    3.9      43.026
2014    9        3     8  45    4.04   487.7    3.9      43.005
2014    9        3     8  51    4.04   487.5    3.9      42.984
2014    9        3     8  56    4.04   487.4    3.9      42.963
2014    9        3     9   2    4.04   487.2    3.9      42.942
2014    9        3     9   8    4.03   487.1    3.9      42.922
2014    9        3     9  13    4.03   486.9    3.9      42.901
2014    9        3     9  19    4.03   486.7    3.9      42.880
2014    9        3     9  25    4.03   486.6    3.9      42.860
2014    9        3     9  30    4.03   486.4    3.9      42.839
2014    9        3     9  36    4.03   486.3    3.9      42.819
2014    9        3     9  42    4.03   486.1    3.9      42.798
2014    9        3     9  47    4.03   485.9    3.9      42.778
2014    9        3     9  53    4.03   485.8    3.9      42.757
2014    9        3     9  59    4.03   485.6    3.9      42.737
2014    9        3    10   4    4.02   485.4    3.9      42.716
2014    9        3    10  10    4.02   485.3    3.9      42.694
2014    9        3    10  16    4.02   485.1    3.9      42.673
2014    9        3    10  21    4.02   484.9    3.9      42.651
2014    9        3    10  27    4.02   484.8    3.9      42.630
2014    9        3    10  33    4.02   484.6    3.9      42.608
2014    9        3    10  38    4.02   484.4    3.9      42.586
2014    9        3    10  44    4.02   484.3    3.9      42.563
2014    9        3    10  50    4.01   484.1    3.9      42.541
2014    9        3    10  55    4.01   484.0    3.9      42.518
2014    9        3    11   1    4.01   483.8    3.9      42.495
2014    9        3    11   7    4.01   483.6    3.9      42.472
2014    9        3    11  12    4.01   483.5    3.9      42.449
2014    9        3    11  18    4.01   483.3    3.9      42.426
2014    9        3    11  24    4.01   483.2    3.9      42.403
2014    9        3    11  29    4.01   483.0    3.9      42.380
2014    9        3    11  35    4.01   482.8    3.9      42.356
2014    9        3    11  41    4.00   482.7    3.9      42.332
2014    9        3    11  46    4.00   482.5    3.9      42.308
2014    9        3    11  52    4.00   482.3    3.9      42.284
2014    9        3    11  58    4.00   482.2    3.9      42.260
2014    9        3    12   3    4.00   482.0    3.9      42.235
2014    9        3    12   9    4.00   481.9    3.9      42.210
2014    9        3    12  15    4.00   481.7    3.9      42.185
2014    9        3    12  20    4.00   481.5    3.9      42.160
2014    9        3    12  26    4.00   481.4    3.9      42.134
2014    9        3    12  32    3.99   481.2    3.9      42.108
2014    9        3    12  37    3.99   481.0    3.9      42.082
2014    9        3    12  43    3.99   480.9    3.9      42.056
2014    9        3    12  48    3.99   480.7    3.9      42.029
2014    9        3    12  54    3.99   480.5    3.9      42.002
2014    9        3    13   0    3.99   480.4    3.9      41.975
2014    9        3    13   5    3.99   480.2    3.9      41.947
2014    9        3    13  11    3.99   480.0    3.9      41.920
2014    9        3    13  17    3.98   479.8    3.9      41.892
2014    9        3    13  22    3.98   479.7    3.9      41.864
2014    9        3    13  28    3.98   479.5    3.9      41.836
2014    9        3    13  34    3.98   479.3    3.9      41.808
2014    9        3    13  39    3.98   479.1    3.9      41.780
2014    9        3    13  45    3.98   478.9    3.9      41.752
2014    9        3    13  51    3.98   478.8    3.9      41.724
2014    9        3    13  56    3.98   478.6    3.9      41.697
2014    9        3    14   2    3.98   478.4    4.0      41.670
2014    9        3    14   8    3.97   478.2    4.0      41.643
2014    9        3    14  13    3.97   478.1    4.0      41.617
2014    9        3    14  19    3.97   477.9    4.0      41.592
2014    9        3    14  25    3.97   477.7    4.0      41.566
2014    9        3    14  30    3.97   477.5    4.0      41.541
2014    9        3    14  36    3.97   477.3    4.0      41.517
2014    9        3    14  42    3.97   477.2    4.0      41.492
2014    9        3    14  47    3.97   477.0    4.0      41.468
2014    9        3    14  53    3.97   476.8    4.0      41.443
2014    9        3    14  59    3.97   476.7    4.0      41.419
2014    9        3    15   4    3.96   476.5    4.0      41.395
2014    9        3    15  10    3.96   476.3    4.0      41.372
2014    9        3    15  16    3.96   476.1    4.0      41.349
2014    9        3    15  21    3.96   476.0    4.0      41.326
2014    9        3    15  27    3.96   475.8    4.0      41.303
2014    9        3    15  33    3.96   475.6    4.0      41.280
2014    9        3    15  38    3.96   475.4    4.0      41.258
2014    9        3    15  44    3.96   475.3    4.0      41.235
2014    9        3    15  50    3.96   475.1    4.0      41.213
2014    9        3    15  55    3.96   474.9    4.0      41.191
2014    9        3    16   1    3.96   474.7    4.0      41.169
2014    9        3    16   7    3.95   474.6    4.0      41.147
2014    9        3    16  12    3.95   474.4    4.0      41.125
2014    9        3    16  18    3.95   474.2    4.0      41.103
2014    9        3    16  24    3.95   474.0    4.0      41.081
2014    9        3    16  29    3.95   473.9    4.0      41.059
2014    9        3    16  35    3.95   473.7    4.0      41.038
2014    9        3    16  41    3.95   473.5    4.0      41.016
2014    9        3    16  46    3.95   473.4    4.0      40.994
2014    9        3    16  52    3.95   473.2    4.0      40.972
2014    9        3    16  58    3.95   473.0    4.0      40.950
2014    9        3    17   3    3.95   472.8    4.0      40.928
2014    9        3    17   9    3.94   472.6    4.0      40.906
2014    9        3    17  15    3.94   472.5    4.0      40.883
2014    9        3    17  20    3.94   472.3    4.0      40.861
2014    9        3    17  26    3.94   472.1    4.0      40.838
2014    9        3    17  31    3.94   471.9    4.0      40.815
2014    9        3    17  37    3.94   471.7    4.0      40.793
2014    9        3    17  43    3.94   471.6    4.0      40.770
2014    9        3    17  48    3.94   471.4    4.0      40.747
2014    9        3    17  54    3.94   471.2    4.0      40.724
2014    9        3    18   0    3.94   471.0    4.0      40.701
2014    9        3    18   5    3.93   470.8    4.0      40.678
2014    9        3    18  11    3.93   470.7    4.0      40.654
2014    9        3    18  17    3.93   470.5    4.0      40.631
2014    9        3    18  22    3.93   470.3    4.0      40.608
2014    9        3    18  28    3.93   470.1    4.0      40.584
2014    9        3    18  34    3.93   469.9    4.0      40.561
2014    9        3    18  39    3.93   469.8    4.0      40.537
2014    9        3    18  45    3.93   469.6    4.0      40.514
2014    9        3    18  51    3.93   469.4    4.0      40.490
2014    9        3    18  56    3.93   469.2    4.0      40.467
2014    9        3    19   2    3.93   469.1    4.0      40.443
2014    9        3    19   8    3.92   468.9    4.1      40.419
2014    9        3    19  13    3.92   468.7    4.1      40.395
2014    9        3    19  19    3.92   468.5    4.1      40.371
2014    9        3    19  25    3.92   468.3    4.1      40.347
2014    9        3    19  30    3.92   468.2    4.1      40.323
2014    9        3    19  36    3.92   468.0    4.1      40.299
2014    9        3    19  42    3.92   467.8    4.1      40.274
2014    9        3    19  47    3.92   467.6    4.1      40.250
2014    9        3    19  53    3.92   467.4    4.1      40.225
2014    9        3    19  59    3.92   467.3    4.1      40.200
2014    9        3    20   4    3.92   467.1    4.1      40.175
2014    9        3    20  10    3.91   466.9    4.1      40.150
2014    9        3    20  16    3.91   466.7    4.1      40.125
2014    9        3    20  21    3.91   466.5    4.1      40.100
2014    9        3    20  27    3.91   466.4    4.1      40.074
2014    9        3    20  33    3.91   466.2    4.1      40.049
2014    9        3    20  38    3.91   466.0    4.1      40.023
2014    9        3    20  44    3.91   465.8    4.1      39.998
2014    9        3    20  50    3.91   465.6    4.1      39.972
2014    9        3    20  55    3.91   465.5    4.1      39.947
2014    9        3    21   1    3.91   465.3    4.1      39.921
2014    9        3    21   7    3.91   465.1    4.1      39.896
2014    9        3    21  12    3.90   464.9    4.1      39.870
2014    9        3    21  18    3.90   464.8    4.1      39.845
2014    9        3    21  24    3.90   464.6    4.1      39.820
2014    9        3    21  29    3.90   464.4    4.1      39.794
2014    9        3    21  35    3.90   464.2    4.1      39.769
2014    9        3    21  41    3.90   464.0    4.1      39.744
2014    9        3    21  46    3.90   463.9    4.1      39.719
2014    9        3    21  52    3.90   463.7    4.1      39.694
2014    9        3    21  58    3.90   463.5    4.1      39.669
2014    9        3    22   3    3.90   463.3    4.1      39.644
2014    9        3    22   9    3.90   463.2    4.1      39.619
2014    9        3    22  14    3.90   463.0    4.1      39.593
2014    9        3    22  20    3.89   462.8    4.1      39.568
2014    9        3    22  26    3.89   462.6    4.1      39.542
2014    9        3    22  31    3.89   462.5    4.1      39.517
2014    9        3    22  37    3.89   462.3    4.1      39.492
2014    9        3    22  43    3.89   462.1    4.1      39.466
2014    9        3    22  48    3.89   461.9    4.1      39.440
2014    9        3    22  54    3.89   461.8    4.1      39.414
2014    9        3    23   0    3.89   461.6    4.1      39.389
2014    9        3    23   5    3.89   461.4    4.1      39.363
2014    9        3    23  11    3.89   461.2    4.1      39.337
2014    9        3    23  17    3.89   461.0    4.1      39.311
2014    9        3    23  22    3.89   460.8    4.1      39.285
2014    9        3    23  28    3.88   460.7    4.1      39.259
2014    9        3    23  34    3.88   460.5    4.1      39.233
2014    9        3    23  39    3.88   460.3    4.1      39.207
2014    9        3    23  45    3.88   460.1    4.1      39.181
2014    9        3    23  51    3.88   459.9    4.1      39.156
2014    9        3    23  56    3.88   459.7    4.1      39.131
2014    9        4     0   2    3.88   459.6    4.1      39.106
2014    9        4     0   8    3.88   459.4    4.1      39.081
2014    9        4     0  13    3.88   459.2    4.1      39.056
2014    9        4     0  19    3.88   459.0    4.1      39.031
2014    9        4     0  25    3.88   458.8    4.2      39.007
2014    9        4     0  30    3.88   458.6    4.2      38.983
2014    9        4     0  36    3.88   458.4    4.2      38.959
2014    9        4     0  42    3.88   458.3    4.2      38.934
2014    9        4     0  47    3.87   458.1    4.2      38.910
2014    9        4     0  53    3.87   457.9    4.2      38.887
2014    9        4     0  59    3.87   457.7    4.2      38.863
2014    9        4     1   4    3.87   457.5    4.2      38.840
2014    9        4     1  10    3.87   457.3    4.2      38.816
2014    9        4     1  16    3.87   457.1    4.2      38.793
2014    9        4     1  21    3.87   457.0    4.2      38.770
2014    9        4     1  27    3.87   456.8    4.2      38.746
2014    9        4     1  33    3.87   456.6    4.2      38.723
2014    9        4     1  38    3.87   456.4    4.2      38.700
2014    9        4     1  44    3.87   456.2    4.2      38.677
2014    9        4     1  50    3.87   456.0    4.2      38.654
2014    9        4     1  55    3.87   455.8    4.2      38.631
2014    9        4     2   1    3.87   455.7    4.2      38.608
2014    9        4     2   7    3.86   455.5    4.2      38.585
2014    9        4     2  12    3.86   455.3    4.2      38.562
2014    9        4     2  18    3.86   455.1    4.2      38.539
2014    9        4     2  24    3.86   454.9    4.2      38.517
2014    9        4     2  29    3.86   454.7    4.2      38.493
2014    9        4     2  35    3.86   454.5    4.2      38.471
2014    9        4     2  41    3.86   454.3    4.2      38.447
2014    9        4     2  46    3.86   454.2    4.2      38.425
2014    9        4     2  52    3.86   454.0    4.2      38.401
2014    9        4     2  58    3.86   453.8    4.2      38.378
2014    9        4     3   3    3.86   453.6    4.2      38.355
2014    9        4     3   9    3.86   453.4    4.2      38.332
2014    9        4     3  14    3.86   453.2    4.2      38.309
2014    9        4     3  20    3.86   453.0    4.2      38.285
2014    9        4     3  26    3.86   452.9    4.2      38.261
2014    9        4     3  31    3.86   452.7    4.2      38.238
2014    9        4     3  37    3.85   452.5    4.2      38.214
2014    9        4     3  43    3.85   452.3    4.2      38.190
2014    9        4     3  48    3.85   452.1    4.3      38.166
2014    9        4     3  54    3.85   451.9    4.3      38.142
2014    9        4     4   0    3.85   451.7    4.3      38.118
2014    9        4     4   5    3.85   451.6    4.3      38.093
2014    9        4     4  11    3.85   451.4    4.3      38.069
2014    9        4     4  17    3.85   451.2    4.3      38.044
2014    9        4     4  22    3.85   451.0    4.3      38.019
2014    9        4     4  28    3.85   450.8    4.3      37.994
2014    9        4     4  34    3.85   450.6    4.3      37.969
2014    9        4     4  39    3.85   450.5    4.3      37.944
2014    9        4     4  45    3.85   450.3    4.3      37.918
2014    9        4     4  51    3.85   450.1    4.3      37.893
2014    9        4     4  56    3.85   449.9    4.3      37.867
2014    9        4     5   2    3.85   449.7    4.3      37.841
2014    9        4     5   8    3.85   449.5    4.3      37.815
2014    9        4     5  13    3.84   449.4    4.3      37.789
2014    9        4     5  19    3.84   449.2    4.3      37.762
2014    9        4     5  25    3.84   449.0    4.3      37.736
2014    9        4     5  30    3.84   448.8    4.3      37.709
2014    9        4     5  36    3.84   448.6    4.3      37.682
2014    9        4     5  42    3.84   448.4    4.3      37.655
2014    9        4     5  47    3.84   448.3    4.3      37.628
2014    9        4     5  53    3.84   448.1    4.3      37.601
2014    9        4     5  59    3.84   447.9    4.3      37.574
2014    9        4     6   4    3.84   447.7    4.3      37.546
2014    9        4     6  10    3.84   447.5    4.3      37.519
2014    9        4     6  16    3.84   447.3    4.3      37.491
2014    9        4     6  21    3.84   447.1    4.3      37.463
2014    9        4     6  27    3.84   447.0    4.3      37.436
2014    9        4     6  33    3.84   446.8    4.3      37.408
2014    9        4     6  38    3.83   446.6    4.3      37.380
2014    9        4     6  44    3.83   446.4    4.3      37.352
2014    9        4     6  50    3.83   446.2    4.3      37.325
2014    9        4     6  55    3.83   446.0    4.3      37.297
2014    9        4     7   1    3.83   445.8    4.3      37.270
2014    9        4     7   7    3.83   445.7    4.3      37.242
2014    9        4     7  12    3.83   445.5    4.3      37.215
2014    9        4     7  18    3.83   445.3    4.3      37.188
2014    9        4     7  24    3.83   445.1    4.3      37.160
2014    9        4     7  29    3.83   444.9    4.3      37.134
2014    9        4     7  35    3.83   444.7    4.3      37.107
2014    9        4     7  41    3.83   444.5    4.4      37.080
2014    9        4     7  46    3.83   444.4    4.4      37.054
2014    9        4     7  52    3.83   444.2    4.4      37.028
2014    9        4     7  58    3.83   444.0    4.4      37.002
2014    9        4     8   3    3.83   443.8    4.4      36.976
2014    9        4     8   9    3.83   443.6    4.4      36.951
2014    9        4     8  15    3.83   443.4    4.4      36.925
2014    9        4     8  20    3.83   443.2    4.4      36.900
2014    9        4     8  26    3.82   443.1    4.4      36.875
2014    9        4     8  31    3.82   442.9    4.4      36.850
2014    9        4     8  37    3.82   442.7    4.4      36.826
2014    9        4     8  43    3.82   442.5    4.4      36.801
2014    9        4     8  48    3.82   442.3    4.4      36.777
2014    9        4     8  54    3.82   442.1    4.4      36.753
2014    9        4     9   0    3.82   442.0    4.4      36.729
2014    9        4     9   5    3.82   441.8    4.4      36.705
2014    9        4     9  11    3.82   441.6    4.4      36.681
2014    9        4     9  17    3.82   441.4    4.4      36.657
2014    9        4     9  22    3.82   441.2    4.4      36.633
2014    9        4     9  28    3.82   441.0    4.4      36.610
2014    9        4     9  34    3.82   440.9    4.4      36.586
2014    9        4     9  39    3.82   440.7    4.4      36.562
2014    9        4     9  45    3.82   440.5    4.4      36.539
2014    9        4     9  51    3.82   440.3    4.4      36.515
2014    9        4     9  56    3.82   440.1    4.4      36.492
2014    9        4    10   2    3.82   439.9    4.4      36.468
2014    9        4    10   8    3.82   439.7    4.4      36.445
2014    9        4    10  13    3.82   439.6    4.4      36.422
2014    9        4    10  19    3.82   439.4    4.4      36.398
2014    9        4    10  25    3.82   439.2    4.4      36.375
2014    9        4    10  30    3.82   439.0    4.5      36.351
2014    9        4    10  36    3.82   438.8    4.5      36.328
2014    9        4    10  42    3.82   438.6    4.5      36.304
2014    9        4    10  47    3.82   438.4    4.5      36.280
2014    9        4    10  53    3.81   438.3    4.5      36.257
2014    9        4    10  59    3.81   438.1    4.5      36.233
2014    9        4    11   4    3.81   437.9    4.5      36.209
2014    9        4    11  10    3.81   437.7    4.5      36.184
2014    9        4    11  16    3.81   437.5    4.5      36.160
2014    9        4    11  21    3.81   437.3    4.5      36.136
2014    9        4    11  27    3.81   437.1    4.5      36.111
2014    9        4    11  33    3.81   437.0    4.5      36.087
2014    9        4    11  38    3.81   436.8    4.5      36.062
2014    9        4    11  44    3.81   436.6    4.5      36.038
2014    9        4    11  50    3.81   436.4    4.5      36.013
2014    9        4    11  55    3.81   436.2    4.5      35.988
2014    9        4    12   1    3.81   436.0    4.5      35.963
2014    9        4    12   7    3.81   435.8    4.5      35.938
2014    9        4    12  12    3.81   435.7    4.5      35.912
2014    9        4    12  18    3.81   435.5    4.5      35.887
2014    9        4    12  24    3.81   435.3    4.5      35.862
2014    9        4    12  29    3.81   435.1    4.5      35.836
2014    9        4    12  35    3.81   434.9    4.5      35.811
2014    9        4    12  41    3.81   434.7    4.5      35.785
2014    9        4    12  46    3.81   434.5    4.5      35.759
2014    9        4    12  52    3.81   434.4    4.5      35.733
2014    9        4    12  58    3.81   434.2    4.5      35.708
2014    9        4    13   3    3.81   434.0    4.5      35.682
2014    9        4    13   9    3.81   433.8    4.6      35.656
2014    9        4    13  15    3.81   433.6    4.6      35.630
2014    9        4    13  20    3.80   433.4    4.6      35.603
2014    9        4    13  26    3.80   433.2    4.6      35.577
2014    9        4    13  32    3.80   433.1    4.6      35.551
2014    9        4    13  37    3.80   432.9    4.6      35.525
2014    9        4    13  43    3.80   432.7    4.6      35.498
2014    9        4    13  48    3.80   432.5    4.6      35.472
2014    9        4    13  54    3.80   432.3    4.6      35.445
2014    9        4    14   0    3.80   432.1    4.6      35.419
2014    9        4    14   5    3.80   432.0    4.6      35.392
2014    9        4    14  11    3.80   431.8    4.6      35.366
2014    9        4    14  17    3.80   431.6    4.6      35.339
2014    9        4    14  22    3.80   431.4    4.6      35.313
2014    9        4    14  28    3.80   431.2    4.6      35.286
2014    9        4    14  34    3.80   431.0    4.6      35.259
2014    9        4    14  39    3.80   430.8    4.6      35.233
2014    9        4    14  45    3.80   430.7    4.6      35.206
2014    9        4    14  51    3.80   430.5    4.6      35.179
2014    9        4    14  56    3.80   430.3    4.6      35.153
2014    9        4    15   2    3.80   430.1    4.6      35.126
2014    9        4    15   8    3.80   429.9    4.6      35.099
2014    9        4    15  13    3.80   429.7    4.6      35.073
2014    9        4    15  19    3.80   429.6    4.6      35.046
2014    9        4    15  25    3.80   429.4    4.6      35.020
2014    9        4    15  30    3.80   429.2    4.6      34.993
2014    9        4    15  36    3.80   429.0    4.6      34.967
2014    9        4    15  42    3.80   428.8    4.6      34.940
2014    9        4    15  47    3.80   428.6    4.6      34.914
2014    9        4    15  53    3.80   428.4    4.6      34.888
2014    9        4    15  59    3.79   428.3    4.6      34.861
2014    9        4    16   4    3.79   428.1    4.7      34.835
2014    9        4    16  10    3.79   427.9    4.7      34.809
2014    9        4    16  16    3.79   427.7    4.7      34.783
2014    9        4    16  21    3.79   427.5    4.7      34.758
2014    9        4    16  27    3.79   427.3    4.7      34.732
2014    9        4    16  33    3.79   427.2    4.7      34.706
2014    9        4    16  38    3.79   427.0    4.7      34.681
2014    9        4    16  44    3.79   426.8    4.7      34.655
2014    9        4    16  50    3.79   426.6    4.7      34.630
2014    9        4    16  55    3.79   426.4    4.7      34.605
2014    9        4    17   1    3.79   426.2    4.7      34.580
2014    9        4    17   7    3.79   426.1    4.7      34.555
2014    9        4    17  12    3.79   425.9    4.7      34.530
2014    9        4    17  18    3.79   425.7    4.7      34.505
2014    9        4    17  24    3.79   425.5    4.7      34.480
2014    9        4    17  29    3.79   425.3    4.7      34.455
2014    9        4    17  35    3.79   425.2    4.7      34.431
2014    9        4    17  41    3.79   425.0    4.7      34.406
2014    9        4    17  46    3.79   424.8    4.7      34.382
2014    9        4    17  52    3.79   424.6    4.7      34.357
2014    9        4    17  58    3.79   424.4    4.7      34.333
2014    9        4    18   3    3.79   424.2    4.7      34.308
2014    9        4    18   9    3.79   424.1    4.7      34.284
2014    9        4    18  15    3.79   423.9    4.7      34.259
2014    9        4    18  20    3.79   423.7    4.7      34.235
2014    9        4    18  26    3.79   423.5    4.7      34.210
2014    9        4    18  32    3.79   423.3    4.8      34.186
2014    9        4    18  37    3.79   423.2    4.8      34.161
2014    9        4    18  43    3.79   423.0    4.8      34.136
2014    9        4    18  48    3.79   422.8    4.8      34.112
2014    9        4    18  54    3.79   422.6    4.8      34.087
2014    9        4    19   0    3.79   422.4    4.8      34.062
2014    9        4    19   5    3.79   422.2    4.8      34.038
2014    9        4    19  11    3.79   422.1    4.8      34.013
2014    9        4    19  17    3.79   421.9    4.8      33.988
2014    9        4    19  22    3.79   421.7    4.8      33.963
2014    9        4    19  28    3.79   421.5    4.8      33.938
2014    9        4    19  34    3.79   421.3    4.8      33.913
2014    9        4    19  39    3.79   421.1    4.8      33.888
2014    9        4    19  45    3.79   421.0    4.8      33.863
2014    9        4    19  51    3.79   420.8    4.8      33.837
2014    9        4    19  56    3.79   420.6    4.8      33.812
2014    9        4    20   2    3.79   420.4    4.8      33.787
2014    9        4    20   8    3.79   420.2    4.8      33.761
2014    9        4    20  13    3.79   420.0    4.8      33.736
2014    9        4    20  19    3.79   419.9    4.8      33.710
2014    9        4    20  25    3.79   419.7    4.8      33.685
2014    9        4    20  30    3.79   419.5    4.8      33.659
2014    9        4    20  36    3.79   419.3    4.8      33.634
2014    9        4    20  42    3.79   419.1    4.8      33.608
2014    9        4    20  47    3.79   418.9    4.8      33.582
2014    9        4    20  53    3.78   418.7    4.9      33.557
2014    9        4    20  59    3.78   418.6    4.9      33.531
2014    9        4    21   4    3.78   418.4    4.9      33.505
2014    9        4    21  10    3.78   418.2    4.9      33.480
2014    9        4    21  16    3.78   418.0    4.9      33.454
2014    9        4    21  21    3.78   417.8    4.9      33.428
2014    9        4    21  27    3.78   417.6    4.9      33.402
2014    9        4    21  33    3.78   417.4    4.9      33.377
2014    9        4    21  38    3.78   417.3    4.9      33.351
2014    9        4    21  44    3.78   417.1    4.9      33.326
2014    9        4    21  50    3.78   416.9    4.9      33.300
2014    9        4    21  55    3.78   416.7    4.9      33.275
2014    9        4    22   1    3.78   416.5    4.9      33.249
2014    9        4    22   7    3.78   416.3    4.9      33.224
2014    9        4    22  12    3.78   416.2    4.9      33.199
2014    9        4    22  18    3.78   416.0    4.9      33.174
2014    9        4    22  24    3.78   415.8    4.9      33.149
2014    9        4    22  29    3.78   415.6    4.9      33.124
2014    9        4    22  35    3.78   415.4    4.9      33.099
2014    9        4    22  41    3.78   415.2    4.9      33.074
2014    9        4    22  46    3.78   415.0    4.9      33.050
2014    9        4    22  52    3.78   414.9    4.9      33.025
2014    9        4    22  58    3.78   414.7    4.9      33.001
2014    9        4    23   3    3.78   414.5    4.9      32.977
2014    9        4    23   9    3.78   414.3    4.9      32.953
2014    9        4    23  15    3.78   414.1    4.9      32.929
2014    9        4    23  20    3.78   413.9    5.0      32.905
2014    9        4    23  26    3.78   413.8    5.0      32.881
2014    9        4    23  32    3.78   413.6    5.0      32.858
2014    9        4    23  37    3.78   413.4    5.0      32.834
2014    9        4    23  43    3.78   413.2    5.0      32.811
2014    9        4    23  49    3.78   413.0    5.0      32.788
2014    9        4    23  54    3.78   412.8    5.0      32.765
2014    9        5     0   0    3.78   412.7    5.0      32.742
2014    9        5     0   6    3.78   412.5    5.0      32.719
2014    9        5     0  11    3.78   412.3    5.0      32.697
2014    9        5     0  17    3.78   412.1    5.0      32.674
2014    9        5     0  22    3.78   411.9    5.0      32.652
2014    9        5     0  28    3.78   411.8    5.0      32.630
2014    9        5     0  34    3.78   411.6    5.0      32.608
2014    9        5     0  39    3.78   411.4    5.0      32.586
2014    9        5     0  45    3.78   411.2    5.0      32.564
2014    9        5     0  51    3.78   411.0    5.0      32.542
2014    9        5     0  56    3.78   410.8    5.0      32.520
2014    9        5     1   2    3.78   410.7    5.0      32.498
2014    9        5     1   8    3.78   410.5    5.0      32.477
2014    9        5     1  13    3.78   410.3    5.0      32.455
2014    9        5     1  19    3.78   410.1    5.0      32.434
2014    9        5     1  25    3.78   409.9    5.0      32.413
2014    9        5     1  30    3.78   409.8    5.1      32.391
2014    9        5     1  36    3.78   409.6    5.1      32.370
2014    9        5     1  42    3.78   409.4    5.1      32.348
2014    9        5     1  47    3.78   409.2    5.1      32.327
2014    9        5     1  53    3.78   409.0    5.1      32.306
2014    9        5     1  59    3.78   408.9    5.1      32.285
2014    9        5     2   4    3.78   408.7    5.1      32.263
2014    9        5     2  10    3.78   408.5    5.1      32.242
2014    9        5     2  16    3.78   408.3    5.1      32.221
2014    9        5     2  21    3.78   408.1    5.1      32.199
2014    9        5     2  27    3.78   408.0    5.1      32.178
2014    9        5     2  33    3.78   407.8    5.1      32.156
2014    9        5     2  38    3.78   407.6    5.1      32.135
2014    9        5     2  44    3.78   407.4    5.1      32.113
2014    9        5     2  50    3.78   407.2    5.1      32.091
2014    9        5     2  55    3.78   407.1    5.1      32.070
2014    9        5     3   1    3.78   406.9    5.1      32.048
2014    9        5     3   7    3.78   406.7    5.1      32.026
2014    9        5     3  12    3.78   406.5    5.1      32.004
2014    9        5     3  18    3.78   406.3    5.1      31.982
2014    9        5     3  24    3.78   406.2    5.1      31.960
2014    9        5     3  29    3.79   406.0    5.2      31.939
2014    9        5     3  35    3.79   405.8    5.2      31.916
2014    9        5     3  41    3.79   405.6    5.2      31.895
2014    9        5     3  46    3.79   405.4    5.2      31.872
2014    9        5     3  52    3.79   405.3    5.2      31.850
2014    9        5     3  58    3.79   405.1    5.2      31.828
2014    9        5     4   3    3.79   404.9    5.2      31.806
2014    9        5     4   9    3.79   404.7    5.2      31.784
2014    9        5     4  15    3.79   404.5    5.2      31.762
2014    9        5     4  20    3.79   404.3    5.2      31.740
2014    9        5     4  26    3.79   404.2    5.2      31.718
2014    9        5     4  32    3.79   404.0    5.2      31.696
2014    9        5     4  37    3.79   403.8    5.2      31.674
2014    9        5     4  43    3.79   403.6    5.2      31.652
2014    9        5     4  49    3.79   403.4    5.2      31.630
2014    9        5     4  54    3.79   403.3    5.2      31.608
2014    9        5     5   0    3.79   403.1    5.2      31.586
2014    9        5     5   6    3.79   402.9    5.2      31.564
2014    9        5     5  11    3.79   402.7    5.2      31.543
2014    9        5     5  17    3.79   402.5    5.2      31.521
2014    9        5     5  23    3.79   402.3    5.2      31.499
2014    9        5     5  28    3.79   402.2    5.2      31.477
2014    9        5     5  34    3.79   402.0    5.2      31.456
2014    9        5     5  40    3.79   401.8    5.2      31.434
2014    9        5     5  45    3.79   401.6    5.3      31.413
2014    9        5     5  51    3.79   401.4    5.3      31.391
2014    9        5     5  56    3.79   401.3    5.3      31.370
2014    9        5     6   2    3.79   401.1    5.3      31.349
2014    9        5     6   8    3.79   400.9    5.3      31.327
2014    9        5     6  13    3.79   400.7    5.3      31.306
2014    9        5     6  19    3.79   400.5    5.3      31.285
2014    9        5     6  25    3.79   400.4    5.3      31.264
2014    9        5     6  30    3.79   400.2    5.3      31.243
2014    9        5     6  36    3.79   400.0    5.3      31.222
2014    9        5     6  42    3.79   399.8    5.3      31.201
2014    9        5     6  47    3.79   399.6    5.3      31.181
2014    9        5     6  53    3.79   399.4    5.3      31.160
2014    9        5     6  59    3.79   399.3    5.3      31.140
2014    9        5     7   4    3.79   399.1    5.3      31.119
2014    9        5     7  10    3.79   398.9    5.3      31.099
2014    9        5     7  16    3.79   398.7    5.3      31.079
2014    9        5     7  21    3.79   398.5    5.3      31.059
2014    9        5     7  27    3.79   398.4    5.3      31.039
2014    9        5     7  33    3.79   398.2    5.3      31.019
2014    9        5     7  38    3.79   398.0    5.3      31.000
2014    9        5     7  44    3.79   397.8    5.3      30.980
2014    9        5     7  50    3.79   397.6    5.4      30.961
2014    9        5     7  55    3.80   397.5    5.4      30.941
2014    9        5     8   1    3.80   397.3    5.4      30.922
2014    9        5     8   7    3.80   397.1    5.4      30.904
2014    9        5     8  12    3.80   396.9    5.4      30.885
2014    9        5     8  18    3.80   396.7    5.4      30.866
2014    9        5     8  24    3.80   396.6    5.4      30.848
2014    9        5     8  29    3.80   396.4    5.4      30.830
2014    9        5     8  35    3.80   396.2    5.4      30.812
2014    9        5     8  41    3.80   396.0    5.4      30.794
2014    9        5     8  46    3.80   395.8    5.4      30.777
2014    9        5     8  52    3.80   395.7    5.4      30.759
2014    9        5     8  58    3.80   395.5    5.4      30.742
2014    9        5     9   3    3.80   395.3    5.4      30.725
2014    9        5     9   9    3.80   395.1    5.4      30.709
2014    9        5     9  15    3.80   395.0    5.4      30.692
2014    9        5     9  20    3.80   394.8    5.4      30.676
2014    9        5     9  26    3.80   394.6    5.4      30.659
2014    9        5     9  32    3.80   394.4    5.4      30.643
2014    9        5     9  37    3.81   394.2    5.5      30.628
2014    9        5     9  43    3.81   394.1    5.5      30.612
2014    9        5     9  49    3.81   393.9    5.5      30.597
2014    9        5     9  54    3.81   393.7    5.5      30.581
2014    9        5    10   0    3.81   393.5    5.5      30.566
2014    9        5    10   6    3.81   393.4    5.5      30.551
2014    9        5    10  11    3.81   393.2    5.5      30.536
2014    9        5    10  17    3.81   393.0    5.5      30.521
2014    9        5    10  23    3.81   392.8    5.5      30.507
2014    9        5    10  28    3.81   392.7    5.5      30.492
2014    9        5    10  34    3.81   392.5    5.5      30.478
2014    9        5    10  40    3.81   392.3    5.5      30.463
2014    9        5    10  45    3.81   392.1    5.5      30.449
2014    9        5    10  51    3.81   392.0    5.5      30.435
2014    9        5    10  57    3.82   391.8    5.5      30.421
2014    9        5    11   2    3.82   391.6    5.5      30.406
2014    9        5    11   8    3.82   391.4    5.5      30.392
2014    9        5    11  14    3.82   391.3    5.5      30.378
2014    9        5    11  19    3.82   391.1    5.6      30.364
2014    9        5    11  25    3.82   390.9    5.6      30.350
2014    9        5    11  30    3.82   390.8    5.6      30.335
2014    9        5    11  36    3.82   390.6    5.6      30.321
2014    9        5    11  42    3.82   390.4    5.6      30.307
2014    9        5    11  47    3.82   390.2    5.6      30.293
2014    9        5    11  53    3.82   390.1    5.6      30.279
2014    9        5    11  59    3.82   389.9    5.6      30.264
2014    9        5    12   4    3.82   389.7    5.6      30.250
2014    9        5    12  10    3.82   389.5    5.6      30.235
2014    9        5    12  16    3.82   389.4    5.6      30.221
2014    9        5    12  21    3.83   389.2    5.6      30.207
2014    9        5    12  27    3.83   389.0    5.6      30.192
2014    9        5    12  33    3.83   388.8    5.6      30.178
2014    9        5    12  38    3.83   388.7    5.6      30.163
2014    9        5    12  44    3.83   388.5    5.6      30.149
2014    9        5    12  50    3.83   388.3    5.6      30.134
2014    9        5    12  55    3.83   388.1    5.6      30.119
2014    9        5    13   1    3.83   388.0    5.7      30.105
2014    9        5    13   7    3.83   387.8    5.7      30.090
2014    9        5    13  12    3.83   387.6    5.7      30.075
2014    9        5    13  18    3.83   387.4    5.7      30.060
2014    9        5    13  24    3.83   387.3    5.7      30.046
2014    9        5    13  29    3.83   387.1    5.7      30.031
2014    9        5    13  35    3.84   386.9    5.7      30.016
2014    9        5    13  41    3.84   386.7    5.7      30.001
2014    9        5    13  46    3.84   386.6    5.7      29.986
2014    9        5    13  52    3.84   386.4    5.7      29.971
2014    9        5    13  58    3.84   386.2    5.7      29.956
2014    9        5    14   3    3.84   386.1    5.7      29.941
2014    9        5    14   9    3.84   385.9    5.7      29.926
2014    9        5    14  15    3.84   385.7    5.7      29.911
2014    9        5    14  20    3.84   385.5    5.7      29.896
2014    9        5    14  26    3.84   385.4    5.7      29.881
2014    9        5    14  32    3.84   385.2    5.7      29.866
2014    9        5    14  37    3.84   385.0    5.7      29.851
2014    9        5    14  43    3.85   384.8    5.7      29.835
2014    9        5    14  49    3.85   384.7    5.8      29.820
2014    9        5    14  54    3.85   384.5    5.8      29.805
2014    9        5    15   0    3.85   384.3    5.8      29.791
2014    9        5    15   6    3.85   384.1    5.8      29.776
2014    9        5    15  11    3.85   384.0    5.8      29.761
2014    9        5    15  17    3.85   383.8    5.8      29.746
2014    9        5    15  23    3.85   383.6    5.8      29.731
2014    9        5    15  28    3.85   383.4    5.8      29.716
2014    9        5    15  34    3.85   383.3    5.8      29.702
2014    9        5    15  40    3.86   383.1    5.8      29.687
2014    9        5    15  45    3.86   382.9    5.8      29.673
2014    9        5    15  51    3.86   382.7    5.8      29.659
2014    9        5    15  57    3.86   382.6    5.8      29.645
2014    9        5    16   2    3.86   382.4    5.8      29.631
2014    9        5    16   8    3.86   382.2    5.8      29.617
2014    9        5    16  14    3.86   382.0    5.8      29.603
2014    9        5    16  19    3.86   381.9    5.8      29.589
2014    9        5    16  25    3.86   381.7    5.8      29.576
2014    9        5    16  31    3.87   381.5    5.8      29.563
2014    9        5    16  36    3.87   381.3    5.9      29.549
2014    9        5    16  42    3.87   381.2    5.9      29.537
2014    9        5    16  48    3.87   381.0    5.9      29.524
2014    9        5    16  53    3.87   380.8    5.9      29.511
2014    9        5    16  59    3.87   380.6    5.9      29.499
2014    9        5    17   5    3.87   380.5    5.9      29.486
2014    9        5    17  10    3.87   380.3    5.9      29.474
2014    9        5    17  16    3.87   380.1    5.9      29.462
2014    9        5    17  21    3.88   380.0    5.9      29.450
2014    9        5    17  27    3.88   379.8    5.9      29.438
2014    9        5    17  33    3.88   379.6    5.9      29.427
2014    9        5    17  38    3.88   379.4    5.9      29.415
2014    9        5    17  44    3.88   379.3    5.9      29.404
2014    9        5    17  50    3.88   379.1    5.9      29.392
2014    9        5    17  55    3.88   378.9    5.9      29.381
2014    9        5    18   1    3.88   378.8    5.9      29.370
2014    9        5    18   7    3.89   378.6    5.9      29.359
2014    9        5    18  12    3.89   378.4    5.9      29.348
2014    9        5    18  18    3.89   378.3    6.0      29.337
2014    9        5    18  24    3.89   378.1    6.0      29.326
2014    9        5    18  29    3.89   377.9    6.0      29.316
2014    9        5    18  35    3.89   377.8    6.0      29.305
2014    9        5    18  41    3.89   377.6    6.0      29.295
2014    9        5    18  46    3.90   377.4    6.0      29.285
2014    9        5    18  52    3.90   377.3    6.0      29.274
2014    9        5    18  58    3.90   377.1    6.0      29.264
2014    9        5    19   3    3.90   376.9    6.0      29.254
2014    9        5    19   9    3.90   376.8    6.0      29.244
2014    9        5    19  15    3.90   376.6    6.0      29.234
2014    9        5    19  20    3.90   376.4    6.0      29.224
2014    9        5    19  26    3.91   376.3    6.0      29.214
2014    9        5    19  32    3.91   376.1    6.0      29.204
2014    9        5    19  37    3.91   375.9    6.0      29.195
2014    9        5    19  43    3.91   375.8    6.0      29.185
2014    9        5    19  49    3.91   375.6    6.0      29.176
2014    9        5    19  54    3.91   375.4    6.1      29.167
2014    9        5    20   0    3.91   375.3    6.1      29.158
2014    9        5    20   6    3.92   375.1    6.1      29.148
2014    9        5    20  11    3.92   374.9    6.1      29.139
2014    9        5    20  17    3.92   374.8    6.1      29.131
2014    9        5    20  23    3.92   374.6    6.1      29.122
2014    9        5    20  28    3.92   374.5    6.1      29.113
2014    9        5    20  34    3.92   374.3    6.1      29.104
2014    9        5    20  40    3.93   374.1    6.1      29.095
2014    9        5    20  45    3.93   374.0    6.1      29.087
2014    9        5    20  51    3.93   373.8    6.1      29.078
2014    9        5    20  57    3.93   373.7    6.1      29.070
2014    9        5    21   2    3.93   373.5    6.1      29.061
2014    9        5    21   8    3.93   373.3    6.1      29.053
2014    9        5    21  14    3.93   373.2    6.1      29.045
2014    9        5    21  19    3.94   373.0    6.1      29.036
2014    9        5    21  25    3.94   372.9    6.2      29.028
2014    9        5    21  31    3.94   372.7    6.2      29.020
2014    9        5    21  36    3.94   372.6    6.2      29.012
2014    9        5    21  42    3.94   372.4    6.2      29.004
2014    9        5    21  48    3.94   372.2    6.2      28.996
2014    9        5    21  53    3.95   372.1    6.2      28.988
2014    9        5    21  59    3.95   371.9    6.2      28.980
2014    9        5    22   5    3.95   371.8    6.2      28.972
2014    9        5    22  10    3.95   371.6    6.2      28.965
2014    9        5    22  16    3.95   371.5    6.2      28.957
2014    9        5    22  22    3.95   371.3    6.2      28.949
2014    9        5    22  27    3.96   371.1    6.2      28.942
2014    9        5    22  33    3.96   371.0    6.2      28.934
2014    9        5    22  39    3.96   370.8    6.2      28.927
2014    9        5    22  44    3.96   370.7    6.2      28.920
2014    9        5    22  50    3.96   370.5    6.2      28.913
2014    9        5    22  56    3.97   370.4    6.2      28.906
2014    9        5    23   1    3.97   370.2    6.3      28.900
2014    9        5    23   7    3.97   370.1    6.3      28.893
2014    9        5    23  12    3.97   369.9    6.3      28.887
2014    9        5    23  18    3.97   369.8    6.3      28.880
2014    9        5    23  24    3.97   369.6    6.3      28.874
2014    9        5    23  29    3.98   369.5    6.3      28.868
2014    9        5    23  35    3.98   369.3    6.3      28.862
2014    9        5    23  41    3.98   369.2    6.3      28.857
2014    9        5    23  46    3.98   369.0    6.3      28.851
2014    9        5    23  52    3.98   368.9    6.3      28.846
2014    9        5    23  58    3.99   368.7    6.3      28.840
2014    9        6     0   3    3.99   368.6    6.3      28.835
2014    9        6     0   9    3.99   368.4    6.3      28.830
2014    9        6     0  15    3.99   368.3    6.3      28.826
2014    9        6     0  20    3.99   368.1    6.3      28.821
2014    9        6     0  26    3.99   368.0    6.3      28.817
2014    9        6     0  32    4.00   367.8    6.3      28.812
2014    9        6     0  37    4.00   367.7    6.4      28.808
2014    9        6     0  43    4.00   367.5    6.4      28.804
2014    9        6     0  49    4.00   367.4    6.4      28.800
2014    9        6     0  54    4.00   367.2    6.4      28.796
2014    9        6     1   0    4.01   367.1    6.4      28.792
2014    9        6     1   6    4.01   366.9    6.4      28.789
2014    9        6     1  11    4.01   366.8    6.4      28.785
2014    9        6     1  17    4.01   366.7    6.4      28.782
2014    9        6     1  23    4.01   366.5    6.4      28.779
2014    9        6     1  28    4.02   366.4    6.4      28.776
2014    9        6     1  34    4.02   366.2    6.4      28.773
2014    9        6     1  40    4.02   366.1    6.4      28.770
2014    9        6     1  45    4.02   366.0    6.4      28.767
2014    9        6     1  51    4.02   365.8    6.4      28.765
2014    9        6     1  57    4.03   365.7    6.4      28.762
2014    9        6     2   2    4.03   365.5    6.4      28.760
2014    9        6     2   8    4.03   365.4    6.5      28.758
2014    9        6     2  14    4.03   365.3    6.5      28.756
2014    9        6     2  19    4.03   365.1    6.5      28.754
2014    9        6     2  25    4.04   365.0    6.5      28.752
2014    9        6     2  31    4.04   364.8    6.5      28.750
2014    9        6     2  36    4.04   364.7    6.5      28.749
2014    9        6     2  42    4.04   364.6    6.5      28.747
2014    9        6     2  48    4.05   364.4    6.5      28.746
2014    9        6     2  53    4.05   364.3    6.5      28.744
2014    9        6     2  59    4.05   364.2    6.5      28.743
2014    9        6     3   5    4.05   364.0    6.5      28.742
2014    9        6     3  10    4.05   363.9    6.5      28.741
2014    9        6     3  16    4.06   363.8    6.5      28.741
2014    9        6     3  22    4.06   363.6    6.5      28.740
2014    9        6     3  27    4.06   363.5    6.5      28.740
2014    9        6     3  33    4.06   363.4    6.5      28.739
2014    9        6     3  39    4.07   363.2    6.5      28.739
2014    9        6     3  44    4.07   363.1    6.5      28.739
2014    9        6     3  50    4.07   363.0    6.6      28.739
2014    9        6     3  56    4.07   362.9    6.6      28.739
2014    9        6     4   1    4.07   362.7    6.6      28.740
2014    9        6     4   7    4.08   362.6    6.6      28.740
2014    9        6     4  13    4.08   362.5    6.6      28.740
2014    9        6     4  18    4.08   362.4    6.6      28.741
2014    9        6     4  24    4.08   362.2    6.6      28.741
2014    9        6     4  30    4.09   362.1    6.6      28.742
2014    9        6     4  35    4.09   362.0    6.6      28.743
2014    9        6     4  41    4.09   361.9    6.6      28.743
2014    9        6     4  47    4.09   361.8    6.6      28.744
2014    9        6     4  52    4.10   361.6    6.6      28.745
2014    9        6     4  58    4.10   361.5    6.6      28.746
2014    9        6     5   3    4.10   361.4    6.6      28.747
2014    9        6     5   9    4.10   361.3    6.6      28.748
2014    9        6     5  15    4.10   361.2    6.6      28.749
2014    9        6     5  20    4.11   361.1    6.6      28.749
2014    9        6     5  26    4.11   360.9    6.7      28.750
2014    9        6     5  32    4.11   360.8    6.7      28.751
2014    9        6     5  37    4.11   360.7    6.7      28.752
2014    9        6     5  43    4.12   360.6    6.7      28.752
2014    9        6     5  49    4.12   360.5    6.7      28.753
2014    9        6     5  54    4.12   360.4    6.7      28.753
2014    9        6     6   0    4.12   360.2    6.7      28.754
2014    9        6     6   6    4.13   360.1    6.7      28.754
2014    9        6     6  11    4.13   360.0    6.7      28.754
2014    9        6     6  17    4.13   359.9    6.7      28.755
2014    9        6     6  23    4.13   359.8    6.7      28.755
2014    9        6     6  28    4.14   359.7    6.7      28.754
2014    9        6     6  34    4.14   359.6    6.7      28.754
2014    9        6     6  40    4.14   359.4    6.7      28.754
2014    9        6     6  45    4.14   359.3    6.7      28.753
2014    9        6     6  51    4.14   359.2    6.7      28.753
2014    9        6     6  57    4.15   359.1    6.7      28.752
2014    9        6     7   2    4.15   359.0    6.7      28.752
2014    9        6     7   8    4.15   358.9    6.8      28.751
2014    9        6     7  14    4.15   358.8    6.8      28.750
2014    9        6     7  19    4.16   358.7    6.8      28.749
2014    9        6     7  25    4.16   358.5    6.8      28.748
2014    9        6     7  31    4.16   358.4    6.8      28.746
2014    9        6     7  36    4.16   358.3    6.8      28.745
2014    9        6     7  42    4.16   358.2    6.8      28.744
2014    9        6     7  48    4.17   358.1    6.8      28.742
2014    9        6     7  53    4.17   358.0    6.8      28.740
2014    9        6     7  59    4.17   357.9    6.8      28.739
2014    9        6     8   5    4.17   357.8    6.8      28.737
2014    9        6     8  10    4.18   357.6    6.8      28.735
2014    9        6     8  16    4.18   357.5    6.8      28.733
2014    9        6     8  22    4.18   357.4    6.8      28.731
2014    9        6     8  27    4.18   357.3    6.8      28.729
2014    9        6     8  33    4.18   357.2    6.8      28.727
2014    9        6     8  39    4.19   357.1    6.8      28.724
2014    9        6     8  44    4.19   357.0    6.8      28.722
2014    9        6     8  50    4.19   356.9    6.8      28.720
2014    9        6     8  56    4.19   356.8    6.8      28.717
2014    9        6     9   1    4.20   356.6    6.9      28.715
2014    9        6     9   7    4.20   356.5    6.9      28.712
2014    9        6     9  13    4.20   356.4    6.9      28.710
2014    9        6     9  18    4.20   356.3    6.9      28.707
2014    9        6     9  24    4.20   356.2    6.9      28.704
2014    9        6     9  30    4.21   356.1    6.9      28.702
2014    9        6     9  35    4.21   356.0    6.9      28.699
2014    9        6     9  41    4.21   355.9    6.9      28.696
2014    9        6     9  47    4.21   355.7    6.9      28.693
2014    9        6     9  52    4.22   355.6    6.9      28.690
2014    9        6     9  58    4.22   355.5    6.9      28.687
2014    9        6    10   4    4.22   355.4    6.9      28.684
2014    9        6    10   9    4.22   355.3    6.9      28.681
2014    9        6    10  15    4.23   355.2    6.9      28.677
2014    9        6    10  21    4.23   355.1    6.9      28.674
2014    9        6    10  26    4.23   354.9    6.9      28.671
2014    9        6    10  32    4.23   354.8    6.9      28.668
2014    9        6    10  38    4.23   354.7    6.9      28.665
2014    9        6    10  43    4.24   354.6    6.9      28.662
2014    9        6    10  49    4.24   354.5    6.9      28.659
2014    9        6    10  54    4.24   354.4    6.9      28.656
2014    9        6    11   0    4.24   354.2    7.0      28.653
2014    9        6    11   6    4.25   354.1    7.0      28.650
2014    9        6    11  11    4.25   354.0    7.0      28.647
2014    9        6    11  17    4.25   353.9    7.0      28.645
2014    9        6    11  23    4.25   353.8    7.0      28.642
2014    9        6    11  28    4.26   353.6    7.0      28.640
2014    9        6    11  34    4.26   353.5    7.0      28.639
2014    9        6    11  40    4.26   353.4    7.0      28.637
2014    9        6    11  45    4.26   353.3    7.0      28.635
2014    9        6    11  51    4.27   353.2    7.0      28.634
2014    9        6    11  57    4.27   353.1    7.0      28.633
2014    9        6    12   2    4.27   353.0    7.0      28.633
2014    9        6    12   8    4.28   352.8    7.0      28.632
2014    9        6    12  14    4.28   352.7    7.0      28.632
2014    9        6    12  19    4.28   352.6    7.0      28.633
2014    9        6    12  25    4.28   352.5    7.0      28.633
2014    9        6    12  31    4.29   352.4    7.0      28.634
2014    9        6    12  36    4.29   352.3    7.1      28.636
2014    9        6    12  42    4.29   352.2    7.1      28.637
2014    9        6    12  48    4.30   352.1    7.1      28.640
2014    9        6    12  53    4.30   351.9    7.1      28.642
2014    9        6    12  59    4.30   351.8    7.1      28.645
2014    9        6    13   5    4.31   351.7    7.1      28.648
2014    9        6    13  10    4.31   351.6    7.1      28.651
2014    9        6    13  16    4.31   351.5    7.1      28.655
2014    9        6    13  22    4.32   351.4    7.1      28.659
2014    9        6    13  27    4.32   351.3    7.1      28.663
2014    9        6    13  33    4.32   351.2    7.1      28.668
2014    9        6    13  39    4.33   351.1    7.1      28.673
2014    9        6    13  44    4.33   351.0    7.2      28.678
2014    9        6    13  50    4.33   350.9    7.2      28.684
2014    9        6    13  56    4.34   350.8    7.2      28.689
2014    9        6    14   1    4.34   350.7    7.2      28.695
2014    9        6    14   7    4.34   350.6    7.2      28.701
2014    9        6    14  13    4.35   350.5    7.2      28.708
2014    9        6    14  18    4.35   350.4    7.2      28.714
2014    9        6    14  24    4.35   350.3    7.2      28.721
2014    9        6    14  30    4.36   350.2    7.2      28.727
2014    9        6    14  35    4.36   350.1    7.2      28.734
2014    9        6    14  41    4.36   350.0    7.2      28.741
2014    9        6    14  47    4.37   349.9    7.3      28.748
2014    9        6    14  52    4.37   349.8    7.3      28.756
2014    9        6    14  58    4.37   349.7    7.3      28.763
2014    9        6    15   4    4.38   349.6    7.3      28.771
2014    9        6    15   9    4.38   349.5    7.3      28.778
2014    9        6    15  15    4.38   349.4    7.3      28.786
2014    9        6    15  21    4.39   349.3    7.3      28.794
2014    9        6    15  26    4.39   349.2    7.3      28.801
2014    9        6    15  32    4.40   349.1    7.3      28.809
2014    9        6    15  38    4.40   349.0    7.3      28.817
2014    9        6    15  43    4.40   349.0    7.4      28.825
2014    9        6    15  49    4.41   348.9    7.4      28.834
2014    9        6    15  55    4.41   348.8    7.4      28.842
2014    9        6    16   0    4.41   348.7    7.4      28.850
2014    9        6    16   6    4.42   348.6    7.4      28.859
2014    9        6    16  12    4.42   348.5    7.4      28.867
2014    9        6    16  17    4.43   348.4    7.4      28.876
2014    9        6    16  23    4.43   348.3    7.4      28.885
2014    9        6    16  29    4.43   348.2    7.4      28.894
2014    9        6    16  34    4.44   348.1    7.4      28.903
2014    9        6    16  40    4.44   348.0    7.5      28.912
2014    9        6    16  46    4.44   348.0    7.5      28.922
2014    9        6    16  51    4.45   347.9    7.5      28.931
2014    9        6    16  57    4.45   347.8    7.5      28.940
2014    9        6    17   3    4.46   347.7    7.5      28.949
2014    9        6    17   8    4.46   347.6    7.5      28.959
2014    9        6    17  14    4.46   347.5    7.5      28.968
2014    9        6    17  19    4.47   347.5    7.5      28.977
2014    9        6    17  25    4.47   347.4    7.5      28.987
2014    9        6    17  31    4.48   347.3    7.5      28.996
2014    9        6    17  36    4.48   347.2    7.6      29.006
2014    9        6    17  42    4.48   347.1    7.6      29.015
2014    9        6    17  48    4.49   347.1    7.6      29.024
2014    9        6    17  53    4.49   347.0    7.6      29.033
2014    9        6    17  59    4.50   346.9    7.6      29.043
2014    9        6    18   5    4.50   346.8    7.6      29.052
2014    9        6    18  10    4.51   346.8    7.6      29.061
2014    9        6    18  16    4.51   346.7    7.6      29.070
2014    9        6    18  22    4.51   346.6    7.6      29.079
2014    9        6    18  27    4.52   346.5    7.7      29.089
2014    9        6    18  33    4.52   346.5    7.7      29.098
2014    9        6    18  39    4.53   346.4    7.7      29.107
2014    9        6    18  44    4.53   346.3    7.7      29.116
2014    9        6    18  50    4.54   346.2    7.7      29.125
2014    9        6    18  56    4.54   346.2    7.7      29.134
2014    9        6    19   1    4.54   346.1    7.7      29.143
2014    9        6    19   7    4.55   346.0    7.7      29.153
2014    9        6    19  13    4.55   346.0    7.7      29.162
2014    9        6    19  18    4.56   345.9    7.7      29.171
2014    9        6    19  24    4.56   345.8    7.8      29.180
2014    9        6    19  30    4.57   345.8    7.8      29.189
2014    9        6    19  35    4.57   345.7    7.8      29.199
2014    9        6    19  41    4.57   345.6    7.8      29.208
2014    9        6    19  47    4.58   345.6    7.8      29.217
2014    9        6    19  52    4.58   345.5    7.8      29.227
2014    9        6    19  58    4.59   345.4    7.8      29.236
2014    9        6    20   4    4.59   345.4    7.8      29.245
2014    9        6    20   9    4.60   345.3    7.8      29.255
2014    9        6    20  15    4.60   345.3    7.8      29.265
2014    9        6    20  21    4.61   345.2    7.9      29.274
2014    9        6    20  26    4.61   345.1    7.9      29.284
2014    9        6    20  32    4.61   345.1    7.9      29.294
2014    9        6    20  38    4.62   345.0    7.9      29.304
2014    9        6    20  43    4.62   344.9    7.9      29.314
2014    9        6    20  49    4.63   344.9    7.9      29.324
2014    9        6    20  55    4.63   344.8    7.9      29.334
2014    9        6    21   0    4.64   344.8    7.9      29.345
2014    9        6    21   6    4.64   344.7    7.9      29.356
2014    9        6    21  12    4.65   344.7    8.0      29.366
2014    9        6    21  17    4.65   344.6    8.0      29.378
2014    9        6    21  23    4.66   344.6    8.0      29.389
2014    9        6    21  29    4.66   344.5    8.0      29.401
2014    9        6    21  34    4.67   344.4    8.0      29.413
2014    9        6    21  40    4.67   344.4    8.0      29.424
2014    9        6    21  46    4.67   344.3    8.0      29.437
2014    9        6    21  51    4.68   344.3    8.0      29.449
2014    9        6    21  57    4.68   344.2    8.1      29.462
2014    9        6    22   3    4.69   344.2    8.1      29.475
2014    9        6    22   8    4.69   344.1    8.1      29.489
2014    9        6    22  14    4.70   344.1    8.1      29.504
2014    9        6    22  20    4.70   344.1    8.1      29.518
2014    9        6    22  25    4.71   344.0    8.1      29.533
2014    9        6    22  31    4.71   344.0    8.1      29.549
2014    9        6    22  37    4.72   343.9    8.1      29.565
2014    9        6    22  42    4.73   343.9    8.1      29.581
2014    9        6    22  48    4.73   343.9    8.2      29.598
2014    9        6    22  54    4.74   343.8    8.2      29.615
2014    9        6    22  59    4.74   343.8    8.2      29.632
2014    9        6    23   5    4.75   343.7    8.2      29.649
2014    9        6    23  10    4.75   343.7    8.2      29.667
2014    9        6    23  16    4.76   343.7    8.2      29.685
2014    9        6    23  22    4.76   343.6    8.2      29.703
2014    9        6    23  27    4.77   343.6    8.2      29.721
2014    9        6    23  33    4.77   343.6    8.3      29.739
2014    9        6    23  39    4.78   343.6    8.3      29.757
2014    9        6    23  44    4.78   343.5    8.3      29.775
2014    9        6    23  50    4.79   343.5    8.3      29.793
2014    9        6    23  56    4.79   343.5    8.3      29.811
2014    9        7     0   1    4.80   343.5    8.3      29.828
2014    9        7     0   7    4.80   343.4    8.3      29.846
2014    9        7     0  13    4.81   343.4    8.3      29.864
2014    9        7     0  18    4.81   343.4    8.4      29.881
2014    9        7     0  24    4.82   343.4    8.4      29.898
2014    9        7     0  30    4.82   343.3    8.4      29.915
2014    9        7     0  35    4.83   343.3    8.4      29.932
2014    9        7     0  41    4.83   343.3    8.4      29.949
2014    9        7     0  47    4.84   343.3    8.4      29.966
2014    9        7     0  52    4.84   343.2    8.4      29.983
2014    9        7     0  58    4.85   343.2    8.4      30.000
2014    9        7     1   4    4.85   343.2    8.5      30.016
2014    9        7     1   9    4.86   343.2    8.5      30.032
2014    9        7     1  15    4.86   343.2    8.5      30.049
2014    9        7     1  21    4.87   343.1    8.5      30.065
2014    9        7     1  26    4.87   343.1    8.5      30.082
2014    9        7     1  32    4.88   343.1    8.5      30.098
2014    9        7     1  38    4.88   343.1    8.5      30.114
2014    9        7     1  43    4.89   343.1    8.5      30.131
2014    9        7     1  49    4.89   343.0    8.5      30.147
2014    9        7     1  55    4.90   343.0    8.6      30.163
2014    9        7     2   0    4.90   343.0    8.6      30.179
2014    9        7     2   6    4.91   343.0    8.6      30.195
2014    9        7     2  12    4.91   343.0    8.6      30.211
2014    9        7     2  17    4.92   343.0    8.6      30.227
2014    9        7     2  23    4.92   342.9    8.6      30.243
2014    9        7     2  29    4.93   342.9    8.6      30.259
2014    9        7     2  34    4.93   342.9    8.6      30.274
2014    9        7     2  40    4.94   342.9    8.6      30.290
2014    9        7     2  46    4.94   342.9    8.6      30.306
2014    9        7     2  51    4.95   342.8    8.7      30.321
2014    9        7     2  57    4.95   342.8    8.7      30.337
2014    9        7     3   3    4.96   342.8    8.7      30.352
2014    9        7     3   8    4.96   342.8    8.7      30.368
2014    9        7     3  14    4.97   342.8    8.7      30.383
2014    9        7     3  20    4.97   342.8    8.7      30.399
2014    9        7     3  25    4.98   342.7    8.7      30.414
2014    9        7     3  31    4.98   342.7    8.7      30.430
2014    9        7     3  37    4.99   342.7    8.7      30.446
2014    9        7     3  42    4.99   342.7    8.8      30.461
2014    9        7     3  48    5.00   342.7    8.8      30.477
2014    9        7     3  54    5.00   342.6    8.8      30.493
2014    9        7     3  59    5.01   342.6    8.8      30.509
2014    9        7     4   5    5.01   342.6    8.8      30.526
2014    9        7     4  11    5.02   342.6    8.8      30.542
2014    9        7     4  16    5.02   342.6    8.8      30.559
2014    9        7     4  22    5.03   342.6    8.8      30.576
2014    9        7     4  28    5.03   342.5    8.8      30.594
2014    9        7     4  33    5.04   342.5    8.8      30.612
2014    9        7     4  39    5.04   342.5    8.9      30.631
2014    9        7     4  45    5.05   342.5    8.9      30.649
2014    9        7     4  50    5.05   342.5    8.9      30.668
2014    9        7     4  56    5.06   342.5    8.9      30.688
2014    9        7     5   2    5.06   342.5    8.9      30.707
2014    9        7     5   7    5.07   342.5    8.9      30.727
2014    9        7     5  13    5.08   342.5    8.9      30.747
2014    9        7     5  18    5.08   342.5    8.9      30.768
2014    9        7     5  24    5.09   342.4    8.9      30.788
2014    9        7     5  30    5.09   342.4    9.0      30.809
2014    9        7     5  35    5.10   342.4    9.0      30.831
2014    9        7     5  41    5.10   342.4    9.0      30.852
2014    9        7     5  47    5.11   342.4    9.0      30.874
2014    9        7     5  52    5.11   342.4    9.0      30.896
2014    9        7     5  58    5.12   342.4    9.0      30.919
2014    9        7     6   4    5.12   342.4    9.0      30.941
2014    9        7     6   9    5.13   342.4    9.0      30.964
2014    9        7     6  15    5.14   342.4    9.0      30.987
2014    9        7     6  21    5.14   342.4    9.1      31.011
2014    9        7     6  26    5.15   342.4    9.1      31.035
2014    9        7     6  32    5.15   342.4    9.1      31.059
2014    9        7     6  38    5.16   342.4    9.1      31.084
2014    9        7     6  43    5.16   342.5    9.1      31.109
2014    9        7     6  49    5.17   342.5    9.1      31.134
2014    9        7     6  55    5.18   342.5    9.1      31.160
2014    9        7     7   0    5.18   342.5    9.1      31.187
2014    9        7     7   6    5.19   342.5    9.2      31.214
2014    9        7     7  12    5.19   342.5    9.2      31.242
2014    9        7     7  17    5.20   342.5    9.2      31.270
2014    9        7     7  23    5.21   342.6    9.2      31.299
2014    9        7     7  29    5.21   342.6    9.2      31.328
2014    9        7     7  34    5.22   342.6    9.2      31.357
2014    9        7     7  40    5.22   342.6    9.2      31.386
2014    9        7     7  46    5.23   342.6    9.2      31.415
2014    9        7     7  51    5.23   342.6    9.3      31.445
2014    9        7     7  57    5.24   342.7    9.3      31.474
2014    9        7     8   3    5.24   342.7    9.3      31.503
2014    9        7     8   8    5.25   342.7    9.3      31.532
2014    9        7     8  14    5.26   342.7    9.3      31.562
2014    9        7     8  20    5.26   342.7    9.3      31.591
2014    9        7     8  25    5.27   342.7    9.3      31.620
2014    9        7     8  31    5.27   342.7    9.3      31.649
2014    9        7     8  37    5.28   342.8    9.3      31.678
2014    9        7     8  42    5.28   342.8    9.4      31.707
2014    9        7     8  48    5.29   342.8    9.4      31.736
2014    9        7     8  54    5.29   342.8    9.4      31.765
2014    9        7     8  59    5.30   342.8    9.4      31.794
2014    9        7     9   5    5.31   342.8    9.4      31.822
2014    9        7     9  11    5.31   342.8    9.4      31.851
2014    9        7     9  16    5.32   342.9    9.4      31.880
2014    9        7     9  22    5.32   342.9    9.4      31.908
2014    9        7     9  28    5.33   342.9    9.4      31.937
2014    9        7     9  33    5.33   342.9    9.5      31.966
2014    9        7     9  39    5.34   342.9    9.5      31.994
2014    9        7     9  45    5.34   342.9    9.5      32.023
2014    9        7     9  50    5.35   342.9    9.5      32.051
2014    9        7     9  56    5.35   342.9    9.5      32.080
2014    9        7    10   2    5.36   342.9    9.5      32.109
2014    9        7    10   7    5.37   342.9    9.5      32.138
2014    9        7    10  13    5.37   342.9    9.5      32.167
2014    9        7    10  19    5.38   342.9    9.5      32.196
2014    9        7    10  24    5.38   343.0    9.6      32.225
2014    9        7    10  30    5.39   343.0    9.6      32.255
2014    9        7    10  36    5.39   343.0    9.6      32.285
2014    9        7    10  41    5.40   343.0    9.6      32.315
2014    9        7    10  47    5.41   343.0    9.6      32.346
2014    9        7    10  53    5.41   343.0    9.6      32.377
2014    9        7    10  58    5.42   343.0    9.6      32.409
2014    9        7    11   4    5.42   343.0    9.6      32.442
2014    9        7    11  10    5.43   343.0    9.6      32.475
2014    9        7    11  15    5.43   343.1    9.7      32.510
2014    9        7    11  21    5.44   343.1    9.7      32.545
2014    9        7    11  26    5.45   343.1    9.7      32.581
2014    9        7    11  32    5.45   343.1    9.7      32.617
2014    9        7    11  38    5.46   343.1    9.7      32.654
2014    9        7    11  43    5.46   343.2    9.7      32.692
2014    9        7    11  49    5.47   343.2    9.7      32.729
2014    9        7    11  55    5.48   343.2    9.7      32.767
2014    9        7    12   0    5.48   343.2    9.7      32.805
2014    9        7    12   6    5.49   343.3    9.8      32.842
2014    9        7    12  12    5.49   343.3    9.8      32.880
2014    9        7    12  17    5.50   343.3    9.8      32.917
2014    9        7    12  23    5.51   343.3    9.8      32.955
2014    9        7    12  29    5.51   343.4    9.8      32.992
2014    9        7    12  34    5.52   343.4    9.8      33.029
2014    9        7    12  40    5.52   343.4    9.8      33.066
2014    9        7    12  46    5.53   343.5    9.8      33.103
2014    9        7    12  51    5.53   343.5    9.8      33.140
2014    9        7    12  57    5.54   343.5    9.8      33.177
2014    9        7    13   3    5.55   343.6    9.9      33.214
2014    9        7    13   8    5.55   343.6    9.9      33.250
2014    9        7    13  14    5.56   343.6    9.9      33.287
2014    9        7    13  20    5.56   343.7    9.9      33.324
2014    9        7    13  25    5.57   343.7    9.9      33.361
2014    9        7    13  31    5.58   343.7    9.9      33.397
2014    9        7    13  37    5.58   343.8    9.9      33.434
2014    9        7    13  42    5.59   343.8    9.9      33.471
2014    9        7    13  48    5.59   343.9    9.9      33.508
2014    9        7    13  54    5.60   343.9    9.9      33.545
2014    9        7    13  59    5.61   343.9    9.9      33.582
2014    9        7    14   5    5.61   344.0   10.0      33.619
2014    9        7    14  11    5.62   344.0   10.0      33.656
2014    9        7    14  16    5.62   344.1   10.0      33.693
2014    9        7    14  22    5.63   344.1   10.0      33.730
2014    9        7    14  28    5.64   344.1   10.0      33.768
2014    9        7    14  33    5.64   344.2   10.0      33.805
2014    9        7    14  39    5.65   344.2   10.0      33.843
2014    9        7    14  45    5.65   344.3   10.0      33.880
2014    9        7    14  50    5.66   344.3   10.0      33.918
2014    9        7    14  56    5.66   344.4   10.0      33.956
2014    9        7    15   2    5.67   344.4   10.0      33.994
2014    9        7    15   7    5.68   344.4   10.1      34.032
2014    9        7    15  13    5.68   344.5   10.1      34.070
2014    9        7    15  19    5.69   344.5   10.1      34.109
2014    9        7    15  24    5.69   344.6   10.1      34.147
2014    9        7    15  30    5.70   344.6   10.1      34.186
2014    9        7    15  36    5.70   344.7   10.1      34.225
2014    9        7    15  41    5.71   344.7   10.1      34.264
2014    9        7    15  47    5.72   344.7   10.1      34.304
2014    9        7    15  53    5.72   344.8   10.1      34.343
2014    9        7    15  58    5.73   344.8   10.1      34.383
2014    9        7    16   4    5.73   344.9   10.2      34.423
2014    9        7    16  10    5.74   344.9   10.2      34.463
2014    9        7    16  15    5.75   345.0   10.2      34.505
2014    9        7    16  21    5.75   345.0   10.2      34.547
2014    9        7    16  27    5.76   345.1   10.2      34.590
2014    9        7    16  32    5.76   345.1   10.2      34.633
2014    9        7    16  38    5.77   345.2   10.2      34.678
2014    9        7    16  44    5.78   345.2   10.2      34.723
2014    9        7    16  49    5.78   345.3   10.2      34.769
2014    9        7    16  55    5.79   345.3   10.2      34.816
2014    9        7    17   1    5.79   345.4   10.3      34.862
2014    9        7    17   6    5.80   345.4   10.3      34.909
2014    9        7    17  12    5.81   345.5   10.3      34.955
2014    9        7    17  18    5.81   345.6   10.3      35.001
2014    9        7    17  23    5.82   345.6   10.3      35.047
2014    9        7    17  29    5.82   345.7   10.3      35.094
2014    9        7    17  35    5.83   345.7   10.3      35.140
2014    9        7    17  40    5.84   345.8   10.3      35.186
2014    9        7    17  46    5.84   345.9   10.3      35.233
2014    9        7    17  51    5.85   345.9   10.4      35.280
2014    9        7    17  57    5.85   346.0   10.4      35.327
2014    9        7    18   3    5.86   346.1   10.4      35.374
2014    9        7    18   8    5.87   346.1   10.4      35.421
2014    9        7    18  14    5.87   346.2   10.4      35.468
2014    9        7    18  20    5.88   346.3   10.4      35.515
2014    9        7    18  25    5.88   346.4   10.4      35.563
2014    9        7    18  31    5.89   346.4   10.4      35.610
2014    9        7    18  37    5.89   346.5   10.4      35.657
2014    9        7    18  42    5.90   346.6   10.4      35.704
2014    9        7    18  48    5.90   346.7   10.4      35.751
2014    9        7    18  54    5.91   346.7   10.4      35.798
2014    9        7    18  59    5.92   346.8   10.5      35.844
2014    9        7    19   5    5.92   346.9   10.5      35.890
2014    9        7    19  11    5.93   347.0   10.5      35.936
2014    9        7    19  16    5.93   347.1   10.5      35.981
2014    9        7    19  22    5.94   347.1   10.5      36.026
2014    9        7    19  28    5.94   347.2   10.5      36.072
2014    9        7    19  33    5.95   347.3   10.5      36.116
2014    9        7    19  39    5.95   347.4   10.5      36.161
2014    9        7    19  45    5.96   347.5   10.5      36.206
2014    9        7    19  50    5.96   347.5   10.5      36.250
2014    9        7    19  56    5.97   347.6   10.5      36.294
2014    9        7    20   2    5.97   347.7   10.5      36.338
2014    9        7    20   7    5.98   347.8   10.5      36.382
2014    9        7    20  13    5.98   347.9   10.5      36.426
2014    9        7    20  19    5.99   348.0   10.5      36.470
2014    9        7    20  24    6.00   348.0   10.6      36.514
2014    9        7    20  30    6.00   348.1   10.6      36.557
2014    9        7    20  36    6.01   348.2   10.6      36.601
2014    9        7    20  41    6.01   348.3   10.6      36.645
2014    9        7    20  47    6.02   348.4   10.6      36.688
2014    9        7    20  53    6.02   348.5   10.6      36.731
2014    9        7    20  58    6.03   348.6   10.6      36.775
2014    9        7    21   4    6.03   348.6   10.6      36.818
2014    9        7    21  10    6.04   348.7   10.6      36.861
2014    9        7    21  15    6.04   348.8   10.6      36.904
2014    9        7    21  21    6.05   348.9   10.6      36.946
2014    9        7    21  27    6.05   349.0   10.6      36.989
2014    9        7    21  32    6.06   349.1   10.6      37.031
2014    9        7    21  38    6.06   349.2   10.6      37.074
2014    9        7    21  44    6.07   349.3   10.6      37.116
2014    9        7    21  49    6.07   349.4   10.6      37.158
2014    9        7    21  55    6.08   349.4   10.6      37.200
2014    9        7    22   1    6.08   349.5   10.6      37.242
2014    9        7    22   6    6.09   349.6   10.6      37.284
2014    9        7    22  12    6.09   349.7   10.6      37.326
2014    9        7    22  18    6.10   349.8   10.7      37.368
2014    9        7    22  23    6.10   349.9   10.7      37.409
2014    9        7    22  29    6.11   350.0   10.7      37.451
2014    9        7    22  35    6.11   350.1   10.7      37.493
2014    9        7    22  40    6.12   350.1   10.7      37.535
2014    9        7    22  46    6.12   350.2   10.7      37.578
2014    9        7    22  52    6.13   350.3   10.7      37.620
2014    9        7    22  57    6.14   350.4   10.7      37.662
2014    9        7    23   3    6.14   350.5   10.7      37.704
2014    9        7    23   9    6.15   350.6   10.7      37.746
2014    9        7    23  14    6.15   350.7   10.7      37.790
2014    9        7    23  20    6.16   350.8   10.7      37.834
2014    9        7    23  26    6.16   350.9   10.7      37.879
2014    9        7    23  31    6.17   351.0   10.7      37.924
2014    9        7    23  37    6.17   351.1   10.7      37.970
2014    9        7    23  43    6.18   351.2   10.7      38.016
2014    9        7    23  48    6.18   351.3   10.7      38.064
2014    9        7    23  54    6.19   351.4   10.7      38.111
2014    9        8    24   0    6.19   351.5   10.7      38.159
2014    9        8     0   5    6.20   351.6   10.7      38.208
2014    9        8     0  11    6.20   351.7   10.8      38.255
2014    9        8     0  16    6.21   351.8   10.8      38.303
2014    9        8     0  22    6.21   351.9   10.8      38.351
2014    9        8     0  28    6.22   352.0   10.8      38.399
2014    9        8     0  33    6.22   352.1   10.8      38.446
2014    9        8     0  39    6.23   352.2   10.8      38.494
2014    9        8     0  45    6.23   352.3   10.8      38.542
2014    9        8     0  50    6.24   352.4   10.8      38.590
2014    9        8     0  56    6.24   352.6   10.8      38.637
2014    9        8     1   2    6.25   352.7   10.8      38.685
2014    9        8     1   7    6.25   352.8   10.8      38.732
2014    9        8     1  13    6.25   352.9   10.8      38.780
2014    9        8     1  19    6.26   353.0   10.8      38.827
2014    9        8     1  24    6.26   353.1   10.8      38.874
2014    9        8     1  30    6.27   353.2   10.8      38.920
2014    9        8     1  36    6.27   353.4   10.8      38.967
2014    9        8     1  41    6.28   353.5   10.8      39.013
2014    9        8     1  47    6.28   353.6   10.8      39.058
2014    9        8     1  53    6.29   353.7   10.8      39.103
2014    9        8     1  58    6.29   353.8   10.8      39.148
2014    9        8     2   4    6.29   354.0   10.8      39.193
2014    9        8     2  10    6.30   354.1   10.8      39.237
2014    9        8     2  15    6.30   354.2   10.8      39.280
2014    9        8     2  21    6.31   354.3   10.8      39.324
2014    9        8     2  27    6.31   354.4   10.8      39.367
2014    9        8     2  32    6.31   354.6   10.9      39.410
2014    9        8     2  38    6.32   354.7   10.9      39.452
2014    9        8     2  44    6.32   354.8   10.9      39.495
2014    9        8     2  49    6.33   354.9   10.9      39.537
2014    9        8     2  55    6.33   355.0   10.9      39.579
2014    9        8     3   1    6.33   355.2   10.9      39.621
2014    9        8     3   6    6.34   355.3   10.9      39.662
2014    9        8     3  12    6.34   355.4   10.9      39.704
2014    9        8     3  18    6.35   355.5   10.9      39.745
2014    9        8     3  23    6.35   355.6   10.9      39.786
2014    9        8     3  29    6.35   355.7   10.9      39.828
2014    9        8     3  35    6.36   355.9   10.9      39.870
2014    9        8     3  40    6.36   356.0   10.9      39.913
2014    9        8     3  46    6.37   356.1   10.9      39.956
2014    9        8     3  52    6.37   356.2   10.9      40.000
2014    9        8     3  57    6.38   356.4   10.9      40.045
2014    9        8     4   3    6.38   356.5   10.9      40.090
2014    9        8     4   9    6.38   356.6   10.9      40.136
2014    9        8     4  14    6.39   356.7   10.9      40.182
2014    9        8     4  20    6.39   356.9   10.9      40.229
2014    9        8     4  26    6.40   357.0   10.9      40.277
2014    9        8     4  31    6.40   357.1   10.9      40.328
2014    9        8     4  37    6.41   357.3   10.9      40.379
2014    9        8     4  43    6.41   357.4   10.9      40.432
2014    9        8     4  48    6.42   357.5   10.9      40.486
2014    9        8     4  54    6.42   357.7   10.9      40.542
2014    9        8     5   0    6.43   357.9   10.9      40.599
2014    9        8     5   5    6.43   358.0   11.0      40.656
2014    9        8     5  11    6.44   358.2   11.0      40.715
2014    9        8     5  17    6.44   358.3   11.0      40.773
2014    9        8     5  22    6.45   358.5   11.0      40.831
2014    9        8     5  28    6.45   358.7   11.0      40.887
2014    9        8     5  34    6.46   358.8   11.0      40.944
2014    9        8     5  39    6.46   359.0   11.0      40.999
2014    9        8     5  45    6.46   359.2   11.0      41.055
2014    9        8     5  51    6.47   359.3   11.0      41.109
2014    9        8     5  56    6.47   359.5   11.0      41.164
2014    9        8     6   2    6.48   359.6   11.0      41.217
2014    9        8     6   8    6.48   359.8   11.0      41.270
2014    9        8     6  13    6.48   360.0   11.0      41.322
2014    9        8     6  19    6.49   360.1   11.0      41.374
2014    9        8     6  24    6.49   360.3   11.0      41.425
2014    9        8     6  30    6.50   360.5   11.0      41.475
2014    9        8     6  36    6.50   360.6   11.0      41.525
2014    9        8     6  41    6.50   360.8   11.0      41.575
2014    9        8     6  47    6.51   361.0   11.0      41.624
2014    9        8     6  53    6.51   361.1   11.0      41.672
2014    9        8     6  58    6.51   361.3   11.0      41.721
2014    9        8     7   4    6.52   361.5   11.0      41.768
2014    9        8     7  10    6.52   361.6   11.0      41.816
2014    9        8     7  15    6.52   361.8   11.0      41.863
2014    9        8     7  21    6.53   362.0   11.0      41.909
2014    9        8     7  27    6.53   362.1   11.0      41.956
2014    9        8     7  32    6.53   362.3   11.0      42.002
2014    9        8     7  38    6.54   362.5   11.0      42.047
2014    9        8     7  44    6.54   362.6   11.0      42.092
2014    9        8     7  49    6.54   362.8   11.0      42.137
2014    9        8     7  55    6.55   363.0   11.0      42.182
2014    9        8     8   1    6.55   363.1   11.0      42.227
2014    9        8     8   6    6.55   363.3   11.0      42.272
2014    9        8     8  12    6.55   363.5   10.9      42.316
2014    9        8     8  18    6.56   363.7   10.9      42.360
2014    9        8     8  23    6.56   363.8   10.9      42.404
2014    9        8     8  29    6.56   364.0   10.9      42.448
2014    9        8     8  35    6.56   364.2   10.9      42.492
2014    9        8     8  40    6.57   364.3   10.9      42.535
2014    9        8     8  46    6.57   364.5   10.9      42.578
2014    9        8     8  52    6.57   364.7   10.9      42.620
2014    9        8     8  57    6.58   364.9   10.9      42.662
2014    9        8     9   3    6.58   365.0   10.9      42.704
2014    9        8     9   9    6.58   365.2   10.9      42.745
2014    9        8     9  14    6.58   365.4   10.9      42.786
2014    9        8     9  20    6.59   365.6   10.9      42.827
2014    9        8     9  26    6.59   365.7   10.9      42.867
2014    9        8     9  31    6.59   365.9   10.9      42.907
2014    9        8     9  37    6.59   366.1   10.9      42.947
2014    9        8     9  43    6.60   366.2   10.9      42.986
2014    9        8     9  48    6.60   366.4   10.9      43.025
2014    9        8     9  54    6.60   366.6   10.9      43.063
2014    9        8    10   0    6.60   366.7   10.9      43.102
2014    9        8    10   5    6.61   366.9   10.9      43.140
2014    9        8    10  11    6.61   367.1   10.9      43.178
2014    9        8    10  17    6.61   367.2   10.9      43.215
2014    9        8    10  22    6.61   367.4   10.9      43.253
2014    9        8    10  28    6.61   367.6   10.9      43.290
2014    9        8    10  34    6.62   367.7   10.9      43.328
2014    9        8    10  39    6.62   367.9   10.9      43.366
2014    9        8    10  45    6.62   368.1   10.9      43.403
2014    9        8    10  51    6.62   368.2   10.9      43.441
2014    9        8    10  56    6.63   368.4   10.9      43.480
2014    9        8    11   2    6.63   368.6   10.9      43.518
2014    9        8    11   8    6.63   368.7   10.9      43.557
2014    9        8    11  13    6.64   368.9   10.9      43.597
2014    9        8    11  19    6.64   369.1   10.9      43.637
2014    9        8    11  25    6.64   369.2   10.8      43.678
2014    9        8    11  30    6.64   369.4   10.8      43.718
2014    9        8    11  36    6.65   369.6   10.8      43.758
2014    9        8    11  42    6.65   369.7   10.8      43.800
2014    9        8    11  47    6.65   369.9   10.8      43.843
2014    9        8    11  53    6.66   370.1   10.8      43.887
2014    9        8    11  59    6.66   370.3   10.8      43.934
2014    9        8    12   4    6.66   370.4   10.8      43.981
2014    9        8    12  10    6.67   370.6   10.8      44.030
2014    9        8    12  16    6.67   370.8   10.8      44.081
2014    9        8    12  21    6.67   371.0   10.8      44.133
2014    9        8    12  27    6.68   371.2   10.8      44.185
2014    9        8    12  33    6.68   371.4   10.8      44.239
2014    9        8    12  38    6.68   371.6   10.8      44.291
2014    9        8    12  44    6.69   371.8   10.8      44.343
2014    9        8    12  49    6.69   372.0   10.8      44.395
2014    9        8    12  55    6.69   372.2   10.8      44.446
2014    9        8    13   1    6.69   372.4   10.8      44.497
2014    9        8    13   6    6.70   372.6   10.8      44.547
2014    9        8    13  12    6.70   372.9   10.8      44.596
2014    9        8    13  18    6.70   373.1   10.8      44.645
2014    9        8    13  23    6.70   373.3   10.8      44.694
2014    9        8    13  29    6.71   373.5   10.8      44.742
2014    9        8    13  35    6.71   373.7   10.8      44.789
2014    9        8    13  40    6.71   373.9   10.8      44.835
2014    9        8    13  46    6.71   374.1   10.8      44.881
2014    9        8    13  52    6.71   374.3   10.8      44.926
2014    9        8    13  57    6.72   374.5   10.8      44.972
2014    9        8    14   3    6.72   374.7   10.8      45.017
2014    9        8    14   9    6.72   374.9   10.8      45.063
2014    9        8    14  14    6.72   375.1   10.8      45.108
2014    9        8    14  20    6.72   375.4   10.8      45.154
2014    9        8    14  26    6.72   375.6   10.8      45.199
2014    9        8    14  31    6.73   375.8   10.8      45.245
2014    9        8    14  37    6.73   376.0   10.8      45.290
2014    9        8    14  43    6.73   376.2   10.8      45.336
2014    9        8    14  48    6.73   376.5   10.8      45.381
2014    9        8    14  54    6.73   376.7   10.8      45.425
2014    9        8    15   0    6.73   376.9   10.7      45.469
2014    9        8    15   5    6.73   377.1   10.7      45.513
2014    9        8    15  11    6.73   377.4   10.7      45.556
2014    9        8    15  17    6.74   377.6   10.7      45.599
2014    9        8    15  22    6.74   377.8   10.7      45.641
2014    9        8    15  28    6.74   378.0   10.7      45.683
2014    9        8    15  34    6.74   378.3   10.7      45.725
2014    9        8    15  39    6.74   378.5   10.7      45.766
2014    9        8    15  45    6.74   378.7   10.7      45.806
2014    9        8    15  51    6.74   378.9   10.7      45.846
2014    9        8    15  56    6.74   379.1   10.7      45.886
2014    9        8    16   2    6.74   379.4   10.7      45.925
2014    9        8    16   8    6.74   379.6   10.7      45.965
2014    9        8    16  13    6.74   379.8   10.6      46.003
2014    9        8    16  19    6.74   380.0   10.6      46.041
2014    9        8    16  25    6.74   380.3   10.6      46.079
2014    9        8    16  30    6.74   380.5   10.6      46.117
2014    9        8    16  36    6.74   380.7   10.6      46.154
2014    9        8    16  42    6.75   380.9   10.6      46.191
2014    9        8    16  47    6.75   381.2   10.6      46.228
2014    9        8    16  53    6.75   381.4   10.6      46.264
2014    9        8    16  59    6.75   381.6   10.6      46.300
2014    9        8    17   4    6.75   381.8   10.6      46.335
2014    9        8    17  10    6.75   382.1   10.6      46.370
2014    9        8    17  16    6.75   382.3   10.5      46.405
2014    9        8    17  21    6.75   382.5   10.5      46.439
2014    9        8    17  27    6.75   382.7   10.5      46.473
2014    9        8    17  33    6.75   382.9   10.5      46.506
2014    9        8    17  38    6.75   383.2   10.5      46.539
2014    9        8    17  44    6.75   383.4   10.5      46.572
2014    9        8    17  50    6.75   383.6   10.5      46.604
2014    9        8    17  55    6.75   383.8   10.5      46.636
2014    9        8    18   1    6.75   384.0   10.5      46.667
2014    9        8    18   7    6.75   384.3   10.5      46.697
2014    9        8    18  12    6.75   384.5   10.4      46.727
2014    9        8    18  18    6.75   384.7   10.4      46.757
2014    9        8    18  24    6.75   384.9   10.4      46.786
2014    9        8    18  29    6.75   385.1   10.4      46.815
2014    9        8    18  35    6.75   385.3   10.4      46.843
2014    9        8    18  40    6.75   385.5   10.4      46.871
2014    9        8    18  46    6.75   385.7   10.4      46.898
2014    9        8    18  52    6.75   386.0   10.4      46.925
2014    9        8    18  57    6.75   386.2   10.4      46.952
2014    9        8    19   3    6.75   386.4   10.3      46.978
2014    9        8    19   9    6.74   386.6   10.3      47.004
2014    9        8    19  14    6.74   386.8   10.3      47.030
2014    9        8    19  20    6.74   387.0   10.3      47.055
2014    9        8    19  26    6.74   387.2   10.3      47.080
2014    9        8    19  31    6.74   387.4   10.3      47.104
2014    9        8    19  37    6.74   387.6   10.3      47.128
2014    9        8    19  43    6.74   387.9   10.3      47.152
2014    9        8    19  48    6.74   388.1   10.3      47.176
2014    9        8    19  54    6.74   388.3   10.3      47.200
2014    9        8    20   0    6.74   388.5   10.2      47.223
2014    9        8    20   5    6.74   388.7   10.2      47.245
2014    9        8    20  11    6.74   388.9   10.2      47.268
2014    9        8    20  17    6.74   389.1   10.2      47.290
2014    9        8    20  22    6.73   389.3   10.2      47.311
2014    9        8    20  28    6.73   389.5   10.2      47.332
2014    9        8    20  34    6.73   389.7   10.2      47.353
2014    9        8    20  39    6.73   389.9   10.2      47.373
2014    9        8    20  45    6.73   390.1   10.2      47.394
2014    9        8    20  51    6.73   390.3   10.1      47.415
2014    9        8    20  56    6.73   390.5   10.1      47.436
2014    9        8    21   2    6.73   390.7   10.1      47.457
2014    9        8    21   8    6.73   391.0   10.1      47.478
2014    9        8    21  13    6.73   391.2   10.1      47.500
2014    9        8    21  19    6.72   391.4   10.1      47.521
2014    9        8    21  25    6.72   391.6   10.1      47.543
2014    9        8    21  30    6.72   391.8   10.1      47.565
2014    9        8    21  36    6.72   392.0   10.1      47.587
2014    9        8    21  42    6.72   392.2   10.0      47.609
2014    9        8    21  47    6.72   392.4   10.0      47.631
2014    9        8    21  53    6.72   392.6   10.0      47.653
2014    9        8    21  59    6.72   392.9   10.0      47.676
2014    9        8    22   4    6.71   393.1   10.0      47.699
2014    9        8    22  10    6.71   393.3   10.0      47.722
2014    9        8    22  16    6.71   393.5   10.0      47.745
2014    9        8    22  21    6.71   393.7   10.0      47.767
2014    9        8    22  27    6.71   393.9   10.0      47.791
2014    9        8    22  33    6.71   394.2   10.0      47.814
2014    9        8    22  38    6.70   394.4    9.9      47.836
2014    9        8    22  44    6.70   394.6    9.9      47.858
2014    9        8    22  50    6.70   394.8    9.9      47.879
2014    9        8    22  55    6.70   395.1    9.9      47.900
2014    9        8    23   1    6.70   395.3    9.9      47.919
2014    9        8    23   7    6.69   395.5    9.9      47.937
2014    9        8    23  12    6.69   395.7    9.9      47.955
2014    9        8    23  18    6.69   395.9    9.9      47.971
2014    9        8    23  24    6.69   396.1    9.8      47.987
2014    9        8    23  29    6.68   396.3    9.8      48.003
2014    9        8    23  35    6.68   396.5    9.8      48.019
2014    9        8    23  41    6.68   396.7    9.8      48.035
2014    9        8    23  46    6.67   396.9    9.8      48.051
2014    9        8    23  52    6.67   397.1    9.8      48.066
2014    9        8    23  58    6.67   397.3    9.8      48.081
2014    9        9     0   3    6.67   397.5    9.8      48.096
2014    9        9     0   9    6.66   397.6    9.7      48.111
2014    9        9     0  15    6.66   397.8    9.7      48.125
2014    9        9     0  20    6.66   398.0    9.7      48.140
2014    9        9     0  26    6.66   398.2    9.7      48.154
2014    9        9     0  32    6.65   398.4    9.7      48.170
2014    9        9     0  37    6.65   398.6    9.7      48.185
2014    9        9     0  43    6.65   398.8    9.7      48.201
2014    9        9     0  49    6.65   399.0    9.7      48.217
2014    9        9     0  54    6.64   399.2    9.6      48.232
2014    9        9     1   0    6.64   399.4    9.6      48.248
2014    9        9     1   5    6.64   399.6    9.6      48.263
2014    9        9     1  11    6.64   399.8    9.6      48.277
2014    9        9     1  17    6.63   400.0    9.6      48.291
2014    9        9     1  22    6.63   400.2    9.6      48.303
2014    9        9     1  28    6.63   400.4    9.6      48.315
2014    9        9     1  34    6.62   400.6    9.6      48.325
2014    9        9     1  39    6.62   400.8    9.6      48.335
2014    9        9     1  45    6.62   401.0    9.5      48.345
2014    9        9     1  51    6.61   401.2    9.5      48.354
2014    9        9     1  56    6.61   401.4    9.5      48.363
2014    9        9     2   2    6.61   401.6    9.5      48.371
2014    9        9     2   8    6.60   401.8    9.5      48.378
2014    9        9     2  13    6.60   402.0    9.5      48.385
2014    9        9     2  19    6.60   402.2    9.5      48.390
2014    9        9     2  25    6.59   402.3    9.4      48.395
2014    9        9     2  30    6.59   402.5    9.4      48.398
2014    9        9     2  36    6.59   402.7    9.4      48.401
2014    9        9     2  42    6.58   402.9    9.4      48.402
2014    9        9     2  47    6.58   403.1    9.4      48.404
2014    9        9     2  53    6.57   403.3    9.4      48.405
2014    9        9     2  59    6.57   403.4    9.4      48.406
2014    9        9     3   4    6.57   403.6    9.3      48.407
2014    9        9     3  10    6.56   403.8    9.3      48.407
2014    9        9     3  16    6.56   404.0    9.3      48.407
2014    9        9     3  21    6.56   404.1    9.3      48.407
2014    9        9     3  27    6.55   404.3    9.3      48.407
2014    9        9     3  33    6.55   404.5    9.3      48.406
2014    9        9     3  38    6.54   404.6    9.3      48.406
2014    9        9     3  44    6.54   404.8    9.2      48.406
2014    9        9     3  50    6.54   405.0    9.2      48.406
2014    9        9     3  55    6.53   405.2    9.2      48.407
2014    9        9     4   1    6.53   405.4    9.2      48.408
2014    9        9     4   7    6.52   405.6    9.2      48.410
2014    9        9     4  12    6.52   405.7    9.2      48.412
2014    9        9     4  18    6.52   405.9    9.2      48.414
2014    9        9     4  24    6.51   406.1    9.1      48.416
2014    9        9     4  29    6.51   406.3    9.1      48.417
2014    9        9     4  35    6.51   406.5    9.1      48.417
2014    9        9     4  41    6.50   406.7    9.1      48.416
2014    9        9     4  46    6.50   406.9    9.1      48.416
2014    9        9     4  52    6.49   407.1    9.1      48.414
2014    9        9     4  58    6.49   407.2    9.1      48.411
2014    9        9     5   3    6.49   407.4    9.1      48.409
2014    9        9     5   9    6.48   407.6    9.0      48.406
2014    9        9     5  15    6.48   407.8    9.0      48.402
2014    9        9     5  20    6.47   408.0    9.0      48.398
2014    9        9     5  26    6.47   408.1    9.0      48.394
2014    9        9     5  32    6.47   408.3    9.0      48.390
2014    9        9     5  37    6.46   408.5    9.0      48.386
2014    9        9     5  43    6.46   408.7    9.0      48.382
2014    9        9     5  49    6.45   408.8    9.0      48.378
2014    9        9     5  54    6.45   409.0    8.9      48.373
2014    9        9     6   0    6.44   409.2    8.9      48.367
2014    9        9     6   6    6.44   409.4    8.9      48.361
2014    9        9     6  11    6.43   409.5    8.9      48.353
2014    9        9     6  17    6.43   409.7    8.9      48.345
2014    9        9     6  23    6.43   409.9    8.9      48.335
2014    9        9     6  28    6.42   410.0    8.9      48.325
2014    9        9     6  34    6.42   410.2    8.8      48.314
2014    9        9     6  40    6.41   410.3    8.8      48.304
2014    9        9     6  45    6.41   410.5    8.8      48.293
2014    9        9     6  51    6.40   410.6    8.8      48.283
2014    9        9     6  57    6.40   410.7    8.8      48.273
2014    9        9     7   2    6.39   410.9    8.8      48.263
2014    9        9     7   8    6.39   411.0    8.8      48.254
2014    9        9     7  13    6.39   411.1    8.8      48.245
2014    9        9     7  19    6.38   411.2    8.7      48.236
2014    9        9     7  25    6.38   411.4    8.7      48.227
2014    9        9     7  30    6.37   411.5    8.7      48.220
2014    9        9     7  36    6.37   411.6    8.7      48.213
2014    9        9     7  42    6.37   411.7    8.7      48.206
2014    9        9     7  47    6.36   411.8    8.7      48.201
2014    9        9     7  53    6.36   411.9    8.7      48.198
2014    9        9     7  59    6.35   412.1    8.7      48.195
2014    9        9     8   4    6.35   412.2    8.7      48.193
2014    9        9     8  10    6.35   412.3    8.7      48.192
2014    9        9     8  16    6.34   412.5    8.6      48.191
2014    9        9     8  21    6.34   412.6    8.6      48.191
2014    9        9     8  27    6.33   412.7    8.6      48.190
2014    9        9     8  33    6.33   412.9    8.6      48.188
2014    9        9     8  38    6.33   413.0    8.6      48.186
2014    9        9     8  44    6.32   413.1    8.6      48.182
2014    9        9     8  50    6.32   413.3    8.6      48.178
2014    9        9     8  55    6.32   413.4    8.6      48.173
2014    9        9     9   1    6.31   413.5    8.6      48.168
2014    9        9     9   7    6.31   413.7    8.6      48.163
2014    9        9     9  12    6.30   413.8    8.6      48.157
2014    9        9     9  18    6.30   413.9    8.5      48.151
2014    9        9     9  24    6.30   414.1    8.5      48.143
2014    9        9     9  29    6.29   414.2    8.5      48.135
2014    9        9     9  35    6.29   414.3    8.5      48.127
2014    9        9     9  41    6.28   414.4    8.5      48.117
2014    9        9     9  46    6.28   414.6    8.5      48.107
2014    9        9     9  52    6.27   414.7    8.5      48.096
2014    9        9     9  58    6.27   414.8    8.5      48.084
2014    9        9    10   3    6.27   414.9    8.5      48.072
2014    9        9    10   9    6.26   415.0    8.4      48.060
2014    9        9    10  15    6.26   415.1    8.4      48.047
2014    9        9    10  20    6.25   415.2    8.4      48.035
2014    9        9    10  26    6.25   415.3    8.4      48.023
2014    9        9    10  32    6.24   415.4    8.4      48.011
2014    9        9    10  37    6.24   415.5    8.4      48.000
2014    9        9    10  43    6.24   415.6    8.4      47.988
2014    9        9    10  49    6.23   415.7    8.4      47.977
2014    9        9    10  54    6.23   415.8    8.4      47.966
2014    9        9    11   0    6.22   415.9    8.4      47.955
2014    9        9    11   6    6.22   416.0    8.3      47.945
2014    9        9    11  11    6.22   416.2    8.3      47.936
2014    9        9    11  17    6.21   416.3    8.3      47.926
2014    9        9    11  23    6.21   416.4    8.3      47.917
2014    9        9    11  28    6.21   416.5    8.3      47.908
2014    9        9    11  34    6.20   416.6    8.3      47.898
2014    9        9    11  40    6.20   416.8    8.3      47.889
2014    9        9    11  45    6.19   416.9    8.3      47.878
2014    9        9    11  51    6.19   417.0    8.3      47.866
2014    9        9    11  57    6.19   417.1    8.3      47.854
2014    9        9    12   2    6.18   417.2    8.3      47.842
2014    9        9    12   8    6.18   417.4    8.2      47.830
2014    9        9    12  14    6.17   417.5    8.2      47.817
2014    9        9    12  19    6.17   417.6    8.2      47.804
2014    9        9    12  25    6.16   417.7    8.2      47.790
2014    9        9    12  31    6.16   417.8    8.2      47.776
2014    9        9    12  36    6.16   417.9    8.2      47.761
2014    9        9    12  42    6.15   418.0    8.2      47.747
2014    9        9    12  48    6.15   418.2    8.2      47.732
2014    9        9    12  53    6.14   418.3    8.2      47.717
2014    9        9    12  59    6.14   418.4    8.2      47.702
2014    9        9    13   5    6.14   418.5    8.2      47.687
2014    9        9    13  10    6.13   418.6    8.1      47.672
2014    9        9    13  16    6.13   418.7    8.1      47.656
2014    9        9    13  21    6.12   418.8    8.1      47.640
2014    9        9    13  27    6.12   418.9    8.1      47.625
2014    9        9    13  33    6.12   419.0    8.1      47.609
2014    9        9    13  38    6.11   419.1    8.1      47.594
2014    9        9    13  44    6.11   419.2    8.1      47.579
2014    9        9    13  50    6.10   419.3    8.1      47.563
2014    9        9    13  55    6.10   419.4    8.1      47.548
2014    9        9    14   1    6.10   419.4    8.1      47.534
2014    9        9    14   7    6.09   419.5    8.1      47.519
2014    9        9    14  12    6.09   419.6    8.0      47.505
2014    9        9    14  18    6.09   419.7    8.0      47.491
2014    9        9    14  24    6.08   419.8    8.0      47.478
2014    9        9    14  29    6.08   419.9    8.0      47.465
2014    9        9    14  35    6.07   420.0    8.0      47.452
2014    9        9    14  41    6.07   420.1    8.0      47.440
2014    9        9    14  46    6.07   420.1    8.0      47.428
2014    9        9    14  52    6.06   420.2    8.0      47.416
2014    9        9    14  58    6.06   420.3    8.0      47.405
2014    9        9    15   3    6.06   420.4    8.0      47.395
2014    9        9    15   9    6.05   420.5    8.0      47.385
2014    9        9    15  15    6.05   420.5    8.0      47.376
2014    9        9    15  20    6.05   420.6    8.0      47.367
2014    9        9    15  26    6.04   420.7    8.0      47.358
2014    9        9    15  32    6.04   420.8    8.0      47.349
2014    9        9    15  37    6.04   420.8    7.9      47.341
2014    9        9    15  43    6.03   420.9    7.9      47.333
2014    9        9    15  49    6.03   421.0    7.9      47.325
2014    9        9    15  54    6.03   421.1    7.9      47.317
2014    9        9    16   0    6.02   421.1    7.9      47.309
2014    9        9    16   6    6.02   421.2    7.9      47.301
2014    9        9    16  11    6.02   421.3    7.9      47.292
2014    9        9    16  17    6.02   421.3    7.9      47.284
2014    9        9    16  23    6.01   421.4    7.9      47.275
2014    9        9    16  28    6.01   421.5    7.9      47.266
2014    9        9    16  34    6.01   421.6    7.9      47.257
2014    9        9    16  40    6.00   421.6    7.9      47.248
2014    9        9    16  45    6.00   421.7    7.9      47.239
2014    9        9    16  51    6.00   421.7    7.9      47.229
2014    9        9    16  57    5.99   421.8    7.9      47.219
2014    9        9    17   2    5.99   421.9    7.9      47.209
2014    9        9    17   8    5.99   421.9    7.9      47.200
2014    9        9    17  14    5.99   422.0    7.9      47.190
2014    9        9    17  19    5.98   422.0    7.9      47.181
2014    9        9    17  25    5.98   422.1    7.8      47.172
2014    9        9    17  31    5.98   422.1    7.8      47.163
2014    9        9    17  36    5.97   422.2    7.8      47.154
2014    9        9    17  42    5.97   422.3    7.8      47.146
2014    9        9    17  48    5.97   422.3    7.8      47.138
2014    9        9    17  53    5.97   422.4    7.8      47.130
2014    9        9    17  59    5.96   422.4    7.8      47.123
2014    9        9    18   5    5.96   422.5    7.8      47.117
2014    9        9    18  10    5.96   422.6    7.8      47.110
2014    9        9    18  16    5.96   422.6    7.8      47.103
2014    9        9    18  22    5.95   422.7    7.8      47.096
2014    9        9    18  27    5.95   422.8    7.8      47.089
2014    9        9    18  33    5.95   422.8    7.8      47.082
2014    9        9    18  39    5.94   422.9    7.8      47.074
2014    9        9    18  44    5.94   422.9    7.8      47.066
2014    9        9    18  50    5.94   423.0    7.8      47.058
2014    9        9    18  56    5.94   423.1    7.8      47.050
2014    9        9    19   1    5.93   423.1    7.8      47.041
2014    9        9    19   7    5.93   423.2    7.8      47.032
2014    9        9    19  13    5.93   423.3    7.8      47.024
2014    9        9    19  18    5.93   423.3    7.8      47.015
2014    9        9    19  24    5.92   423.4    7.7      47.006
2014    9        9    19  30    5.92   423.4    7.7      46.996
2014    9        9    19  35    5.92   423.5    7.7      46.987
2014    9        9    19  41    5.91   423.6    7.7      46.978
2014    9        9    19  46    5.91   423.6    7.7      46.968
2014    9        9    19  52    5.91   423.7    7.7      46.959
2014    9        9    19  58    5.91   423.8    7.7      46.949
2014    9        9    20   3    5.90   423.8    7.7      46.939
2014    9        9    20   9    5.90   423.9    7.7      46.929
2014    9        9    20  15    5.90   423.9    7.7      46.919
2014    9        9    20  20    5.90   424.0    7.7      46.910
2014    9        9    20  26    5.89   424.1    7.7      46.900
2014    9        9    20  32    5.89   424.1    7.7      46.889
2014    9        9    20  37    5.89   424.2    7.7      46.879
2014    9        9    20  43    5.89   424.2    7.7      46.869
2014    9        9    20  49    5.88   424.3    7.7      46.859
2014    9        9    20  54    5.88   424.3    7.7      46.849
2014    9        9    21   0    5.88   424.4    7.7      46.839
2014    9        9    21   6    5.88   424.4    7.7      46.830
2014    9        9    21  11    5.87   424.5    7.7      46.820
2014    9        9    21  17    5.87   424.6    7.6      46.810
2014    9        9    21  23    5.87   424.6    7.6      46.800
2014    9        9    21  28    5.86   424.7    7.6      46.791
2014    9        9    21  34    5.86   424.7    7.6      46.782
2014    9        9    21  40    5.86   424.8    7.6      46.772
2014    9        9    21  45    5.86   424.8    7.6      46.763
2014    9        9    21  51    5.86   424.9    7.6      46.754
2014    9        9    21  57    5.85   424.9    7.6      46.745
2014    9        9    22   2    5.85   425.0    7.6      46.736
2014    9        9    22   8    5.85   425.0    7.6      46.728
2014    9        9    22  14    5.85   425.1    7.6      46.719
2014    9        9    22  19    5.84   425.1    7.6      46.711
2014    9        9    22  25    5.84   425.2    7.6      46.703
2014    9        9    22  31    5.84   425.2    7.6      46.695
2014    9        9    22  36    5.84   425.3    7.6      46.687
2014    9        9    22  42    5.83   425.3    7.6      46.679
2014    9        9    22  48    5.83   425.4    7.6      46.672
2014    9        9    22  53    5.83   425.4    7.6      46.664
2014    9        9    22  59    5.83   425.4    7.6      46.657
2014    9        9    23   5    5.83   425.5    7.6      46.650
2014    9        9    23  10    5.82   425.5    7.6      46.642
2014    9        9    23  16    5.82   425.6    7.6      46.635
2014    9        9    23  22    5.82   425.6    7.6      46.629
2014    9        9    23  27    5.82   425.7    7.6      46.622
2014    9        9    23  33    5.82   425.7    7.6      46.615
2014    9        9    23  39    5.82   425.7    7.6      46.609
2014    9        9    23  44    5.81   425.8    7.6      46.602
2014    9        9    23  50    5.81   425.8    7.6      46.596
2014    9        9    23  56    5.81   425.9    7.5      46.590
2014    9       10     0   1    5.81   425.9    7.5      46.585
2014    9       10     0   7    5.81   425.9    7.5      46.579
2014    9       10     0  13    5.80   426.0    7.5      46.574
2014    9       10     0  18    5.80   426.0    7.5      46.569
2014    9       10     0  24    5.80   426.0    7.5      46.563
2014    9       10     0  30    5.80   426.1    7.5      46.559
2014    9       10     0  35    5.80   426.1    7.5      46.555
2014    9       10     0  41    5.80   426.2    7.5      46.550
2014    9       10     0  47    5.79   426.2    7.5      46.547
2014    9       10     0  52    5.79   426.2    7.5      46.543
2014    9       10     0  58    5.79   426.3    7.5      46.539
2014    9       10     1   4    5.79   426.3    7.5      46.535
2014    9       10     1   9    5.79   426.3    7.5      46.532
2014    9       10     1  15    5.79   426.4    7.5      46.528
2014    9       10     1  21    5.78   426.4    7.5      46.525
2014    9       10     1  26    5.78   426.5    7.5      46.521
2014    9       10     1  32    5.78   426.5    7.5      46.518
2014    9       10     1  38    5.78   426.5    7.5      46.514
2014    9       10     1  43    5.78   426.6    7.5      46.510
2014    9       10     1  49    5.78   426.6    7.5      46.506
2014    9       10     1  54    5.77   426.7    7.5      46.502
2014    9       10     2   0    5.77   426.7    7.5      46.498
2014    9       10     2   6    5.77   426.7    7.5      46.494
2014    9       10     2  11    5.77   426.8    7.5      46.489
2014    9       10     2  17    5.77   426.8    7.5      46.485
2014    9       10     2  23    5.77   426.8    7.5      46.481
2014    9       10     2  28    5.77   426.9    7.5      46.476
2014    9       10     2  34    5.76   426.9    7.5      46.472
2014    9       10     2  40    5.76   427.0    7.5      46.467
2014    9       10     2  45    5.76   427.0    7.5      46.462
2014    9       10     2  51    5.76   427.0    7.5      46.458
2014    9       10     2  57    5.76   427.1    7.5      46.453
2014    9       10     3   2    5.76   427.1    7.5      46.448
2014    9       10     3   8    5.75   427.1    7.5      46.444
2014    9       10     3  14    5.75   427.2    7.5      46.439
2014    9       10     3  19    5.75   427.2    7.5      46.434
2014    9       10     3  25    5.75   427.3    7.5      46.429
2014    9       10     3  31    5.75   427.3    7.5      46.425
2014    9       10     3  36    5.75   427.3    7.5      46.420
2014    9       10     3  42    5.75   427.4    7.5      46.416
2014    9       10     3  48    5.74   427.4    7.5      46.411
2014    9       10     3  53    5.74   427.4    7.5      46.406
2014    9       10     3  59    5.74   427.5    7.4      46.402
2014    9       10     4   5    5.74   427.5    7.4      46.398
2014    9       10     4  10    5.74   427.5    7.4      46.393
2014    9       10     4  16    5.74   427.6    7.4      46.389
2014    9       10     4  22    5.74   427.6    7.4      46.385
2014    9       10     4  27    5.73   427.6    7.4      46.382
2014    9       10     4  33    5.73   427.7    7.4      46.378
2014    9       10     4  39    5.73   427.7    7.4      46.374
2014    9       10     4  44    5.73   427.7    7.4      46.371
2014    9       10     4  50    5.73   427.8    7.4      46.368
2014    9       10     4  56    5.73   427.8    7.4      46.365
2014    9       10     5   1    5.73   427.8    7.4      46.362
2014    9       10     5   7    5.72   427.9    7.4      46.360
2014    9       10     5  13    5.72   427.9    7.4      46.358
2014    9       10     5  18    5.72   427.9    7.4      46.356
2014    9       10     5  24    5.72   428.0    7.4      46.354
2014    9       10     5  30    5.72   428.0    7.4      46.352
2014    9       10     5  35    5.72   428.0    7.4      46.351
2014    9       10     5  41    5.72   428.1    7.4      46.350
2014    9       10     5  47    5.72   428.1    7.4      46.349
2014    9       10     5  52    5.72   428.1    7.4      46.349
2014    9       10     5  58    5.71   428.1    7.4      46.349
2014    9       10     6   4    5.71   428.2    7.4      46.349
2014    9       10     6   9    5.71   428.2    7.4      46.349
2014    9       10     6  15    5.71   428.2    7.4      46.349
2014    9       10     6  21    5.71   428.3    7.4      46.350
2014    9       10     6  26    5.71   428.3    7.4      46.350
2014    9       10     6  32    5.71   428.3    7.4      46.351
2014    9       10     6  38    5.71   428.4    7.4      46.352
2014    9       10     6  43    5.71   428.4    7.4      46.352
2014    9       10     6  49    5.71   428.4    7.4      46.353
2014    9       10     6  55    5.71   428.5    7.4      46.353
2014    9       10     7   0    5.70   428.5    7.4      46.353
2014    9       10     7   6    5.70   428.5    7.4      46.354
2014    9       10     7  12    5.70   428.6    7.4      46.354
2014    9       10     7  17    5.70   428.6    7.4      46.355
2014    9       10     7  23    5.70   428.6    7.4      46.355
2014    9       10     7  29    5.70   428.6    7.4      46.355
2014    9       10     7  34    5.70   428.7    7.4      46.355
2014    9       10     7  40    5.70   428.7    7.4      46.356
2014    9       10     7  45    5.70   428.7    7.4      46.356
2014    9       10     7  51    5.70   428.8    7.4      46.356
2014    9       10     7  57    5.70   428.8    7.4      46.356
2014    9       10     8   2    5.69   428.8    7.4      46.356
2014    9       10     8   8    5.69   428.9    7.4      46.356
2014    9       10     8  14    5.69   428.9    7.4      46.356
2014    9       10     8  19    5.69   428.9    7.4      46.357
2014    9       10     8  25    5.69   429.0    7.4      46.357
2014    9       10     8  31    5.69   429.0    7.4      46.357
2014    9       10     8  36    5.69   429.0    7.4      46.357
2014    9       10     8  42    5.69   429.1    7.4      46.357
2014    9       10     8  48    5.69   429.1    7.4      46.358
2014    9       10     8  53    5.69   429.1    7.4      46.358
2014    9       10     8  59    5.69   429.2    7.4      46.358
2014    9       10     9   5    5.69   429.2    7.4      46.358
2014    9       10     9  10    5.68   429.2    7.4      46.359
2014    9       10     9  16    5.68   429.3    7.4      46.359
2014    9       10     9  22    5.68   429.3    7.4      46.359
2014    9       10     9  27    5.68   429.3    7.4      46.360
2014    9       10     9  33    5.68   429.4    7.4      46.361
2014    9       10     9  39    5.68   429.4    7.4      46.361
2014    9       10     9  44    5.68   429.4    7.4      46.361
2014    9       10     9  50    5.68   429.5    7.4      46.362
2014    9       10     9  56    5.68   429.5    7.4      46.363
2014    9       10    10   1    5.68   429.5    7.4      46.363
2014    9       10    10   7    5.68   429.6    7.4      46.364
2014    9       10    10  13    5.68   429.6    7.4      46.365
2014    9       10    10  18    5.68   429.6    7.4      46.365
2014    9       10    10  24    5.68   429.7    7.4      46.366
2014    9       10    10  30    5.67   429.7    7.4      46.367
2014    9       10    10  35    5.67   429.7    7.4      46.367
2014    9       10    10  41    5.67   429.8    7.4      46.368
2014    9       10    10  47    5.67   429.8    7.4      46.369
2014    9       10    10  52    5.67   429.8    7.4      46.370
2014    9       10    10  58    5.67   429.9    7.4      46.371
2014    9       10    11   4    5.67   429.9    7.4      46.372
2014    9       10    11   9    5.67   429.9    7.4      46.373
2014    9       10    11  15    5.67   430.0    7.4      46.374
2014    9       10    11  21    5.67   430.0    7.4      46.375
2014    9       10    11  26    5.67   430.1    7.4      46.376
2014    9       10    11  32    5.67   430.1    7.4      46.377
2014    9       10    11  38    5.67   430.1    7.4      46.379
2014    9       10    11  43    5.67   430.2    7.4      46.380
2014    9       10    11  49    5.67   430.2    7.4      46.382
2014    9       10    11  55    5.66   430.2    7.4      46.383
2014    9       10    12   0    5.66   430.3    7.4      46.385
2014    9       10    12   6    5.66   430.3    7.4      46.387
2014    9       10    12  12    5.66   430.3    7.4      46.389
2014    9       10    12  17    5.66   430.4    7.4      46.391
2014    9       10    12  23    5.66   430.4    7.4      46.394
2014    9       10    12  29    5.66   430.4    7.4      46.396
2014    9       10    12  34    5.66   430.5    7.4      46.398
2014    9       10    12  40    5.66   430.5    7.4      46.401
2014    9       10    12  46    5.66   430.5    7.4      46.404
2014    9       10    12  51    5.66   430.6    7.4      46.407
2014    9       10    12  57    5.66   430.6    7.4      46.410
2014    9       10    13   3    5.66   430.6    7.4      46.413
2014    9       10    13   8    5.66   430.7    7.4      46.417
2014    9       10    13  14    5.66   430.7    7.4      46.420
2014    9       10    13  20    5.66   430.7    7.4      46.424
2014    9       10    13  25    5.66   430.8    7.4      46.428
2014    9       10    13  31    5.66   430.8    7.4      46.432
2014    9       10    13  37    5.66   430.8    7.4      46.436
2014    9       10    13  42    5.65   430.9    7.4      46.440
2014    9       10    13  48    5.65   430.9    7.4      46.445
2014    9       10    13  53    5.65   430.9    7.4      46.449
2014    9       10    13  59    5.65   431.0    7.4      46.454
2014    9       10    14   5    5.65   431.0    7.3      46.458
2014    9       10    14  10    5.65   431.0    7.3      46.463
2014    9       10    14  16    5.65   431.1    7.3      46.468
2014    9       10    14  22    5.65   431.1    7.3      46.473
2014    9       10    14  27    5.65   431.2    7.3      46.478
2014    9       10    14  33    5.65   431.2    7.3      46.483
2014    9       10    14  39    5.65   431.2    7.3      46.488
2014    9       10    14  44    5.65   431.3    7.3      46.493
2014    9       10    14  50    5.65   431.3    7.3      46.499
2014    9       10    14  56    5.65   431.3    7.3      46.504
2014    9       10    15   1    5.65   431.4    7.3      46.510
2014    9       10    15   7    5.65   431.4    7.3      46.515
2014    9       10    15  13    5.65   431.4    7.3      46.521
2014    9       10    15  18    5.65   431.5    7.3      46.527
2014    9       10    15  24    5.65   431.5    7.3      46.532
2014    9       10    15  30    5.65   431.6    7.3      46.538
2014    9       10    15  35    5.65   431.6    7.3      46.544
2014    9       10    15  41    5.65   431.6    7.3      46.550
2014    9       10    15  47    5.65   431.7    7.3      46.556
2014    9       10    15  52    5.65   431.7    7.3      46.563
2014    9       10    15  58    5.65   431.7    7.3      46.569
2014    9       10    16   4    5.65   431.8    7.3      46.575
2014    9       10    16   9    5.65   431.8    7.3      46.582
2014    9       10    16  15    5.65   431.9    7.3      46.588
2014    9       10    16  21    5.65   431.9    7.4      46.595
2014    9       10    16  26    5.65   431.9    7.4      46.602
2014    9       10    16  32    5.65   432.0    7.4      46.609
2014    9       10    16  38    5.65   432.0    7.4      46.616
2014    9       10    16  43    5.65   432.1    7.4      46.623
2014    9       10    16  49    5.64   432.1    7.4      46.630
2014    9       10    16  55    5.64   432.1    7.4      46.638
2014    9       10    17   0    5.64   432.2    7.4      46.645
2014    9       10    17   6    5.64   432.2    7.4      46.653
2014    9       10    17  12    5.64   432.3    7.4      46.661
2014    9       10    17  17    5.64   432.3    7.4      46.669
2014    9       10    17  23    5.64   432.4    7.4      46.677
2014    9       10    17  29    5.64   432.4    7.4      46.686
2014    9       10    17  34    5.64   432.4    7.4      46.694
2014    9       10    17  40    5.64   432.5    7.4      46.703
2014    9       10    17  46    5.64   432.5    7.4      46.711
2014    9       10    17  51    5.64   432.6    7.4      46.720
2014    9       10    17  57    5.64   432.6    7.4      46.728
2014    9       10    18   3    5.64   432.7    7.4      46.737
2014    9       10    18   8    5.64   432.7    7.4      46.745
2014    9       10    18  14    5.64   432.8    7.4      46.754
2014    9       10    18  20    5.64   432.8    7.4      46.762
2014    9       10    18  25    5.64   432.8    7.4      46.770
2014    9       10    18  31    5.64   432.9    7.4      46.778
2014    9       10    18  37    5.64   432.9    7.4      46.786
2014    9       10    18  42    5.64   433.0    7.4      46.793
2014    9       10    18  48    5.64   433.0    7.4      46.800
2014    9       10    18  54    5.64   433.1    7.4      46.808
2014    9       10    18  59    5.64   433.1    7.4      46.815
2014    9       10    19   5    5.64   433.1    7.4      46.822
2014    9       10    19  11    5.64   433.2    7.4      46.828
2014    9       10    19  16    5.64   433.2    7.4      46.835
2014    9       10    19  22    5.64   433.3    7.4      46.841
2014    9       10    19  28    5.64   433.3    7.4      46.848
2014    9       10    19  33    5.64   433.4    7.4      46.854
2014    9       10    19  39    5.64   433.4    7.4      46.860
2014    9       10    19  45    5.64   433.4    7.4      46.866
2014    9       10    19  50    5.64   433.5    7.3      46.872
2014    9       10    19  56    5.64   433.5    7.3      46.878
2014    9       10    20   1    5.64   433.6    7.3      46.884
2014    9       10    20   7    5.64   433.6    7.3      46.890
2014    9       10    20  13    5.64   433.7    7.3      46.896
2014    9       10    20  18    5.64   433.7    7.3      46.902
2014    9       10    20  24    5.64   433.7    7.3      46.908
2014    9       10    20  30    5.64   433.8    7.3      46.913
2014    9       10    20  35    5.64   433.8    7.3      46.919
2014    9       10    20  41    5.64   433.9    7.3      46.925
2014    9       10    20  47    5.64   433.9    7.3      46.931
2014    9       10    20  52    5.64   434.0    7.3      46.937
2014    9       10    20  58    5.64   434.0    7.3      46.943
2014    9       10    21   4    5.64   434.0    7.3      46.949
2014    9       10    21   9    5.64   434.1    7.3      46.955
2014    9       10    21  15    5.64   434.1    7.3      46.962
2014    9       10    21  21    5.64   434.2    7.3      46.968
2014    9       10    21  26    5.64   434.2    7.3      46.974
2014    9       10    21  32    5.64   434.3    7.3      46.981
2014    9       10    21  38    5.64   434.3    7.3      46.988
2014    9       10    21  43    5.64   434.3    7.3      46.995
2014    9       10    21  49    5.64   434.4    7.3      47.001
2014    9       10    21  55    5.63   434.4    7.3      47.008
2014    9       10    22   0    5.63   434.5    7.3      47.015
2014    9       10    22   6    5.63   434.5    7.3      47.023
2014    9       10    22  12    5.63   434.6    7.3      47.030
2014    9       10    22  17    5.63   434.6    7.3      47.037
2014    9       10    22  23    5.63   434.7    7.3      47.045
2014    9       10    22  29    5.63   434.7    7.3      47.053
2014    9       10    22  34    5.63   434.8    7.3      47.061
2014    9       10    22  40    5.63   434.8    7.3      47.069
2014    9       10    22  46    5.63   434.9    7.3      47.077
2014    9       10    22  51    5.63   434.9    7.3      47.085
2014    9       10    22  57    5.63   435.0    7.3      47.094
2014    9       10    23   3    5.63   435.0    7.3      47.102
2014    9       10    23   8    5.63   435.1    7.3      47.111
2014    9       10    23  14    5.63   435.1    7.3      47.120
2014    9       10    23  20    5.63   435.2    7.3      47.128
2014    9       10    23  25    5.63   435.2    7.3      47.137
2014    9       10    23  31    5.63   435.3    7.3      47.146
2014    9       10    23  37    5.63   435.3    7.3      47.155
2014    9       10    23  42    5.63   435.4    7.3      47.164
2014    9       10    23  48    5.63   435.4    7.3      47.173
2014    9       10    23  54    5.63   435.5    7.3      47.182
2014    9       10    23  59    5.63   435.5    7.3      47.192
2014    9       11     0   5    5.63   435.6    7.3      47.201
